Model Number: SPM-002-B   
Serial Number: 70087108
Firmware Version: 004.15.4
Exposure Time: 100000.000000us
Data Taken on: 15-01-2021 16:34:30.797
Wavelength	Amplitude
221.570786	0.000000
221.663406	0.000000
221.756027	0.000000
221.848648	0.000000
221.941269	0.000000
222.033905	0.000000
222.126526	0.000000
222.219162	0.000000
222.311798	0.000000
222.404419	0.000000
222.497055	0.000000
222.589676	0.000000
222.682312	0.000000
222.774933	0.000000
222.867569	0.000000
222.960205	0.000000
223.052841	0.000000
223.145462	0.000000
223.238098	0.000000
223.330734	0.000000
223.423386	0.000000
223.516022	0.000000
223.608658	0.000000
223.701309	0.000000
223.793945	0.000000
223.886581	0.000000
223.979218	0.000000
224.071869	0.000000
224.164505	0.000000
224.257156	0.000000
224.349792	0.000000
224.442444	0.000000
224.535095	0.000000
224.627747	0.000000
224.720398	0.000000
224.813034	0.000000
224.905685	0.000000
224.998337	152.980000
225.090988	152.780000
225.183640	152.480000
225.276291	152.140000
225.368942	152.260000
225.461594	152.620000
225.554245	152.680000
225.646912	152.620000
225.739578	153.180000
225.832230	153.960000
225.924896	153.100000
226.017548	153.740000
226.110199	154.540000
226.202866	153.860000
226.295532	153.380000
226.388184	153.420000
226.480850	152.740000
226.573517	151.800000
226.666168	152.260000
226.758835	152.620000
226.851501	153.500000
226.944183	153.660000
227.036850	153.640000
227.129517	153.680000
227.222183	153.740000
227.314850	153.460000
227.407516	153.560000
227.500198	154.380000
227.592865	153.680000
227.685532	153.220000
227.778214	152.940000
227.870880	153.340000
227.963562	153.680000
228.056229	154.640000
228.148926	154.780000
228.241592	155.580000
228.334274	155.160000
228.426956	154.360000
228.519638	154.220000
228.612305	154.000000
228.704987	153.800000
228.797668	154.000000
228.890350	153.840000
228.983032	153.400000
229.075714	154.140000
229.168396	153.460000
229.261108	152.940000
229.353790	152.800000
229.446472	152.860000
229.539169	152.240000
229.631851	151.940000
229.724533	152.400000
229.817230	153.000000
229.909912	154.160000
230.002609	154.280000
230.095306	154.580000
230.187988	154.340000
230.280685	153.940000
230.373383	152.620000
230.466095	152.300000
230.558792	152.580000
230.651474	152.700000
230.744171	152.660000
230.836868	152.700000
230.929581	152.940000
231.022278	153.020000
231.114975	153.100000
231.207672	152.920000
231.300369	153.520000
231.393082	153.880000
231.485779	153.360000
231.578506	153.180000
231.671204	153.500000
231.763916	153.040000
231.856613	152.440000
231.949326	153.140000
232.042023	153.100000
232.134735	153.160000
232.227448	153.280000
232.320160	154.000000
232.412872	153.720000
232.505585	154.540000
232.598297	154.740000
232.691010	154.180000
232.783722	153.340000
232.876450	153.840000
232.969162	153.020000
233.061874	152.520000
233.154587	152.220000
233.247314	152.680000
233.340027	151.860000
233.432739	152.220000
233.525467	152.320000
233.618179	153.220000
233.710907	153.020000
233.803635	153.620000
233.896347	153.240000
233.989090	153.900000
234.081818	153.700000
234.174545	154.060000
234.267258	153.480000
234.359985	153.760000
234.452713	153.540000
234.545441	153.440000
234.638168	152.900000
234.730896	153.280000
234.823639	153.460000
234.916367	153.760000
235.009094	154.180000
235.101822	154.360000
235.194580	154.400000
235.287308	154.280000
235.380051	153.520000
235.472778	153.540000
235.565521	153.940000
235.658249	153.440000
235.750992	153.540000
235.843719	153.660000
235.936462	153.680000
236.029205	152.920000
236.121948	152.680000
236.214691	153.080000
236.307449	153.760000
236.400192	153.160000
236.492935	153.260000
236.585678	153.800000
236.678421	153.520000
236.771164	153.200000
236.863907	153.900000
236.956665	154.160000
237.049408	155.620000
237.142151	154.980000
237.234909	156.020000
237.327652	155.780000
237.420410	155.640000
237.513153	154.440000
237.605927	154.440000
237.698669	153.280000
237.791428	152.620000
237.884186	152.920000
237.976944	152.540000
238.069702	153.080000
238.162445	152.520000
238.255203	152.940000
238.347961	153.320000
238.440720	153.380000
238.533478	153.180000
238.626266	153.000000
238.719025	152.880000
238.811783	152.480000
238.904541	152.340000
238.997314	152.180000
239.090073	152.440000
239.182831	153.000000
239.275604	153.840000
239.368362	153.940000
239.461136	153.980000
239.553909	153.800000
239.646667	153.280000
239.739441	152.780000
239.832214	152.980000
239.925003	153.120000
240.017761	153.980000
240.110535	154.500000
240.203308	154.160000
240.296082	154.200000
240.388855	153.980000
240.481628	154.000000
240.574417	153.980000
240.667191	154.020000
240.759964	153.540000
240.852737	153.780000
240.945526	153.340000
241.038315	153.320000
241.131088	153.380000
241.223877	154.000000
241.316650	153.460000
241.409439	153.540000
241.502228	152.940000
241.595001	153.400000
241.687790	152.980000
241.780579	153.480000
241.873367	153.740000
241.966141	154.420000
242.058929	153.620000
242.151718	154.100000
242.244507	154.280000
242.337311	153.380000
242.430099	153.500000
242.522903	153.580000
242.615692	153.000000
242.708481	152.940000
242.801270	153.780000
242.894073	153.240000
242.986862	153.540000
243.079651	154.120000
243.172455	153.820000
243.265244	154.100000
243.358063	153.780000
243.450867	153.980000
243.543655	154.000000
243.636459	153.920000
243.729263	153.900000
243.822067	154.400000
243.914856	154.540000
244.007660	154.120000
244.100464	154.260000
244.193268	153.560000
244.286072	153.480000
244.378876	153.160000
244.471680	153.080000
244.564499	153.540000
244.657318	154.780000
244.750122	155.100000
244.842926	154.300000
244.935745	154.980000
245.028549	154.460000
245.121368	153.380000
245.214172	153.240000
245.306992	154.240000
245.399796	153.900000
245.492615	154.060000
245.585434	154.220000
245.678253	154.040000
245.771072	153.800000
245.863892	153.900000
245.956711	153.980000
246.049530	153.880000
246.142349	153.580000
246.235168	153.300000
246.327988	153.540000
246.420807	153.380000
246.513626	153.460000
246.606445	153.560000
246.699280	153.840000
246.792099	153.560000
246.884918	153.260000
246.977753	153.100000
247.070587	153.400000
247.163422	153.280000
247.256241	153.240000
247.349075	153.860000
247.441895	154.060000
247.534729	153.560000
247.627563	153.560000
247.720383	154.140000
247.813217	153.760000
247.906052	153.520000
247.998886	154.140000
248.091736	154.040000
248.184570	153.460000
248.277405	153.700000
248.370239	154.740000
248.463074	155.240000
248.555908	155.660000
248.648743	155.680000
248.741592	155.600000
248.834427	154.740000
248.927261	153.520000
249.020111	153.640000
249.112946	154.240000
249.205795	153.780000
249.298630	153.760000
249.391495	154.340000
249.484344	153.880000
249.577179	153.760000
249.670029	154.300000
249.762878	154.940000
249.855728	155.140000
249.948563	155.120000
250.041412	154.320000
250.134262	154.160000
250.227112	154.040000
250.319962	153.740000
250.412827	153.900000
250.505692	153.900000
250.598541	154.220000
250.691391	153.500000
250.784241	153.520000
250.877106	153.700000
250.969955	153.580000
251.062805	153.720000
251.155670	154.640000
251.248520	154.220000
251.341385	154.540000
251.434235	154.600000
251.527100	154.040000
251.619965	153.360000
251.712814	154.560000
251.805695	154.160000
251.898560	154.660000
251.991425	155.080000
252.084290	155.300000
252.177155	154.160000
252.270020	154.140000
252.362885	153.420000
252.455750	153.400000
252.548615	153.140000
252.641479	153.220000
252.734360	152.860000
252.827240	153.080000
252.920105	153.060000
253.012970	153.000000
253.105850	153.020000
253.198715	153.000000
253.291595	153.240000
253.384460	152.780000
253.477341	152.500000
253.570221	152.900000
253.663086	152.820000
253.755966	153.560000
253.848846	153.780000
253.941727	153.880000
254.034592	153.420000
254.127472	152.940000
254.220367	152.860000
254.313248	152.920000
254.406128	152.820000
254.499008	153.260000
254.591904	154.420000
254.684784	154.480000
254.777664	154.640000
254.870544	154.600000
254.963440	154.420000
255.056335	154.180000
255.149216	153.860000
255.242111	154.160000
255.334991	154.740000
255.427887	154.600000
255.520767	154.500000
255.613663	154.280000
255.706558	153.580000
255.799438	153.440000
255.892334	153.420000
255.985229	153.580000
256.078125	153.440000
256.171021	153.740000
256.263916	154.040000
256.356812	154.600000
256.449707	154.920000
256.542603	154.860000
256.635498	155.620000
256.728394	155.120000
256.821289	154.640000
256.914215	154.520000
257.007080	154.880000
257.100006	154.200000
257.192932	154.840000
257.285828	155.080000
257.378723	154.840000
257.471619	154.420000
257.564545	153.960000
257.657440	153.500000
257.750336	153.860000
257.843262	153.340000
257.936157	154.800000
258.029053	155.380000
258.121979	155.640000
258.214874	155.000000
258.307800	155.280000
258.400696	153.660000
258.493622	153.600000
258.586517	152.580000
258.679443	153.340000
258.772339	153.100000
258.865265	153.460000
258.958160	152.880000
259.051086	154.240000
259.144012	153.500000
259.236938	154.260000
259.329834	154.060000
259.422791	154.340000
259.515717	153.420000
259.608612	153.300000
259.701538	153.080000
259.794464	153.000000
259.887390	152.820000
259.980316	152.840000
260.073212	152.640000
260.166138	151.620000
260.259064	152.160000
260.351990	152.640000
260.444916	152.620000
260.537842	153.500000
260.630768	154.700000
260.723694	154.080000
260.816620	153.960000
260.909546	154.080000
261.002472	153.540000
261.095398	152.880000
261.188354	153.020000
261.281281	152.760000
261.374207	153.020000
261.467133	153.780000
261.560089	154.000000
261.653015	153.900000
261.745972	154.800000
261.838867	155.260000
261.931824	154.960000
262.024780	154.400000
262.117706	154.580000
262.210663	154.140000
262.303589	153.700000
262.396515	153.520000
262.489471	154.800000
262.582397	154.840000
262.675354	154.400000
262.768280	154.320000
262.861237	154.360000
262.954163	153.780000
263.047119	153.740000
263.140045	153.340000
263.233002	153.440000
263.325958	153.140000
263.418884	152.800000
263.511841	152.880000
263.604797	153.440000
263.697723	153.200000
263.790680	153.200000
263.883636	153.760000
263.976593	153.500000
264.069550	153.440000
264.162476	153.220000
264.255463	153.440000
264.348419	153.140000
264.441376	153.480000
264.534332	153.060000
264.627289	153.700000
264.720245	154.180000
264.813202	153.560000
264.906158	154.100000
264.999115	154.600000
265.092072	153.860000
265.185028	154.060000
265.277985	154.700000
265.370941	153.780000
265.463898	153.340000
265.556854	153.500000
265.649811	152.180000
265.742798	151.980000
265.835754	152.620000
265.928711	153.380000
266.021667	153.440000
266.114655	154.280000
266.207611	154.420000
266.300568	153.520000
266.393585	152.980000
266.486511	153.240000
266.579498	152.380000
266.672485	152.460000
266.765442	152.560000
266.858429	153.020000
266.951385	152.660000
267.044342	153.180000
267.137329	153.120000
267.230316	153.440000
267.323273	152.700000
267.416260	153.720000
267.509216	153.340000
267.602203	153.280000
267.695160	153.980000
267.788147	154.120000
267.881134	153.180000
267.974091	153.620000
268.067078	153.500000
268.160065	152.940000
268.253052	153.240000
268.346008	153.440000
268.438995	153.260000
268.531982	153.480000
268.624969	153.080000
268.717987	153.200000
268.810944	152.960000
268.903961	153.180000
268.996948	152.720000
269.089905	153.500000
269.182892	153.600000
269.275879	154.100000
269.368866	153.420000
269.461853	153.780000
269.554871	153.480000
269.647858	153.100000
269.740845	153.420000
269.833832	154.160000
269.926819	153.500000
270.019806	153.500000
270.112793	153.320000
270.205811	153.100000
270.298798	152.880000
270.391785	153.740000
270.484772	153.240000
270.577789	153.620000
270.670776	153.000000
270.763763	152.940000
270.856750	152.940000
270.949768	153.060000
271.042786	153.000000
271.135773	153.320000
271.228790	153.640000
271.321808	153.040000
271.414795	152.880000
271.507782	152.660000
271.600800	152.520000
271.693817	152.520000
271.786804	153.280000
271.879822	153.740000
271.972809	153.800000
272.065826	154.300000
272.158844	153.820000
272.251831	154.420000
272.344849	154.300000
272.437866	154.040000
272.530853	153.700000
272.623871	154.180000
272.716888	152.540000
272.809906	152.940000
272.902893	153.080000
272.995911	152.840000
273.088928	152.460000
273.181946	153.180000
273.274963	152.440000
273.367981	152.400000
273.460999	152.320000
273.554047	152.840000
273.647003	153.340000
273.740051	153.360000
273.833069	153.840000
273.926086	154.420000
274.019135	154.180000
274.112152	153.860000
274.205170	154.220000
274.298187	154.320000
274.391205	153.620000
274.484222	153.660000
274.577240	153.380000
274.670258	153.120000
274.763306	152.780000
274.856323	153.560000
274.949341	153.340000
275.042358	153.860000
275.135406	154.260000
275.228424	154.140000
275.321442	153.840000
275.414490	153.900000
275.507507	153.940000
275.600525	154.220000
275.693573	154.040000
275.786591	153.580000
275.879669	153.640000
275.972656	153.240000
276.065735	152.820000
276.158752	153.460000
276.251801	154.240000
276.344818	154.400000
276.437866	154.260000
276.530884	154.040000
276.623932	153.260000
276.716980	153.480000
276.809998	153.420000
276.903046	153.680000
276.996094	154.620000
277.089111	155.540000
277.182159	155.520000
277.275208	155.100000
277.368256	155.000000
277.461304	154.220000
277.554321	153.600000
277.647369	153.380000
277.740417	153.660000
277.833466	153.160000
277.926514	153.200000
278.019562	153.480000
278.112610	152.820000
278.205688	153.040000
278.298706	153.420000
278.391785	153.400000
278.484833	153.320000
278.577881	153.500000
278.670929	153.620000
278.763977	153.980000
278.857025	154.180000
278.950073	154.120000
279.043121	153.760000
279.136169	153.580000
279.229248	153.100000
279.322296	153.420000
279.415344	153.280000
279.508392	153.320000
279.601440	153.100000
279.694519	153.260000
279.787567	152.900000
279.880615	152.920000
279.973694	153.140000
280.066742	153.280000
280.159790	153.320000
280.252869	153.000000
280.345917	153.100000
280.438995	153.140000
280.532074	153.320000
280.625122	153.760000
280.718201	154.900000
280.811279	154.620000
280.904327	154.480000
280.997406	154.660000
281.090454	154.220000
281.183533	153.160000
281.276581	153.580000
281.369659	153.540000
281.462738	153.480000
281.555786	153.780000
281.648865	154.100000
281.741943	153.700000
281.835022	154.500000
281.928070	154.120000
282.021149	153.780000
282.114227	153.300000
282.207306	153.440000
282.300385	153.640000
282.393433	153.640000
282.486511	153.740000
282.579590	154.460000
282.672668	154.700000
282.765747	153.800000
282.858856	153.760000
282.951904	153.920000
283.045013	153.840000
283.138062	154.000000
283.231171	154.460000
283.324249	154.840000
283.417328	154.880000
283.510406	154.600000
283.603485	154.440000
283.696564	154.320000
283.789642	153.960000
283.882751	153.580000
283.975830	154.200000
284.068909	153.460000
284.161987	153.820000
284.255066	153.560000
284.348175	153.660000
284.441254	153.020000
284.534332	154.160000
284.627441	153.680000
284.720520	153.440000
284.813599	153.600000
284.906708	154.060000
284.999786	152.860000
285.092896	152.580000
285.185974	154.060000
285.279053	153.380000
285.372192	153.000000
285.465240	154.020000
285.558380	154.320000
285.651459	153.380000
285.744568	154.340000
285.837677	154.140000
285.930756	153.700000
286.023865	153.560000
286.116943	153.120000
286.210052	153.200000
286.303162	153.140000
286.396240	152.920000
286.489349	152.760000
286.582458	153.640000
286.675568	153.000000
286.768646	153.360000
286.861755	154.000000
286.954865	154.800000
287.047974	153.780000
287.141083	153.860000
287.234161	153.400000
287.327271	153.180000
287.420380	153.160000
287.513519	153.260000
287.606598	153.220000
287.699738	153.360000
287.792816	153.120000
287.885956	152.960000
287.979034	153.280000
288.072174	153.380000
288.165283	153.480000
288.258392	153.960000
288.351501	153.220000
288.444611	153.440000
288.537720	153.680000
288.630859	153.580000
288.723969	153.640000
288.817078	154.440000
288.910187	154.220000
289.003296	153.580000
289.096436	153.360000
289.189545	152.660000
289.282654	152.100000
289.375763	152.580000
289.468903	153.440000
289.562012	153.900000
289.655121	154.040000
289.748260	154.100000
289.841400	154.280000
289.934509	153.720000
290.027649	153.560000
290.120728	153.500000
290.213898	153.780000
290.306976	153.000000
290.400146	153.060000
290.493256	152.660000
290.586395	152.860000
290.679535	152.860000
290.772644	152.880000
290.865784	152.480000
290.958893	152.600000
291.052032	152.500000
291.145172	152.480000
291.238281	152.120000
291.331421	152.300000
291.424561	152.760000
291.517670	152.780000
291.610809	152.860000
291.703949	153.020000
291.797089	153.400000
291.890228	153.020000
291.983337	152.820000
292.076477	152.440000
292.169617	152.860000
292.262756	152.680000
292.355927	152.500000
292.449036	152.500000
292.542206	152.840000
292.635315	153.160000
292.728485	153.540000
292.821625	153.560000
292.914764	154.680000
293.007904	154.700000
293.101044	154.340000
293.194183	153.920000
293.287323	153.980000
293.380463	153.160000
293.473602	152.680000
293.566742	152.820000
293.659882	153.220000
293.753021	153.520000
293.846191	153.500000
293.939331	153.660000
294.032471	153.260000
294.125610	152.820000
294.218781	153.020000
294.311920	153.500000
294.405060	153.780000
294.498230	154.060000
294.591370	154.240000
294.684540	153.500000
294.777679	152.740000
294.870850	152.860000
294.963959	152.740000
295.057159	152.720000
295.150299	153.320000
295.243469	153.280000
295.336609	152.520000
295.429779	152.780000
295.522919	152.940000
295.616089	152.800000
295.709229	153.500000
295.802399	153.760000
295.895569	153.340000
295.988708	153.200000
296.081879	153.340000
296.175018	152.580000
296.268188	152.480000
296.361359	153.060000
296.454529	153.200000
296.547668	153.100000
296.640839	153.740000
296.734009	153.680000
296.827179	153.640000
296.920319	153.800000
297.013519	153.600000
297.106659	153.640000
297.199860	153.820000
297.292999	153.780000
297.386200	153.340000
297.479309	153.260000
297.572510	152.680000
297.665680	152.560000
297.758850	152.400000
297.852020	152.520000
297.945190	152.500000
298.038361	152.240000
298.131531	152.900000
298.224701	152.800000
298.317871	152.420000
298.411072	152.120000
298.504242	152.420000
298.597412	151.820000
298.690582	152.100000
298.783752	152.400000
298.876923	153.040000
298.970093	153.180000
299.063293	153.680000
299.156464	153.800000
299.249634	154.060000
299.342834	154.160000
299.436005	154.560000
299.529205	154.320000
299.622345	154.460000
299.715576	153.780000
299.808716	153.220000
299.901917	152.920000
299.995117	153.060000
300.088287	152.840000
300.181488	152.780000
300.274658	152.840000
300.367828	153.300000
300.461029	153.340000
300.554199	153.500000
300.647400	153.800000
300.740601	154.520000
300.833771	154.020000
300.926971	153.920000
301.020142	153.240000
301.113342	153.080000
301.206512	152.920000
301.299713	153.180000
301.392914	152.940000
301.486084	153.660000
301.579285	153.420000
301.672516	153.780000
301.765686	153.300000
301.858887	153.580000
301.952057	153.160000
302.045288	153.640000
302.138458	153.220000
302.231659	153.440000
302.324860	153.160000
302.418060	153.040000
302.511261	153.000000
302.604462	153.060000
302.697662	152.820000
302.790863	152.640000
302.884064	152.220000
302.977264	152.260000
303.070465	152.460000
303.163666	153.220000
303.256866	153.660000
303.350067	153.800000
303.443268	153.660000
303.536469	153.460000
303.629669	152.760000
303.722870	152.440000
303.816071	152.520000
303.909271	152.720000
304.002472	151.960000
304.095673	151.900000
304.188934	151.620000
304.282104	152.580000
304.375336	152.740000
304.468506	153.040000
304.561768	153.240000
304.654968	154.040000
304.748169	153.360000
304.841370	152.840000
304.934601	153.240000
305.027802	152.920000
305.121002	152.320000
305.214233	152.200000
305.307434	152.440000
305.400665	153.160000
305.493866	153.060000
