Model Number: SPM-002-B   
Serial Number: 70087108
Firmware Version: 004.15.4
Exposure Time: 100000.000000us
Data Taken on: 15-01-2021 16:34:49.299
Wavelength	Amplitude
221.570786	0.000000
221.663406	0.000000
221.756027	0.000000
221.848648	0.000000
221.941269	0.000000
222.033905	0.000000
222.126526	0.000000
222.219162	0.000000
222.311798	0.000000
222.404419	0.000000
222.497055	0.000000
222.589676	0.000000
222.682312	0.000000
222.774933	0.000000
222.867569	0.000000
222.960205	0.000000
223.052841	0.000000
223.145462	0.000000
223.238098	0.000000
223.330734	0.000000
223.423386	0.000000
223.516022	0.000000
223.608658	0.000000
223.701309	0.000000
223.793945	0.000000
223.886581	0.000000
223.979218	0.000000
224.071869	0.000000
224.164505	0.000000
224.257156	0.000000
224.349792	0.000000
224.442444	0.000000
224.535095	0.000000
224.627747	0.000000
224.720398	0.000000
224.813034	0.000000
224.905685	0.000000
224.998337	153.660000
225.090988	153.040000
225.183640	153.000000
225.276291	152.660000
225.368942	152.920000
225.461594	153.000000
225.554245	153.380000
225.646912	153.440000
225.739578	154.360000
225.832230	154.680000
225.924896	153.940000
226.017548	154.120000
226.110199	155.140000
226.202866	154.340000
226.295532	154.200000
226.388184	154.220000
226.480850	153.680000
226.573517	152.760000
226.666168	152.920000
226.758835	153.140000
226.851501	153.860000
226.944183	153.980000
227.036850	153.820000
227.129517	153.820000
227.222183	153.720000
227.314850	153.280000
227.407516	153.840000
227.500198	154.920000
227.592865	154.720000
227.685532	154.420000
227.778214	154.520000
227.870880	154.500000
227.963562	154.520000
228.056229	155.020000
228.148926	154.780000
228.241592	155.780000
228.334274	155.280000
228.426956	154.760000
228.519638	154.700000
228.612305	154.640000
228.704987	153.980000
228.797668	154.120000
228.890350	153.740000
228.983032	152.920000
229.075714	153.860000
229.168396	153.440000
229.261108	153.080000
229.353790	153.280000
229.446472	153.900000
229.539169	153.680000
229.631851	153.340000
229.724533	153.620000
229.817230	153.880000
229.909912	154.820000
230.002609	154.580000
230.095306	154.880000
230.187988	155.080000
230.280685	154.440000
230.373383	153.080000
230.466095	152.860000
230.558792	152.860000
230.651474	152.580000
230.744171	152.620000
230.836868	152.640000
230.929581	152.760000
231.022278	152.900000
231.114975	152.920000
231.207672	153.040000
231.300369	153.620000
231.393082	153.880000
231.485779	153.800000
231.578506	153.880000
231.671204	154.100000
231.763916	153.860000
231.856613	153.560000
231.949326	153.840000
232.042023	153.880000
232.134735	153.760000
232.227448	153.640000
232.320160	154.220000
232.412872	154.100000
232.505585	154.920000
232.598297	155.400000
232.691010	155.300000
232.783722	154.560000
232.876450	155.000000
232.969162	154.340000
233.061874	153.800000
233.154587	153.760000
233.247314	154.260000
233.340027	153.660000
233.432739	154.100000
233.525467	153.860000
233.618179	154.200000
233.710907	153.620000
233.803635	153.980000
233.896347	153.260000
233.989090	154.260000
234.081818	154.400000
234.174545	154.820000
234.267258	154.740000
234.359985	155.160000
234.452713	154.720000
234.545441	154.480000
234.638168	154.160000
234.730896	154.500000
234.823639	154.200000
234.916367	154.380000
235.009094	154.180000
235.101822	154.220000
235.194580	153.920000
235.287308	154.240000
235.380051	153.700000
235.472778	154.240000
235.565521	154.700000
235.658249	154.220000
235.750992	154.020000
235.843719	154.160000
235.936462	154.180000
236.029205	153.480000
236.121948	153.440000
236.214691	153.720000
236.307449	154.380000
236.400192	153.680000
236.492935	153.800000
236.585678	154.120000
236.678421	154.000000
236.771164	153.460000
236.863907	154.080000
236.956665	154.240000
237.049408	155.940000
237.142151	155.440000
237.234909	156.460000
237.327652	156.220000
237.420410	156.240000
237.513153	154.720000
237.605927	154.780000
237.698669	153.720000
237.791428	152.920000
237.884186	153.340000
237.976944	152.980000
238.069702	153.280000
238.162445	152.740000
238.255203	153.460000
238.347961	153.540000
238.440720	153.740000
238.533478	153.700000
238.626266	153.780000
238.719025	153.840000
238.811783	153.420000
238.904541	153.400000
238.997314	153.260000
239.090073	152.980000
239.182831	153.340000
239.275604	154.420000
239.368362	154.200000
239.461136	154.420000
239.553909	154.940000
239.646667	154.500000
239.739441	153.540000
239.832214	153.720000
239.925003	153.640000
240.017761	154.300000
240.110535	154.840000
240.203308	154.680000
240.296082	155.080000
240.388855	155.200000
240.481628	155.040000
240.574417	155.200000
240.667191	155.020000
240.759964	154.160000
240.852737	154.280000
240.945526	153.920000
241.038315	153.400000
241.131088	153.740000
241.223877	154.080000
241.316650	153.320000
241.409439	153.680000
241.502228	153.540000
241.595001	153.920000
241.687790	153.740000
241.780579	154.280000
241.873367	154.200000
241.966141	154.420000
242.058929	153.660000
242.151718	154.180000
242.244507	154.360000
242.337311	153.920000
242.430099	154.440000
242.522903	154.880000
242.615692	154.540000
242.708481	154.540000
242.801270	155.000000
242.894073	154.800000
242.986862	155.000000
243.079651	155.640000
243.172455	155.200000
243.265244	155.320000
243.358063	154.560000
243.450867	154.620000
243.543655	154.180000
243.636459	154.220000
243.729263	154.380000
243.822067	154.960000
243.914856	155.520000
244.007660	155.480000
244.100464	155.440000
244.193268	154.680000
244.286072	154.300000
244.378876	153.340000
244.471680	153.100000
244.564499	153.640000
244.657318	154.360000
244.750122	154.720000
244.842926	154.180000
244.935745	154.880000
245.028549	154.620000
245.121368	154.020000
245.214172	153.880000
245.306992	154.860000
245.399796	154.120000
245.492615	154.160000
245.585434	154.260000
245.678253	154.460000
245.771072	153.900000
245.863892	154.400000
245.956711	154.360000
246.049530	154.140000
246.142349	153.400000
246.235168	153.520000
246.327988	153.740000
246.420807	153.600000
246.513626	153.860000
246.606445	154.140000
246.699280	154.120000
246.792099	154.060000
246.884918	154.020000
246.977753	154.080000
247.070587	153.920000
247.163422	154.020000
247.256241	153.780000
247.349075	154.220000
247.441895	154.420000
247.534729	154.420000
247.627563	154.520000
247.720383	155.160000
247.813217	154.660000
247.906052	154.100000
247.998886	154.220000
248.091736	153.760000
248.184570	153.020000
248.277405	153.220000
248.370239	154.180000
248.463074	155.260000
248.555908	155.880000
248.648743	155.780000
248.741592	156.000000
248.834427	154.980000
248.927261	153.760000
249.020111	153.920000
249.112946	154.640000
249.205795	154.040000
249.298630	154.660000
249.391495	154.700000
249.484344	154.160000
249.577179	154.280000
249.670029	154.700000
249.762878	154.880000
249.855728	155.040000
249.948563	155.120000
250.041412	153.980000
250.134262	154.080000
250.227112	153.980000
250.319962	154.080000
250.412827	154.140000
250.505692	154.080000
250.598541	154.060000
250.691391	153.660000
250.784241	153.680000
250.877106	153.880000
250.969955	154.060000
251.062805	154.280000
251.155670	155.140000
251.248520	154.800000
251.341385	155.040000
251.434235	155.020000
251.527100	154.460000
251.619965	153.860000
251.712814	155.000000
251.805695	154.700000
251.898560	154.780000
251.991425	155.020000
252.084290	155.100000
252.177155	154.140000
252.270020	153.900000
252.362885	154.140000
252.455750	154.440000
252.548615	154.220000
252.641479	154.220000
252.734360	154.260000
252.827240	154.080000
252.920105	154.020000
253.012970	153.740000
253.105850	153.800000
253.198715	153.420000
253.291595	153.520000
253.384460	153.120000
253.477341	153.100000
253.570221	153.280000
253.663086	153.380000
253.755966	154.020000
253.848846	154.120000
253.941727	154.360000
254.034592	154.180000
254.127472	153.540000
254.220367	153.160000
254.313248	153.520000
254.406128	153.280000
254.499008	153.720000
254.591904	154.960000
254.684784	155.320000
254.777664	155.060000
254.870544	154.920000
254.963440	154.580000
255.056335	154.260000
255.149216	153.640000
255.242111	153.940000
255.334991	154.680000
255.427887	154.740000
255.520767	154.980000
255.613663	154.860000
255.706558	154.380000
255.799438	153.720000
255.892334	153.560000
255.985229	153.360000
256.078125	153.680000
256.171021	154.000000
256.263916	154.580000
256.356812	154.800000
256.449707	154.700000
256.542603	154.540000
256.635498	154.860000
256.728394	154.660000
256.821289	154.320000
256.914215	154.860000
257.007080	155.060000
257.100006	154.900000
257.192932	155.160000
257.285828	155.340000
257.378723	154.640000
257.471619	154.500000
257.564545	153.680000
257.657440	153.660000
257.750336	154.200000
257.843262	154.340000
257.936157	155.400000
258.029053	155.900000
258.121979	155.960000
258.214874	155.540000
258.307800	155.400000
258.400696	154.220000
258.493622	154.240000
258.586517	153.080000
258.679443	153.180000
258.772339	152.940000
258.865265	153.100000
258.958160	152.640000
259.051086	153.980000
259.144012	153.960000
259.236938	154.840000
259.329834	154.780000
259.422791	155.040000
259.515717	154.280000
259.608612	153.920000
259.701538	153.720000
259.794464	153.620000
259.887390	153.540000
259.980316	153.400000
260.073212	153.060000
260.166138	152.160000
260.259064	152.580000
260.351990	153.220000
260.444916	153.540000
260.537842	154.380000
260.630768	155.440000
260.723694	155.220000
260.816620	154.880000
260.909546	154.920000
261.002472	154.440000
261.095398	153.860000
261.188354	153.800000
261.281281	153.220000
261.374207	153.040000
261.467133	153.880000
261.560089	154.040000
261.653015	154.000000
261.745972	154.900000
261.838867	155.580000
261.931824	155.400000
262.024780	154.920000
262.117706	155.060000
262.210663	155.020000
262.303589	154.600000
262.396515	154.660000
262.489471	155.520000
262.582397	155.120000
262.675354	154.320000
262.768280	154.120000
262.861237	153.760000
262.954163	153.500000
263.047119	153.800000
263.140045	153.740000
263.233002	153.980000
263.325958	153.940000
263.418884	153.380000
263.511841	153.420000
263.604797	153.680000
263.697723	153.440000
263.790680	153.320000
263.883636	154.140000
263.976593	154.100000
264.069550	154.300000
264.162476	154.400000
264.255463	154.240000
264.348419	153.600000
264.441376	153.780000
264.534332	153.280000
264.627289	153.340000
264.720245	154.200000
264.813202	154.020000
264.906158	154.000000
264.999115	154.700000
265.092072	154.540000
265.185028	154.640000
265.277985	155.140000
265.370941	154.940000
265.463898	154.380000
265.556854	154.140000
265.649811	153.180000
265.742798	153.080000
265.835754	153.140000
265.928711	154.140000
266.021667	154.420000
266.114655	154.560000
266.207611	154.860000
266.300568	154.200000
266.393585	153.480000
266.486511	153.840000
266.579498	153.260000
266.672485	152.980000
266.765442	153.260000
266.858429	153.820000
266.951385	153.120000
267.044342	153.780000
267.137329	153.640000
267.230316	154.020000
267.323273	153.560000
267.416260	154.240000
267.509216	154.080000
267.602203	154.080000
267.695160	154.400000
267.788147	154.340000
267.881134	153.840000
267.974091	154.000000
268.067078	153.960000
268.160065	153.840000
268.253052	153.520000
268.346008	153.700000
268.438995	153.500000
268.531982	153.620000
268.624969	153.060000
268.717987	153.760000
268.810944	153.740000
268.903961	153.860000
268.996948	153.560000
269.089905	154.140000
269.182892	154.080000
269.275879	154.380000
269.368866	154.100000
269.461853	154.300000
269.554871	154.020000
269.647858	153.840000
269.740845	153.880000
269.833832	154.200000
269.926819	153.820000
270.019806	154.000000
270.112793	153.440000
270.205811	153.300000
270.298798	152.960000
270.391785	153.900000
270.484772	153.500000
270.577789	153.980000
270.670776	153.840000
270.763763	153.940000
270.856750	153.600000
270.949768	153.580000
271.042786	153.500000
271.135773	153.260000
271.228790	153.440000
271.321808	153.000000
271.414795	152.400000
271.507782	152.480000
271.600800	152.300000
271.693817	152.700000
271.786804	153.140000
271.879822	153.760000
271.972809	153.700000
272.065826	154.320000
272.158844	153.560000
272.251831	154.340000
272.344849	154.500000
272.437866	154.360000
272.530853	154.440000
272.623871	154.860000
272.716888	153.520000
272.809906	153.820000
272.902893	153.600000
272.995911	152.900000
273.088928	152.660000
273.181946	153.220000
273.274963	152.640000
273.367981	152.880000
273.460999	152.980000
273.554047	153.380000
273.647003	153.760000
273.740051	153.940000
273.833069	153.980000
273.926086	154.480000
274.019135	154.480000
274.112152	154.040000
274.205170	154.140000
274.298187	154.460000
274.391205	154.080000
274.484222	154.000000
274.577240	153.900000
274.670258	153.800000
274.763306	153.740000
274.856323	154.220000
274.949341	154.000000
275.042358	154.400000
275.135406	154.540000
275.228424	154.360000
275.321442	154.200000
275.414490	154.020000
275.507507	154.300000
275.600525	154.440000
275.693573	154.020000
275.786591	153.540000
275.879669	153.820000
275.972656	153.420000
276.065735	153.220000
276.158752	154.040000
276.251801	154.960000
276.344818	154.940000
276.437866	154.680000
276.530884	154.480000
276.623932	153.740000
276.716980	153.660000
276.809998	154.080000
276.903046	154.140000
276.996094	155.000000
277.089111	155.740000
277.182159	156.120000
277.275208	155.720000
277.368256	156.040000
277.461304	155.460000
277.554321	154.560000
277.647369	153.920000
277.740417	153.660000
277.833466	153.200000
277.926514	152.960000
278.019562	153.880000
278.112610	153.400000
278.205688	153.800000
278.298706	154.020000
278.391785	153.960000
278.484833	153.280000
278.577881	153.440000
278.670929	153.600000
278.763977	153.760000
278.857025	154.120000
278.950073	154.280000
279.043121	154.200000
279.136169	153.800000
279.229248	153.260000
279.322296	153.120000
279.415344	153.140000
279.508392	153.080000
279.601440	153.160000
279.694519	153.280000
279.787567	153.180000
279.880615	152.980000
279.973694	152.920000
280.066742	153.140000
280.159790	153.500000
280.252869	153.220000
280.345917	153.360000
280.438995	153.560000
280.532074	153.280000
280.625122	153.440000
280.718201	154.620000
280.811279	154.680000
280.904327	154.500000
280.997406	154.700000
281.090454	154.620000
281.183533	153.760000
281.276581	153.880000
281.369659	153.740000
281.462738	153.740000
281.555786	153.720000
281.648865	153.740000
281.741943	153.580000
281.835022	154.420000
281.928070	154.340000
282.021149	154.060000
282.114227	154.080000
282.207306	153.960000
282.300385	154.100000
282.393433	154.160000
282.486511	154.400000
282.579590	155.060000
282.672668	155.540000
282.765747	154.640000
282.858856	154.380000
282.951904	154.480000
283.045013	154.580000
283.138062	154.440000
283.231171	154.860000
283.324249	155.260000
283.417328	155.260000
283.510406	154.580000
283.603485	154.520000
283.696564	154.420000
283.789642	154.280000
283.882751	153.880000
283.975830	154.600000
284.068909	154.180000
284.161987	154.560000
284.255066	154.300000
284.348175	154.640000
284.441254	154.140000
284.534332	154.560000
284.627441	154.280000
284.720520	154.120000
284.813599	154.000000
284.906708	154.080000
284.999786	153.460000
285.092896	153.180000
285.185974	154.160000
285.279053	153.700000
285.372192	153.580000
285.465240	154.620000
285.558380	154.380000
285.651459	153.700000
285.744568	154.940000
285.837677	154.540000
285.930756	154.140000
286.023865	154.540000
286.116943	154.340000
286.210052	154.040000
286.303162	154.300000
286.396240	154.240000
286.489349	154.120000
286.582458	154.580000
286.675568	153.880000
286.768646	153.860000
286.861755	154.140000
286.954865	154.820000
287.047974	154.020000
287.141083	154.240000
287.234161	154.080000
287.327271	153.640000
287.420380	153.580000
287.513519	153.900000
287.606598	154.000000
287.699738	154.400000
287.792816	154.480000
287.885956	154.140000
287.979034	154.080000
288.072174	154.120000
288.165283	153.880000
288.258392	154.080000
288.351501	153.540000
288.444611	153.800000
288.537720	154.000000
288.630859	154.000000
288.723969	153.800000
288.817078	154.620000
288.910187	154.320000
289.003296	153.640000
289.096436	153.160000
289.189545	153.360000
289.282654	152.520000
289.375763	153.140000
289.468903	153.760000
289.562012	154.180000
289.655121	153.860000
289.748260	154.260000
289.841400	154.340000
289.934509	154.080000
290.027649	154.320000
290.120728	154.440000
290.213898	154.640000
290.306976	154.320000
290.400146	154.600000
290.493256	154.060000
290.586395	154.400000
290.679535	154.420000
290.772644	154.220000
290.865784	153.440000
290.958893	154.080000
291.052032	154.020000
291.145172	154.160000
291.238281	153.880000
291.331421	154.220000
291.424561	153.880000
291.517670	153.460000
291.610809	153.340000
291.703949	153.520000
291.797089	153.720000
291.890228	153.620000
291.983337	153.380000
292.076477	153.200000
292.169617	153.460000
292.262756	153.520000
292.355927	153.900000
292.449036	153.920000
292.542206	153.900000
292.635315	153.980000
292.728485	154.280000
292.821625	153.560000
292.914764	155.080000
293.007904	155.440000
293.101044	155.540000
293.194183	155.060000
293.287323	155.340000
293.380463	154.300000
293.473602	154.060000
293.566742	154.200000
293.659882	154.840000
293.753021	155.060000
293.846191	154.800000
293.939331	154.340000
294.032471	153.900000
294.125610	153.240000
294.218781	153.540000
294.311920	154.280000
294.405060	154.660000
294.498230	154.920000
294.591370	155.220000
294.684540	154.640000
294.777679	153.700000
294.870850	154.020000
294.963959	153.720000
295.057159	153.200000
295.150299	153.440000
295.243469	153.580000
295.336609	152.780000
295.429779	153.060000
295.522919	153.960000
295.616089	154.100000
295.709229	154.760000
295.802399	155.440000
295.895569	154.940000
295.988708	154.340000
296.081879	154.380000
296.175018	153.900000
296.268188	153.700000
296.361359	154.360000
296.454529	154.560000
296.547668	154.580000
296.640839	154.940000
296.734009	154.740000
296.827179	154.620000
296.920319	154.700000
297.013519	154.400000
297.106659	154.360000
297.199860	154.420000
297.292999	154.400000
297.386200	154.080000
297.479309	153.840000
297.572510	153.640000
297.665680	153.500000
297.758850	153.300000
297.852020	153.320000
297.945190	153.340000
298.038361	153.040000
298.131531	154.120000
298.224701	154.040000
298.317871	153.860000
298.411072	153.480000
298.504242	153.460000
298.597412	152.320000
298.690582	152.440000
298.783752	152.320000
298.876923	153.180000
298.970093	153.320000
299.063293	153.860000
299.156464	154.400000
299.249634	154.940000
299.342834	154.880000
299.436005	155.240000
299.529205	154.940000
299.622345	155.020000
299.715576	154.200000
299.808716	153.860000
299.901917	153.560000
299.995117	154.000000
300.088287	153.820000
300.181488	153.960000
300.274658	153.920000
300.367828	153.920000
300.461029	153.580000
300.554199	153.760000
300.647400	153.860000
300.740601	154.520000
300.833771	154.640000
300.926971	155.020000
301.020142	154.220000
301.113342	154.260000
301.206512	154.180000
301.299713	154.440000
301.392914	154.240000
301.486084	154.880000
301.579285	155.180000
301.672516	155.160000
301.765686	154.940000
301.858887	154.860000
301.952057	154.380000
302.045288	154.120000
302.138458	153.740000
302.231659	153.680000
302.324860	153.740000
302.418060	153.540000
302.511261	153.540000
302.604462	154.020000
302.697662	153.640000
302.790863	153.280000
302.884064	153.140000
302.977264	153.160000
303.070465	152.980000
303.163666	153.840000
303.256866	154.320000
303.350067	154.420000
303.443268	154.540000
303.536469	154.920000
303.629669	154.440000
303.722870	154.180000
303.816071	154.120000
303.909271	154.180000
304.002472	153.360000
304.095673	153.260000
304.188934	152.940000
304.282104	154.120000
304.375336	154.240000
304.468506	154.200000
304.561768	154.020000
304.654968	154.660000
304.748169	153.860000
304.841370	153.460000
304.934601	153.880000
305.027802	153.620000
305.121002	152.920000
305.214233	152.900000
305.307434	153.200000
305.400665	153.700000
305.493866	153.620000
