Model Number: SPM-002-B   
Serial Number: 70087108
Firmware Version: 004.15.4
Exposure Time: 100000.000000us
Data Taken on: 15-01-2021 16:34:59.114
Wavelength	Amplitude
221.570786	0.000000
221.663406	0.000000
221.756027	0.000000
221.848648	0.000000
221.941269	0.000000
222.033905	0.000000
222.126526	0.000000
222.219162	0.000000
222.311798	0.000000
222.404419	0.000000
222.497055	0.000000
222.589676	0.000000
222.682312	0.000000
222.774933	0.000000
222.867569	0.000000
222.960205	0.000000
223.052841	0.000000
223.145462	0.000000
223.238098	0.000000
223.330734	0.000000
223.423386	0.000000
223.516022	0.000000
223.608658	0.000000
223.701309	0.000000
223.793945	0.000000
223.886581	0.000000
223.979218	0.000000
224.071869	0.000000
224.164505	0.000000
224.257156	0.000000
224.349792	0.000000
224.442444	0.000000
224.535095	0.000000
224.627747	0.000000
224.720398	0.000000
224.813034	0.000000
224.905685	0.000000
224.998337	152.520000
225.090988	152.180000
225.183640	152.540000
225.276291	152.180000
225.368942	152.440000
225.461594	152.760000
225.554245	153.200000
225.646912	153.060000
225.739578	153.720000
225.832230	154.520000
225.924896	153.960000
226.017548	154.020000
226.110199	154.580000
226.202866	154.060000
226.295532	153.680000
226.388184	153.460000
226.480850	152.880000
226.573517	152.100000
226.666168	152.160000
226.758835	152.280000
226.851501	152.960000
226.944183	153.460000
227.036850	153.560000
227.129517	153.400000
227.222183	153.680000
227.314850	153.620000
227.407516	153.800000
227.500198	154.460000
227.592865	154.380000
227.685532	153.620000
227.778214	153.460000
227.870880	153.420000
227.963562	153.480000
228.056229	153.900000
228.148926	154.100000
228.241592	154.600000
228.334274	154.460000
228.426956	154.240000
228.519638	154.320000
228.612305	153.900000
228.704987	153.700000
228.797668	153.600000
228.890350	153.520000
228.983032	152.960000
229.075714	153.940000
229.168396	153.740000
229.261108	153.500000
229.353790	153.340000
229.446472	153.900000
229.539169	153.400000
229.631851	152.820000
229.724533	153.280000
229.817230	153.640000
229.909912	154.200000
230.002609	154.300000
230.095306	154.640000
230.187988	154.560000
230.280685	154.260000
230.373383	153.400000
230.466095	153.360000
230.558792	153.700000
230.651474	153.660000
230.744171	153.560000
230.836868	153.340000
230.929581	153.440000
231.022278	153.480000
231.114975	153.480000
231.207672	153.260000
231.300369	153.680000
231.393082	153.880000
231.485779	153.380000
231.578506	153.060000
231.671204	153.740000
231.763916	153.560000
231.856613	153.280000
231.949326	153.820000
232.042023	154.020000
232.134735	153.660000
232.227448	153.620000
232.320160	153.840000
232.412872	153.500000
232.505585	154.640000
232.598297	154.840000
232.691010	154.700000
232.783722	154.360000
232.876450	155.220000
232.969162	153.960000
233.061874	153.620000
233.154587	153.300000
233.247314	153.760000
233.340027	153.160000
233.432739	153.940000
233.525467	153.760000
233.618179	154.460000
233.710907	153.760000
233.803635	154.040000
233.896347	153.480000
233.989090	154.180000
234.081818	153.960000
234.174545	154.120000
234.267258	153.460000
234.359985	153.680000
234.452713	153.340000
234.545441	153.320000
234.638168	153.460000
234.730896	154.320000
234.823639	154.060000
234.916367	154.520000
235.009094	154.820000
235.101822	154.900000
235.194580	154.640000
235.287308	154.900000
235.380051	154.140000
235.472778	153.860000
235.565521	153.920000
235.658249	153.280000
235.750992	152.980000
235.843719	153.000000
235.936462	153.320000
236.029205	153.060000
236.121948	152.880000
236.214691	153.200000
236.307449	154.200000
236.400192	153.840000
236.492935	153.680000
236.585678	154.020000
236.678421	153.900000
236.771164	153.120000
236.863907	153.580000
236.956665	153.940000
237.049408	155.740000
237.142151	155.500000
237.234909	156.460000
237.327652	156.420000
237.420410	156.280000
237.513153	155.100000
237.605927	155.080000
237.698669	154.160000
237.791428	153.260000
237.884186	153.380000
237.976944	152.800000
238.069702	153.240000
238.162445	152.780000
238.255203	153.080000
238.347961	153.540000
238.440720	153.780000
238.533478	153.340000
238.626266	153.380000
238.719025	153.820000
238.811783	153.440000
238.904541	153.300000
238.997314	153.280000
239.090073	153.380000
239.182831	153.540000
239.275604	154.300000
239.368362	154.120000
239.461136	154.440000
239.553909	154.540000
239.646667	154.140000
239.739441	153.820000
239.832214	154.400000
239.925003	154.200000
240.017761	154.980000
240.110535	155.580000
240.203308	154.560000
240.296082	154.340000
240.388855	154.360000
240.481628	153.900000
240.574417	153.780000
240.667191	154.300000
240.759964	153.860000
240.852737	154.020000
240.945526	153.740000
241.038315	153.180000
241.131088	153.580000
241.223877	154.060000
241.316650	153.500000
241.409439	154.140000
241.502228	154.220000
241.595001	154.560000
241.687790	154.000000
241.780579	154.220000
241.873367	154.220000
241.966141	154.660000
242.058929	153.780000
242.151718	154.140000
242.244507	154.720000
242.337311	153.920000
242.430099	154.160000
242.522903	154.440000
242.615692	153.980000
242.708481	153.620000
242.801270	154.060000
242.894073	153.520000
242.986862	153.520000
243.079651	154.680000
243.172455	154.600000
243.265244	154.500000
243.358063	154.080000
243.450867	154.320000
243.543655	153.760000
243.636459	153.480000
243.729263	153.780000
243.822067	154.080000
243.914856	154.080000
244.007660	153.920000
244.100464	154.440000
244.193268	154.180000
244.286072	154.080000
244.378876	153.400000
244.471680	153.280000
244.564499	153.460000
244.657318	153.880000
244.750122	154.380000
244.842926	154.400000
244.935745	154.580000
245.028549	154.160000
245.121368	153.880000
245.214172	153.560000
245.306992	154.420000
245.399796	154.200000
245.492615	154.400000
245.585434	154.080000
245.678253	154.220000
245.771072	153.640000
245.863892	154.160000
245.956711	153.920000
246.049530	153.720000
246.142349	153.240000
246.235168	153.300000
246.327988	153.420000
246.420807	153.400000
246.513626	153.720000
246.606445	153.840000
246.699280	153.920000
246.792099	153.580000
246.884918	153.440000
246.977753	153.260000
247.070587	153.200000
247.163422	153.000000
247.256241	153.040000
247.349075	153.420000
247.441895	153.320000
247.534729	153.380000
247.627563	153.320000
247.720383	153.980000
247.813217	153.680000
247.906052	153.660000
247.998886	153.660000
248.091736	153.820000
248.184570	153.100000
248.277405	153.260000
248.370239	154.400000
248.463074	155.720000
248.555908	155.760000
248.648743	155.860000
248.741592	156.040000
248.834427	155.000000
248.927261	153.640000
249.020111	154.000000
249.112946	154.340000
249.205795	153.780000
249.298630	153.900000
249.391495	154.060000
249.484344	153.740000
249.577179	153.500000
249.670029	153.760000
249.762878	154.340000
249.855728	154.480000
249.948563	154.360000
250.041412	153.700000
250.134262	154.000000
250.227112	154.020000
250.319962	154.100000
250.412827	154.040000
250.505692	153.980000
250.598541	154.320000
250.691391	153.760000
250.784241	153.780000
250.877106	153.880000
250.969955	153.840000
251.062805	153.900000
251.155670	154.600000
251.248520	154.000000
251.341385	154.320000
251.434235	154.800000
251.527100	153.960000
251.619965	153.460000
251.712814	154.440000
251.805695	154.200000
251.898560	154.200000
251.991425	154.820000
252.084290	154.880000
252.177155	154.040000
252.270020	154.000000
252.362885	154.000000
252.455750	154.040000
252.548615	153.880000
252.641479	154.100000
252.734360	153.820000
252.827240	153.600000
252.920105	153.620000
253.012970	153.440000
253.105850	153.320000
253.198715	153.220000
253.291595	153.120000
253.384460	152.580000
253.477341	152.640000
253.570221	152.660000
253.663086	152.580000
253.755966	153.480000
253.848846	153.600000
253.941727	154.040000
254.034592	153.920000
254.127472	153.480000
254.220367	153.200000
254.313248	153.240000
254.406128	152.300000
254.499008	152.920000
254.591904	154.180000
254.684784	154.320000
254.777664	154.380000
254.870544	154.380000
254.963440	154.080000
255.056335	153.740000
255.149216	153.260000
255.242111	153.760000
255.334991	154.740000
255.427887	154.800000
255.520767	154.720000
255.613663	155.000000
255.706558	154.060000
255.799438	153.280000
255.892334	152.720000
255.985229	152.860000
256.078125	152.600000
256.171021	153.180000
256.263916	153.980000
256.356812	154.500000
256.449707	154.580000
256.542603	154.560000
256.635498	154.900000
256.728394	154.280000
256.821289	153.980000
256.914215	154.220000
257.007080	154.400000
257.100006	154.420000
257.192932	155.180000
257.285828	155.700000
257.378723	155.120000
257.471619	155.080000
257.564545	154.280000
257.657440	154.220000
257.750336	154.480000
257.843262	154.380000
257.936157	155.540000
258.029053	156.300000
258.121979	156.140000
258.214874	155.520000
258.307800	155.440000
258.400696	154.120000
258.493622	153.520000
258.586517	152.680000
258.679443	153.260000
258.772339	153.040000
258.865265	152.980000
258.958160	152.720000
259.051086	153.720000
259.144012	153.060000
259.236938	154.200000
259.329834	154.340000
259.422791	154.120000
259.515717	153.240000
259.608612	153.340000
259.701538	153.060000
259.794464	153.020000
259.887390	153.300000
259.980316	153.340000
260.073212	153.220000
260.166138	152.140000
260.259064	152.220000
260.351990	152.960000
260.444916	153.240000
260.537842	153.580000
260.630768	154.720000
260.723694	154.620000
260.816620	154.180000
260.909546	154.100000
261.002472	153.600000
261.095398	153.040000
261.188354	153.020000
261.281281	152.760000
261.374207	152.800000
261.467133	153.640000
261.560089	153.700000
261.653015	153.360000
261.745972	154.140000
261.838867	154.500000
261.931824	154.400000
262.024780	154.340000
262.117706	154.820000
262.210663	154.440000
262.303589	154.400000
262.396515	154.340000
262.489471	154.960000
262.582397	155.020000
262.675354	154.400000
262.768280	154.180000
262.861237	154.260000
262.954163	153.860000
263.047119	153.860000
263.140045	153.940000
263.233002	153.740000
263.325958	153.360000
263.418884	153.140000
263.511841	152.940000
263.604797	152.880000
263.697723	153.040000
263.790680	152.880000
263.883636	153.280000
263.976593	153.260000
264.069550	153.660000
264.162476	153.540000
264.255463	153.760000
264.348419	153.460000
264.441376	153.620000
264.534332	153.040000
264.627289	153.220000
264.720245	153.500000
264.813202	153.160000
264.906158	153.300000
264.999115	153.960000
265.092072	153.860000
265.185028	154.260000
265.277985	154.560000
265.370941	154.640000
265.463898	154.320000
265.556854	154.120000
265.649811	153.260000
265.742798	153.260000
265.835754	152.840000
265.928711	153.800000
266.021667	153.880000
266.114655	154.180000
266.207611	154.500000
266.300568	154.120000
266.393585	153.300000
266.486511	153.360000
266.579498	152.760000
266.672485	152.460000
266.765442	152.580000
266.858429	153.060000
266.951385	152.780000
267.044342	153.280000
267.137329	153.280000
267.230316	153.900000
267.323273	153.340000
267.416260	154.260000
267.509216	153.740000
267.602203	153.680000
267.695160	153.800000
267.788147	153.820000
267.881134	153.000000
267.974091	153.440000
268.067078	153.320000
268.160065	153.220000
268.253052	152.960000
268.346008	153.100000
268.438995	152.680000
268.531982	152.760000
268.624969	151.960000
268.717987	152.840000
268.810944	152.980000
268.903961	153.680000
268.996948	153.360000
269.089905	154.420000
269.182892	153.880000
269.275879	154.200000
269.368866	153.320000
269.461853	153.520000
269.554871	152.980000
269.647858	153.060000
269.740845	153.100000
269.833832	153.860000
269.926819	154.020000
270.019806	154.260000
270.112793	154.180000
270.205811	154.120000
270.298798	153.620000
270.391785	154.180000
270.484772	153.520000
270.577789	153.620000
270.670776	153.160000
270.763763	153.200000
270.856750	152.700000
270.949768	152.840000
271.042786	152.580000
271.135773	152.760000
271.228790	153.400000
271.321808	152.920000
271.414795	152.800000
271.507782	152.720000
271.600800	152.340000
271.693817	152.200000
271.786804	153.140000
271.879822	153.680000
271.972809	153.520000
272.065826	154.140000
272.158844	153.640000
272.251831	153.740000
272.344849	153.680000
272.437866	153.920000
272.530853	153.780000
272.623871	154.100000
272.716888	153.080000
272.809906	153.180000
272.902893	153.260000
272.995911	152.800000
273.088928	152.740000
273.181946	153.140000
273.274963	152.700000
273.367981	152.580000
273.460999	152.880000
273.554047	153.180000
273.647003	153.820000
273.740051	154.340000
273.833069	154.680000
273.926086	154.840000
274.019135	154.560000
274.112152	154.140000
274.205170	154.080000
274.298187	154.380000
274.391205	153.840000
274.484222	153.700000
274.577240	153.420000
274.670258	153.120000
274.763306	152.480000
274.856323	153.240000
274.949341	153.380000
275.042358	154.000000
275.135406	154.080000
275.228424	154.600000
275.321442	154.100000
275.414490	153.920000
275.507507	153.940000
275.600525	154.140000
275.693573	153.740000
275.786591	153.440000
275.879669	153.480000
275.972656	153.040000
276.065735	152.900000
276.158752	153.300000
276.251801	154.420000
276.344818	154.700000
276.437866	154.840000
276.530884	154.580000
276.623932	153.760000
276.716980	153.180000
276.809998	153.160000
276.903046	153.020000
276.996094	153.840000
277.089111	154.740000
277.182159	155.340000
277.275208	154.980000
277.368256	155.460000
277.461304	154.980000
277.554321	154.300000
277.647369	154.080000
277.740417	154.300000
277.833466	153.540000
277.926514	153.080000
278.019562	153.840000
278.112610	153.020000
278.205688	153.080000
278.298706	153.780000
278.391785	153.860000
278.484833	153.140000
278.577881	153.460000
278.670929	153.840000
278.763977	153.520000
278.857025	154.020000
278.950073	154.260000
279.043121	154.260000
279.136169	154.000000
279.229248	153.700000
279.322296	153.420000
279.415344	153.200000
279.508392	153.040000
279.601440	152.740000
279.694519	152.460000
279.787567	152.360000
279.880615	152.140000
279.973694	152.060000
280.066742	152.260000
280.159790	152.820000
280.252869	152.340000
280.345917	152.600000
280.438995	152.760000
280.532074	152.880000
280.625122	152.940000
280.718201	154.080000
280.811279	153.980000
280.904327	153.700000
280.997406	153.660000
281.090454	153.780000
281.183533	153.220000
281.276581	153.420000
281.369659	153.420000
281.462738	153.480000
281.555786	153.560000
281.648865	153.660000
281.741943	153.600000
281.835022	154.120000
281.928070	153.740000
282.021149	153.260000
282.114227	153.200000
282.207306	153.300000
282.300385	153.600000
282.393433	154.120000
282.486511	154.360000
282.579590	154.880000
282.672668	155.060000
282.765747	154.460000
282.858856	153.700000
282.951904	153.880000
283.045013	153.620000
283.138062	153.740000
283.231171	154.240000
283.324249	154.960000
283.417328	154.620000
283.510406	154.340000
283.603485	154.220000
283.696564	153.620000
283.789642	153.580000
283.882751	153.660000
283.975830	154.360000
284.068909	153.920000
284.161987	154.600000
284.255066	153.960000
284.348175	154.280000
284.441254	153.960000
284.534332	154.520000
284.627441	154.380000
284.720520	154.200000
284.813599	154.120000
284.906708	154.060000
284.999786	153.260000
285.092896	152.840000
285.185974	153.980000
285.279053	153.440000
285.372192	153.100000
285.465240	154.080000
285.558380	154.300000
285.651459	153.740000
285.744568	154.880000
285.837677	154.940000
285.930756	154.580000
286.023865	154.420000
286.116943	154.060000
286.210052	153.500000
286.303162	153.520000
286.396240	153.820000
286.489349	153.640000
286.582458	154.080000
286.675568	153.620000
286.768646	153.660000
286.861755	153.640000
286.954865	154.260000
287.047974	153.500000
287.141083	153.720000
287.234161	153.480000
287.327271	153.160000
287.420380	153.480000
287.513519	153.840000
287.606598	153.960000
287.699738	154.360000
287.792816	154.260000
287.885956	153.740000
287.979034	153.760000
288.072174	154.020000
288.165283	153.740000
288.258392	154.000000
288.351501	153.440000
288.444611	153.760000
288.537720	153.980000
288.630859	153.760000
288.723969	153.840000
288.817078	154.680000
288.910187	154.420000
289.003296	153.600000
289.096436	153.640000
289.189545	153.240000
289.282654	152.380000
289.375763	153.020000
289.468903	153.540000
289.562012	154.040000
289.655121	154.460000
289.748260	155.080000
289.841400	155.220000
289.934509	154.820000
290.027649	154.840000
290.120728	154.220000
290.213898	154.400000
290.306976	153.880000
290.400146	154.140000
290.493256	153.740000
290.586395	154.040000
290.679535	153.880000
290.772644	153.820000
290.865784	153.040000
290.958893	153.000000
291.052032	152.900000
291.145172	152.800000
291.238281	152.300000
291.331421	152.860000
291.424561	153.320000
291.517670	153.300000
291.610809	153.500000
291.703949	153.480000
291.797089	153.540000
291.890228	152.920000
291.983337	152.780000
292.076477	152.420000
292.169617	153.020000
292.262756	152.800000
292.355927	152.860000
292.449036	152.980000
292.542206	153.180000
292.635315	153.160000
292.728485	153.620000
292.821625	153.400000
292.914764	154.620000
293.007904	154.780000
293.101044	154.880000
293.194183	154.420000
293.287323	154.600000
293.380463	153.340000
293.473602	153.040000
293.566742	153.120000
293.659882	153.700000
293.753021	154.140000
293.846191	154.580000
293.939331	154.200000
294.032471	153.920000
294.125610	153.720000
294.218781	154.000000
294.311920	153.960000
294.405060	154.460000
294.498230	154.300000
294.591370	154.300000
294.684540	153.480000
294.777679	153.080000
294.870850	153.020000
294.963959	153.160000
295.057159	152.860000
295.150299	153.220000
295.243469	153.080000
295.336609	152.740000
295.429779	152.800000
295.522919	153.560000
295.616089	153.500000
295.709229	154.280000
295.802399	154.340000
295.895569	153.900000
295.988708	153.480000
296.081879	153.740000
296.175018	153.040000
296.268188	152.960000
296.361359	153.720000
296.454529	153.920000
296.547668	153.560000
296.640839	154.120000
296.734009	154.160000
296.827179	154.180000
296.920319	154.320000
297.013519	154.120000
297.106659	154.180000
297.199860	154.120000
297.292999	153.920000
297.386200	153.280000
297.479309	153.800000
297.572510	153.560000
297.665680	153.320000
297.758850	153.060000
297.852020	153.100000
297.945190	152.480000
298.038361	152.080000
298.131531	153.040000
298.224701	152.900000
298.317871	152.980000
298.411072	152.760000
298.504242	152.800000
298.597412	152.320000
298.690582	152.640000
298.783752	152.480000
298.876923	153.500000
298.970093	153.700000
299.063293	154.140000
299.156464	154.500000
299.249634	154.780000
299.342834	154.840000
299.436005	155.180000
299.529205	154.640000
299.622345	154.520000
299.715576	153.820000
299.808716	153.080000
299.901917	152.820000
299.995117	153.240000
300.088287	153.340000
300.181488	153.340000
300.274658	153.380000
300.367828	153.580000
300.461029	153.460000
300.554199	153.720000
300.647400	153.540000
300.740601	153.820000
300.833771	153.580000
300.926971	153.780000
301.020142	153.020000
301.113342	153.740000
301.206512	153.880000
301.299713	154.280000
301.392914	153.960000
301.486084	154.460000
301.579285	154.180000
301.672516	154.660000
301.765686	154.100000
301.858887	153.900000
301.952057	153.700000
302.045288	153.800000
302.138458	153.340000
302.231659	153.220000
302.324860	153.360000
302.418060	152.940000
302.511261	152.840000
302.604462	153.220000
302.697662	153.260000
302.790863	153.300000
302.884064	153.200000
302.977264	153.120000
303.070465	152.620000
303.163666	153.760000
303.256866	153.820000
303.350067	153.840000
303.443268	154.040000
303.536469	154.220000
303.629669	153.040000
303.722870	153.240000
303.816071	152.960000
303.909271	153.180000
304.002472	152.400000
304.095673	152.200000
304.188934	151.640000
304.282104	152.720000
304.375336	152.520000
304.468506	152.940000
304.561768	152.980000
304.654968	153.380000
304.748169	153.040000
304.841370	152.660000
304.934601	152.880000
305.027802	152.980000
305.121002	152.640000
305.214233	152.520000
305.307434	152.820000
305.400665	153.580000
305.493866	153.440000
