Model Number: SPM-002-B   
Serial Number: 70087108
Firmware Version: 004.15.4
Exposure Time: 100000.000000us
Data Taken on: 15-01-2021 16:35:13.389
Wavelength	Amplitude
221.570786	0.000000
221.663406	0.000000
221.756027	0.000000
221.848648	0.000000
221.941269	0.000000
222.033905	0.000000
222.126526	0.000000
222.219162	0.000000
222.311798	0.000000
222.404419	0.000000
222.497055	0.000000
222.589676	0.000000
222.682312	0.000000
222.774933	0.000000
222.867569	0.000000
222.960205	0.000000
223.052841	0.000000
223.145462	0.000000
223.238098	0.000000
223.330734	0.000000
223.423386	0.000000
223.516022	0.000000
223.608658	0.000000
223.701309	0.000000
223.793945	0.000000
223.886581	0.000000
223.979218	0.000000
224.071869	0.000000
224.164505	0.000000
224.257156	0.000000
224.349792	0.000000
224.442444	0.000000
224.535095	0.000000
224.627747	0.000000
224.720398	0.000000
224.813034	0.000000
224.905685	0.000000
224.998337	153.580000
225.090988	153.140000
225.183640	153.400000
225.276291	152.980000
225.368942	153.160000
225.461594	153.520000
225.554245	154.020000
225.646912	153.760000
225.739578	154.360000
225.832230	154.760000
225.924896	153.780000
226.017548	153.600000
226.110199	153.860000
226.202866	153.120000
226.295532	153.000000
226.388184	152.960000
226.480850	152.780000
226.573517	152.560000
226.666168	152.940000
226.758835	153.160000
226.851501	154.100000
226.944183	154.140000
227.036850	153.800000
227.129517	154.000000
227.222183	154.240000
227.314850	153.740000
227.407516	154.260000
227.500198	155.220000
227.592865	154.520000
227.685532	153.800000
227.778214	153.700000
227.870880	153.720000
227.963562	153.960000
228.056229	154.560000
228.148926	154.740000
228.241592	155.520000
228.334274	155.100000
228.426956	154.580000
228.519638	154.580000
228.612305	153.780000
228.704987	153.200000
228.797668	153.360000
228.890350	152.960000
228.983032	152.380000
229.075714	153.780000
229.168396	153.820000
229.261108	153.420000
229.353790	153.500000
229.446472	153.940000
229.539169	153.460000
229.631851	152.980000
229.724533	153.200000
229.817230	153.440000
229.909912	154.260000
230.002609	154.280000
230.095306	154.440000
230.187988	154.360000
230.280685	154.080000
230.373383	152.880000
230.466095	152.740000
230.558792	153.200000
230.651474	153.200000
230.744171	153.240000
230.836868	153.360000
230.929581	153.280000
231.022278	153.460000
231.114975	153.460000
231.207672	153.220000
231.300369	153.780000
231.393082	153.880000
231.485779	153.480000
231.578506	153.520000
231.671204	153.740000
231.763916	153.440000
231.856613	153.580000
231.949326	153.640000
232.042023	153.460000
232.134735	153.520000
232.227448	153.180000
232.320160	153.240000
232.412872	153.360000
232.505585	154.420000
232.598297	154.580000
232.691010	154.700000
232.783722	154.400000
232.876450	154.640000
232.969162	153.580000
233.061874	153.060000
233.154587	152.900000
233.247314	153.340000
233.340027	153.020000
233.432739	153.700000
233.525467	154.060000
233.618179	154.540000
233.710907	153.980000
233.803635	154.120000
233.896347	153.660000
233.989090	154.520000
234.081818	154.400000
234.174545	154.640000
234.267258	154.260000
234.359985	154.480000
234.452713	153.620000
234.545441	153.280000
234.638168	153.340000
234.730896	153.920000
234.823639	153.840000
234.916367	154.280000
235.009094	154.340000
235.101822	154.280000
235.194580	154.160000
235.287308	154.080000
235.380051	153.320000
235.472778	153.680000
235.565521	154.080000
235.658249	153.620000
235.750992	153.640000
235.843719	153.840000
235.936462	153.940000
236.029205	153.140000
236.121948	152.980000
236.214691	153.500000
236.307449	154.260000
236.400192	153.940000
236.492935	154.060000
236.585678	154.220000
236.678421	153.920000
236.771164	153.660000
236.863907	154.180000
236.956665	154.480000
237.049408	156.140000
237.142151	155.680000
237.234909	156.020000
237.327652	156.140000
237.420410	155.840000
237.513153	154.760000
237.605927	154.800000
237.698669	154.200000
237.791428	153.200000
237.884186	153.940000
237.976944	153.520000
238.069702	153.780000
238.162445	153.240000
238.255203	153.740000
238.347961	153.820000
238.440720	153.800000
238.533478	153.520000
238.626266	153.540000
238.719025	153.360000
238.811783	152.980000
238.904541	153.180000
238.997314	153.180000
239.090073	153.280000
239.182831	153.760000
239.275604	154.480000
239.368362	154.160000
239.461136	154.300000
239.553909	154.420000
239.646667	154.040000
239.739441	153.100000
239.832214	153.480000
239.925003	153.820000
240.017761	154.340000
240.110535	154.840000
240.203308	154.860000
240.296082	154.800000
240.388855	154.700000
240.481628	154.800000
240.574417	154.860000
240.667191	155.000000
240.759964	154.720000
240.852737	154.520000
240.945526	153.960000
241.038315	153.580000
241.131088	153.740000
241.223877	154.200000
241.316650	153.820000
241.409439	154.120000
241.502228	153.920000
241.595001	154.220000
241.687790	153.720000
241.780579	153.940000
241.873367	154.220000
241.966141	154.320000
242.058929	153.420000
242.151718	153.820000
242.244507	154.080000
242.337311	152.800000
242.430099	153.340000
242.522903	153.940000
242.615692	153.420000
242.708481	153.560000
242.801270	154.600000
242.894073	154.380000
242.986862	154.460000
243.079651	154.940000
243.172455	154.740000
243.265244	154.600000
243.358063	153.800000
243.450867	153.900000
243.543655	154.020000
243.636459	154.000000
243.729263	154.560000
243.822067	155.340000
243.914856	155.660000
244.007660	155.420000
244.100464	155.340000
244.193268	154.460000
244.286072	154.060000
244.378876	153.180000
244.471680	153.120000
244.564499	153.380000
244.657318	154.420000
244.750122	154.740000
244.842926	154.300000
244.935745	154.580000
245.028549	154.000000
245.121368	153.160000
245.214172	153.040000
245.306992	153.780000
245.399796	153.300000
245.492615	153.580000
245.585434	153.780000
245.678253	153.800000
245.771072	153.660000
245.863892	154.000000
245.956711	154.280000
246.049530	153.780000
246.142349	153.560000
246.235168	153.480000
246.327988	153.840000
246.420807	153.480000
246.513626	153.800000
246.606445	153.600000
246.699280	153.480000
246.792099	153.260000
246.884918	153.040000
246.977753	152.820000
247.070587	153.180000
247.163422	153.380000
247.256241	153.140000
247.349075	153.760000
247.441895	154.020000
247.534729	153.740000
247.627563	153.380000
247.720383	154.220000
247.813217	153.860000
247.906052	153.520000
247.998886	153.800000
248.091736	153.940000
248.184570	153.120000
248.277405	153.380000
248.370239	154.520000
248.463074	155.140000
248.555908	155.500000
248.648743	155.580000
248.741592	155.620000
248.834427	154.820000
248.927261	153.800000
249.020111	154.260000
249.112946	154.860000
249.205795	154.540000
249.298630	154.660000
249.391495	154.940000
249.484344	154.240000
249.577179	153.820000
249.670029	154.180000
249.762878	154.500000
249.855728	154.540000
249.948563	154.600000
250.041412	154.160000
250.134262	154.040000
250.227112	154.060000
250.319962	154.360000
250.412827	154.500000
250.505692	154.400000
250.598541	154.460000
250.691391	153.840000
250.784241	153.680000
250.877106	153.860000
250.969955	153.880000
251.062805	154.320000
251.155670	155.140000
251.248520	154.840000
251.341385	154.640000
251.434235	154.680000
251.527100	154.100000
251.619965	153.200000
251.712814	153.980000
251.805695	153.840000
251.898560	154.160000
251.991425	154.540000
252.084290	154.740000
252.177155	153.680000
252.270020	154.000000
252.362885	153.820000
252.455750	153.360000
252.548615	153.300000
252.641479	153.600000
252.734360	152.920000
252.827240	152.740000
252.920105	152.900000
253.012970	152.720000
253.105850	152.620000
253.198715	152.740000
253.291595	152.760000
253.384460	152.340000
253.477341	152.560000
253.570221	153.060000
253.663086	152.960000
253.755966	153.680000
253.848846	154.360000
253.941727	154.620000
254.034592	154.080000
254.127472	153.940000
254.220367	153.560000
254.313248	153.580000
254.406128	152.960000
254.499008	153.320000
254.591904	154.060000
254.684784	154.560000
254.777664	154.220000
254.870544	154.400000
254.963440	154.280000
255.056335	154.260000
255.149216	153.620000
255.242111	154.160000
255.334991	154.340000
255.427887	154.300000
255.520767	154.400000
255.613663	154.560000
255.706558	153.860000
255.799438	153.700000
255.892334	153.640000
255.985229	153.000000
256.078125	152.920000
256.171021	153.220000
256.263916	153.780000
256.356812	154.000000
256.449707	154.400000
256.542603	154.080000
256.635498	154.340000
256.728394	153.900000
256.821289	153.600000
256.914215	154.220000
257.007080	154.520000
257.100006	154.340000
257.192932	154.900000
257.285828	155.440000
257.378723	154.560000
257.471619	154.400000
257.564545	153.880000
257.657440	153.420000
257.750336	153.660000
257.843262	153.820000
257.936157	155.180000
258.029053	155.880000
258.121979	156.080000
258.214874	155.600000
258.307800	155.700000
258.400696	154.380000
258.493622	154.100000
258.586517	153.260000
258.679443	153.420000
258.772339	152.980000
258.865265	152.940000
258.958160	152.280000
259.051086	153.700000
259.144012	153.860000
259.236938	154.680000
259.329834	154.920000
259.422791	155.120000
259.515717	154.080000
259.608612	153.760000
259.701538	153.520000
259.794464	153.100000
259.887390	153.280000
259.980316	153.240000
260.073212	152.780000
260.166138	152.060000
260.259064	152.820000
260.351990	153.320000
260.444916	153.580000
260.537842	154.300000
260.630768	155.300000
260.723694	155.060000
260.816620	155.040000
260.909546	155.100000
261.002472	154.420000
261.095398	153.660000
261.188354	153.520000
261.281281	152.820000
261.374207	152.640000
261.467133	153.520000
261.560089	153.920000
261.653015	153.620000
261.745972	154.780000
261.838867	155.220000
261.931824	155.380000
262.024780	154.700000
262.117706	155.040000
262.210663	154.740000
262.303589	154.360000
262.396515	153.920000
262.489471	155.200000
262.582397	155.020000
262.675354	154.320000
262.768280	154.420000
262.861237	154.380000
262.954163	153.700000
263.047119	153.840000
263.140045	153.580000
263.233002	153.640000
263.325958	153.540000
263.418884	152.980000
263.511841	152.800000
263.604797	153.240000
263.697723	153.140000
263.790680	152.960000
263.883636	153.980000
263.976593	154.020000
264.069550	154.180000
264.162476	154.020000
264.255463	154.260000
264.348419	153.740000
264.441376	154.180000
264.534332	153.620000
264.627289	153.760000
264.720245	154.360000
264.813202	154.020000
264.906158	154.040000
264.999115	154.700000
265.092072	154.720000
265.185028	154.640000
265.277985	154.960000
265.370941	154.560000
265.463898	154.240000
265.556854	153.840000
265.649811	152.740000
265.742798	152.640000
265.835754	152.900000
265.928711	153.580000
266.021667	153.860000
266.114655	154.660000
266.207611	154.960000
266.300568	154.420000
266.393585	153.580000
266.486511	154.100000
266.579498	153.120000
266.672485	153.060000
266.765442	152.940000
266.858429	153.440000
266.951385	152.680000
267.044342	153.040000
267.137329	152.860000
267.230316	153.500000
267.323273	152.820000
267.416260	153.740000
267.509216	153.760000
267.602203	153.600000
267.695160	154.080000
267.788147	154.380000
267.881134	153.560000
267.974091	154.080000
268.067078	154.140000
268.160065	153.600000
268.253052	153.720000
268.346008	154.040000
268.438995	153.200000
268.531982	153.360000
268.624969	153.060000
268.717987	153.420000
268.810944	153.160000
268.903961	153.860000
268.996948	153.560000
269.089905	154.040000
269.182892	153.780000
269.275879	153.940000
269.368866	153.340000
269.461853	153.560000
269.554871	153.280000
269.647858	153.280000
269.740845	153.740000
269.833832	154.340000
269.926819	154.060000
270.019806	154.240000
270.112793	153.860000
270.205811	153.800000
270.298798	153.340000
270.391785	154.180000
270.484772	153.840000
270.577789	154.040000
270.670776	153.500000
270.763763	153.520000
270.856750	153.100000
270.949768	153.040000
271.042786	153.020000
271.135773	153.060000
271.228790	153.700000
271.321808	153.400000
271.414795	153.120000
271.507782	152.820000
271.600800	152.540000
271.693817	152.360000
271.786804	152.960000
271.879822	153.460000
271.972809	153.540000
272.065826	154.300000
272.158844	153.700000
272.251831	154.080000
272.344849	154.040000
272.437866	153.900000
272.530853	153.620000
272.623871	154.260000
272.716888	152.780000
272.809906	153.040000
272.902893	153.240000
272.995911	152.880000
273.088928	152.580000
273.181946	153.260000
273.274963	152.700000
273.367981	152.760000
273.460999	153.160000
273.554047	153.460000
273.647003	154.200000
273.740051	154.500000
273.833069	154.800000
273.926086	154.780000
274.019135	154.300000
274.112152	153.560000
274.205170	153.600000
274.298187	153.960000
274.391205	153.380000
274.484222	153.700000
274.577240	153.760000
274.670258	153.560000
274.763306	153.180000
274.856323	154.040000
274.949341	153.880000
275.042358	154.060000
275.135406	153.780000
275.228424	153.640000
275.321442	153.340000
275.414490	153.420000
275.507507	153.820000
275.600525	154.660000
275.693573	154.500000
275.786591	154.020000
275.879669	154.060000
275.972656	153.600000
276.065735	153.000000
276.158752	153.640000
276.251801	154.480000
276.344818	154.340000
276.437866	154.320000
276.530884	154.320000
276.623932	153.300000
276.716980	153.500000
276.809998	153.520000
276.903046	153.600000
276.996094	154.600000
277.089111	155.500000
277.182159	155.580000
277.275208	155.540000
277.368256	155.560000
277.461304	154.920000
277.554321	154.080000
277.647369	153.840000
277.740417	154.180000
277.833466	153.900000
277.926514	153.700000
278.019562	154.380000
278.112610	153.620000
278.205688	153.420000
278.298706	153.500000
278.391785	153.360000
278.484833	153.140000
278.577881	153.340000
278.670929	153.600000
278.763977	153.780000
278.857025	154.040000
278.950073	153.880000
279.043121	153.780000
279.136169	153.600000
279.229248	153.360000
279.322296	153.460000
279.415344	153.540000
279.508392	153.520000
279.601440	153.420000
279.694519	153.200000
279.787567	152.840000
279.880615	152.520000
279.973694	152.560000
280.066742	152.720000
280.159790	152.920000
280.252869	152.700000
280.345917	153.300000
280.438995	153.400000
280.532074	153.400000
280.625122	153.640000
280.718201	155.000000
280.811279	154.560000
280.904327	154.640000
280.997406	154.600000
281.090454	154.500000
281.183533	153.520000
281.276581	153.760000
281.369659	153.300000
281.462738	153.580000
281.555786	153.540000
281.648865	153.780000
281.741943	153.540000
281.835022	154.400000
281.928070	153.900000
282.021149	153.820000
282.114227	153.540000
282.207306	153.600000
282.300385	153.760000
282.393433	154.000000
282.486511	153.960000
282.579590	154.520000
282.672668	155.140000
282.765747	154.140000
282.858856	153.760000
282.951904	154.220000
283.045013	154.100000
283.138062	153.960000
283.231171	154.480000
283.324249	154.780000
283.417328	154.720000
283.510406	154.400000
283.603485	154.060000
283.696564	153.880000
283.789642	154.060000
283.882751	153.440000
283.975830	154.000000
284.068909	153.680000
284.161987	154.300000
284.255066	153.660000
284.348175	154.040000
284.441254	153.540000
284.534332	154.140000
284.627441	153.640000
284.720520	153.760000
284.813599	154.000000
284.906708	154.000000
284.999786	153.280000
285.092896	152.820000
285.185974	153.920000
285.279053	153.000000
285.372192	153.160000
285.465240	154.080000
285.558380	153.980000
285.651459	153.420000
285.744568	154.820000
285.837677	154.200000
285.930756	154.000000
286.023865	154.380000
286.116943	153.900000
286.210052	153.680000
286.303162	153.900000
286.396240	153.840000
286.489349	153.460000
286.582458	153.840000
286.675568	153.340000
286.768646	153.580000
286.861755	153.760000
286.954865	154.940000
287.047974	154.460000
287.141083	154.340000
287.234161	154.060000
287.327271	153.760000
287.420380	153.880000
287.513519	153.820000
287.606598	153.920000
287.699738	154.160000
287.792816	154.040000
287.885956	153.580000
287.979034	153.840000
288.072174	153.880000
288.165283	153.560000
288.258392	153.700000
288.351501	152.620000
288.444611	152.720000
288.537720	153.160000
288.630859	153.240000
288.723969	153.520000
288.817078	154.400000
288.910187	154.400000
289.003296	153.520000
289.096436	153.280000
289.189545	152.920000
289.282654	152.340000
289.375763	152.740000
289.468903	153.360000
289.562012	153.900000
289.655121	153.800000
289.748260	154.420000
289.841400	154.540000
289.934509	154.180000
290.027649	154.260000
290.120728	154.160000
290.213898	154.060000
290.306976	153.380000
290.400146	153.940000
290.493256	153.400000
290.586395	153.880000
290.679535	154.100000
290.772644	154.180000
290.865784	153.320000
290.958893	153.520000
291.052032	153.060000
291.145172	152.620000
291.238281	152.260000
291.331421	152.360000
291.424561	152.640000
291.517670	152.580000
291.610809	152.600000
291.703949	152.820000
291.797089	153.180000
291.890228	152.820000
291.983337	153.140000
292.076477	153.580000
292.169617	153.960000
292.262756	153.800000
292.355927	153.620000
292.449036	153.220000
292.542206	153.020000
292.635315	153.200000
292.728485	153.580000
292.821625	153.720000
292.914764	155.240000
293.007904	155.120000
293.101044	154.920000
293.194183	154.900000
293.287323	154.740000
293.380463	153.460000
293.473602	153.440000
293.566742	153.600000
293.659882	153.820000
293.753021	154.260000
293.846191	154.380000
293.939331	154.040000
294.032471	153.840000
294.125610	153.580000
294.218781	153.760000
294.311920	154.160000
294.405060	154.500000
294.498230	154.420000
294.591370	154.220000
294.684540	153.580000
294.777679	153.000000
294.870850	153.420000
294.963959	153.040000
295.057159	153.100000
295.150299	153.780000
295.243469	154.000000
295.336609	153.440000
295.429779	153.660000
295.522919	154.100000
295.616089	153.900000
295.709229	154.160000
295.802399	154.400000
295.895569	154.260000
295.988708	153.840000
296.081879	154.100000
296.175018	153.660000
296.268188	153.520000
296.361359	154.240000
296.454529	154.600000
296.547668	154.080000
296.640839	154.400000
296.734009	154.280000
296.827179	154.220000
296.920319	154.400000
297.013519	154.300000
297.106659	154.340000
297.199860	154.220000
297.292999	154.200000
297.386200	153.200000
297.479309	153.160000
297.572510	152.880000
297.665680	152.860000
297.758850	152.560000
297.852020	152.860000
297.945190	153.020000
298.038361	152.620000
298.131531	153.840000
298.224701	153.740000
298.317871	153.480000
298.411072	152.960000
298.504242	153.240000
298.597412	152.620000
298.690582	152.860000
298.783752	153.100000
298.876923	153.940000
298.970093	153.880000
299.063293	154.120000
299.156464	154.240000
299.249634	154.540000
299.342834	154.520000
299.436005	155.140000
299.529205	154.720000
299.622345	154.800000
299.715576	154.000000
299.808716	153.700000
299.901917	153.280000
299.995117	153.420000
300.088287	153.320000
300.181488	153.520000
300.274658	153.200000
300.367828	153.300000
300.461029	153.280000
300.554199	153.500000
300.647400	153.700000
300.740601	154.340000
300.833771	154.100000
300.926971	154.140000
301.020142	153.780000
301.113342	153.540000
301.206512	153.440000
301.299713	153.820000
301.392914	153.680000
301.486084	153.920000
301.579285	154.220000
301.672516	154.440000
301.765686	154.140000
301.858887	153.960000
301.952057	153.700000
302.045288	153.740000
302.138458	153.360000
302.231659	153.420000
302.324860	153.660000
302.418060	153.320000
302.511261	153.260000
302.604462	153.540000
302.697662	153.320000
302.790863	153.040000
302.884064	152.760000
302.977264	152.740000
303.070465	152.800000
303.163666	153.800000
303.256866	154.260000
303.350067	154.420000
303.443268	154.600000
303.536469	154.660000
303.629669	153.760000
303.722870	153.480000
303.816071	153.660000
303.909271	153.540000
304.002472	152.780000
304.095673	152.540000
304.188934	151.920000
304.282104	152.680000
304.375336	152.440000
304.468506	152.640000
304.561768	152.680000
304.654968	153.400000
304.748169	152.720000
304.841370	152.700000
304.934601	153.300000
305.027802	153.180000
305.121002	152.880000
305.214233	153.080000
305.307434	153.300000
305.400665	153.660000
305.493866	153.640000
