Model Number: SPM-002-B   
Serial Number: 70087108
Firmware Version: 004.15.4
Exposure Time: 100000.000000us
Data Taken on: 15-01-2021 16:35:47.801
Wavelength	Amplitude
221.570786	0.000000
221.663406	0.000000
221.756027	0.000000
221.848648	0.000000
221.941269	0.000000
222.033905	0.000000
222.126526	0.000000
222.219162	0.000000
222.311798	0.000000
222.404419	0.000000
222.497055	0.000000
222.589676	0.000000
222.682312	0.000000
222.774933	0.000000
222.867569	0.000000
222.960205	0.000000
223.052841	0.000000
223.145462	0.000000
223.238098	0.000000
223.330734	0.000000
223.423386	0.000000
223.516022	0.000000
223.608658	0.000000
223.701309	0.000000
223.793945	0.000000
223.886581	0.000000
223.979218	0.000000
224.071869	0.000000
224.164505	0.000000
224.257156	0.000000
224.349792	0.000000
224.442444	0.000000
224.535095	0.000000
224.627747	0.000000
224.720398	0.000000
224.813034	0.000000
224.905685	0.000000
224.998337	153.260000
225.090988	153.300000
225.183640	153.360000
225.276291	152.880000
225.368942	153.200000
225.461594	153.700000
225.554245	153.920000
225.646912	153.540000
225.739578	153.820000
225.832230	154.600000
225.924896	153.400000
226.017548	153.720000
226.110199	154.480000
226.202866	154.000000
226.295532	153.460000
226.388184	153.520000
226.480850	152.800000
226.573517	152.400000
226.666168	152.740000
226.758835	152.900000
226.851501	153.820000
226.944183	153.980000
227.036850	153.760000
227.129517	153.740000
227.222183	153.880000
227.314850	153.440000
227.407516	154.000000
227.500198	154.740000
227.592865	154.400000
227.685532	153.840000
227.778214	153.880000
227.870880	153.840000
227.963562	153.940000
228.056229	154.620000
228.148926	154.680000
228.241592	155.200000
228.334274	154.760000
228.426956	154.480000
228.519638	154.340000
228.612305	153.860000
228.704987	153.520000
228.797668	153.660000
228.890350	153.460000
228.983032	152.920000
229.075714	154.200000
229.168396	154.080000
229.261108	153.720000
229.353790	153.740000
229.446472	153.980000
229.539169	153.560000
229.631851	153.140000
229.724533	153.460000
229.817230	153.720000
229.909912	154.520000
230.002609	154.140000
230.095306	154.340000
230.187988	154.300000
230.280685	153.840000
230.373383	152.600000
230.466095	152.820000
230.558792	153.240000
230.651474	153.080000
230.744171	153.020000
230.836868	153.160000
230.929581	153.180000
231.022278	152.980000
231.114975	153.400000
231.207672	153.680000
231.300369	154.380000
231.393082	154.300000
231.485779	154.180000
231.578506	153.800000
231.671204	153.880000
231.763916	153.440000
231.856613	153.280000
231.949326	153.460000
232.042023	153.520000
232.134735	153.400000
232.227448	153.120000
232.320160	153.360000
232.412872	153.280000
232.505585	154.240000
232.598297	154.560000
232.691010	154.980000
232.783722	154.600000
232.876450	155.160000
232.969162	154.260000
233.061874	153.700000
233.154587	153.260000
233.247314	154.000000
233.340027	153.500000
233.432739	154.000000
233.525467	154.100000
233.618179	154.480000
233.710907	153.920000
233.803635	154.300000
233.896347	153.940000
233.989090	154.760000
234.081818	154.560000
234.174545	154.720000
234.267258	154.000000
234.359985	154.220000
234.452713	153.400000
234.545441	153.500000
234.638168	153.280000
234.730896	153.880000
234.823639	153.740000
234.916367	154.180000
235.009094	154.260000
235.101822	154.320000
235.194580	153.800000
235.287308	153.960000
235.380051	153.400000
235.472778	153.520000
235.565521	153.700000
235.658249	153.720000
235.750992	153.360000
235.843719	153.380000
235.936462	153.540000
236.029205	153.240000
236.121948	153.000000
236.214691	153.620000
236.307449	154.680000
236.400192	154.160000
236.492935	154.300000
236.585678	154.860000
236.678421	154.660000
236.771164	153.820000
236.863907	154.580000
236.956665	154.600000
237.049408	156.080000
237.142151	155.500000
237.234909	156.700000
237.327652	156.320000
237.420410	156.000000
237.513153	154.680000
237.605927	154.860000
237.698669	154.080000
237.791428	153.380000
237.884186	154.180000
237.976944	153.640000
238.069702	153.760000
238.162445	153.080000
238.255203	153.480000
238.347961	153.460000
238.440720	153.700000
238.533478	153.740000
238.626266	153.760000
238.719025	153.840000
238.811783	153.300000
238.904541	153.220000
238.997314	152.880000
239.090073	152.920000
239.182831	153.420000
239.275604	154.320000
239.368362	154.020000
239.461136	154.280000
239.553909	154.120000
239.646667	153.580000
239.739441	153.060000
239.832214	153.560000
239.925003	153.740000
240.017761	154.340000
240.110535	154.980000
240.203308	154.160000
240.296082	154.240000
240.388855	153.860000
240.481628	153.680000
240.574417	153.520000
240.667191	154.060000
240.759964	153.380000
240.852737	153.540000
240.945526	153.040000
241.038315	152.880000
241.131088	153.120000
241.223877	153.620000
241.316650	153.320000
241.409439	154.060000
241.502228	153.440000
241.595001	153.760000
241.687790	153.400000
241.780579	153.440000
241.873367	153.220000
241.966141	153.740000
242.058929	153.100000
242.151718	153.520000
242.244507	154.120000
242.337311	153.400000
242.430099	153.920000
242.522903	154.240000
242.615692	154.080000
242.708481	153.760000
242.801270	154.800000
242.894073	154.460000
242.986862	154.360000
243.079651	154.760000
243.172455	154.380000
243.265244	154.000000
243.358063	153.340000
243.450867	153.600000
243.543655	153.380000
243.636459	153.920000
243.729263	154.220000
243.822067	154.640000
243.914856	154.900000
244.007660	154.960000
244.100464	154.940000
244.193268	154.440000
244.286072	154.260000
244.378876	153.600000
244.471680	153.140000
244.564499	153.440000
244.657318	154.220000
244.750122	154.840000
244.842926	154.300000
244.935745	154.840000
245.028549	154.280000
245.121368	153.620000
245.214172	152.940000
245.306992	153.760000
245.399796	153.240000
245.492615	153.360000
245.585434	153.140000
245.678253	153.160000
245.771072	152.820000
245.863892	153.340000
245.956711	153.300000
246.049530	153.640000
246.142349	153.360000
246.235168	153.260000
246.327988	153.460000
246.420807	153.500000
246.513626	153.320000
246.606445	153.620000
246.699280	153.740000
246.792099	153.520000
246.884918	153.220000
246.977753	153.060000
247.070587	153.380000
247.163422	153.120000
247.256241	153.120000
247.349075	153.580000
247.441895	153.920000
247.534729	153.660000
247.627563	153.920000
247.720383	154.620000
247.813217	154.020000
247.906052	153.980000
247.998886	154.240000
248.091736	154.160000
248.184570	153.180000
248.277405	153.400000
248.370239	154.160000
248.463074	154.740000
248.555908	155.020000
248.648743	155.080000
248.741592	155.340000
248.834427	154.420000
248.927261	153.260000
249.020111	153.400000
249.112946	154.300000
249.205795	153.820000
249.298630	153.940000
249.391495	154.380000
249.484344	154.240000
249.577179	153.940000
249.670029	154.400000
249.762878	154.980000
249.855728	155.000000
249.948563	154.900000
250.041412	153.960000
250.134262	154.080000
250.227112	154.280000
250.319962	154.480000
250.412827	154.640000
250.505692	154.880000
250.598541	155.020000
250.691391	154.280000
250.784241	154.060000
250.877106	154.280000
250.969955	154.200000
251.062805	154.300000
251.155670	154.720000
251.248520	154.300000
251.341385	154.360000
251.434235	154.300000
251.527100	153.960000
251.619965	153.600000
251.712814	154.580000
251.805695	154.520000
251.898560	154.820000
251.991425	154.940000
252.084290	154.900000
252.177155	153.840000
252.270020	153.460000
252.362885	153.420000
252.455750	153.180000
252.548615	153.160000
252.641479	153.200000
252.734360	153.280000
252.827240	153.000000
252.920105	153.600000
253.012970	153.460000
253.105850	153.680000
253.198715	153.540000
253.291595	153.980000
253.384460	152.980000
253.477341	152.900000
253.570221	153.540000
253.663086	153.220000
253.755966	153.540000
253.848846	154.020000
253.941727	154.340000
254.034592	153.700000
254.127472	153.280000
254.220367	153.120000
254.313248	153.260000
254.406128	152.680000
254.499008	153.500000
254.591904	154.780000
254.684784	155.140000
254.777664	154.980000
254.870544	155.200000
254.963440	154.620000
255.056335	154.320000
255.149216	153.880000
255.242111	154.580000
255.334991	154.860000
255.427887	155.020000
255.520767	154.940000
255.613663	155.060000
255.706558	154.240000
255.799438	154.060000
255.892334	153.680000
255.985229	153.500000
256.078125	152.880000
256.171021	153.080000
256.263916	153.440000
256.356812	153.780000
256.449707	154.220000
256.542603	154.220000
256.635498	154.680000
256.728394	154.580000
256.821289	154.380000
256.914215	154.420000
257.007080	154.680000
257.100006	154.700000
257.192932	155.100000
257.285828	155.300000
257.378723	154.620000
257.471619	154.380000
257.564545	153.500000
257.657440	153.400000
257.750336	153.760000
257.843262	153.900000
257.936157	155.300000
258.029053	156.000000
258.121979	155.980000
258.214874	155.220000
258.307800	155.140000
258.400696	153.940000
258.493622	153.660000
258.586517	152.740000
258.679443	153.460000
258.772339	153.080000
258.865265	153.060000
258.958160	152.580000
259.051086	153.740000
259.144012	153.340000
259.236938	154.440000
259.329834	154.540000
259.422791	154.820000
259.515717	154.000000
259.608612	153.780000
259.701538	153.320000
259.794464	153.320000
259.887390	153.280000
259.980316	153.340000
260.073212	153.080000
260.166138	152.300000
260.259064	152.640000
260.351990	153.180000
260.444916	153.380000
260.537842	154.060000
260.630768	155.140000
260.723694	154.680000
260.816620	154.380000
260.909546	154.120000
261.002472	153.600000
261.095398	152.760000
261.188354	152.780000
261.281281	152.360000
261.374207	152.560000
261.467133	153.140000
261.560089	153.600000
261.653015	153.520000
261.745972	154.380000
261.838867	154.720000
261.931824	154.840000
262.024780	154.600000
262.117706	155.120000
262.210663	155.140000
262.303589	155.040000
262.396515	154.780000
262.489471	155.620000
262.582397	155.320000
262.675354	154.440000
262.768280	154.360000
262.861237	154.440000
262.954163	154.540000
263.047119	154.700000
263.140045	154.800000
263.233002	154.760000
263.325958	154.820000
263.418884	153.840000
263.511841	153.620000
263.604797	153.640000
263.697723	153.840000
263.790680	153.580000
263.883636	154.220000
263.976593	154.140000
264.069550	154.520000
264.162476	154.140000
264.255463	154.280000
264.348419	153.900000
264.441376	154.140000
264.534332	153.520000
264.627289	153.740000
264.720245	154.060000
264.813202	153.740000
264.906158	153.860000
264.999115	154.700000
265.092072	154.640000
265.185028	154.860000
265.277985	155.340000
265.370941	155.220000
265.463898	154.480000
265.556854	154.280000
265.649811	153.220000
265.742798	153.140000
265.835754	153.060000
265.928711	153.960000
266.021667	154.320000
266.114655	155.080000
266.207611	155.320000
266.300568	154.840000
266.393585	153.940000
266.486511	153.920000
266.579498	152.780000
266.672485	152.440000
266.765442	152.480000
266.858429	153.340000
266.951385	152.820000
267.044342	153.640000
267.137329	153.780000
267.230316	153.940000
267.323273	153.300000
267.416260	154.140000
267.509216	153.720000
267.602203	153.840000
267.695160	154.500000
267.788147	154.780000
267.881134	154.000000
267.974091	154.460000
268.067078	153.980000
268.160065	153.460000
268.253052	153.240000
268.346008	153.440000
268.438995	153.140000
268.531982	153.560000
268.624969	153.480000
268.717987	153.840000
268.810944	153.820000
268.903961	154.260000
268.996948	153.700000
269.089905	154.260000
269.182892	154.180000
269.275879	154.240000
269.368866	153.460000
269.461853	154.200000
269.554871	153.820000
269.647858	153.840000
269.740845	154.300000
269.833832	154.960000
269.926819	154.200000
270.019806	154.520000
270.112793	153.980000
270.205811	153.980000
270.298798	153.520000
270.391785	154.320000
270.484772	154.080000
270.577789	154.280000
270.670776	153.480000
270.763763	153.540000
270.856750	153.160000
270.949768	152.640000
271.042786	152.740000
271.135773	153.340000
271.228790	153.860000
271.321808	153.600000
271.414795	153.740000
271.507782	153.640000
271.600800	153.220000
271.693817	152.960000
271.786804	153.520000
271.879822	153.880000
271.972809	153.740000
272.065826	154.140000
272.158844	153.460000
272.251831	153.820000
272.344849	153.720000
272.437866	153.580000
272.530853	153.380000
272.623871	154.180000
272.716888	152.980000
272.809906	153.100000
272.902893	153.200000
272.995911	152.720000
273.088928	152.380000
273.181946	152.880000
273.274963	152.700000
273.367981	152.800000
273.460999	153.380000
273.554047	153.840000
273.647003	154.520000
273.740051	154.500000
273.833069	154.860000
273.926086	154.800000
274.019135	154.540000
274.112152	154.140000
274.205170	154.220000
274.298187	154.240000
274.391205	153.800000
274.484222	153.860000
274.577240	153.760000
274.670258	153.720000
274.763306	153.520000
274.856323	154.140000
274.949341	154.040000
275.042358	154.340000
275.135406	154.260000
275.228424	154.320000
275.321442	154.020000
275.414490	153.920000
275.507507	154.080000
275.600525	154.700000
275.693573	154.520000
275.786591	154.340000
275.879669	154.640000
275.972656	154.120000
276.065735	153.660000
276.158752	154.300000
276.251801	155.140000
276.344818	155.320000
276.437866	155.700000
276.530884	155.660000
276.623932	154.880000
276.716980	154.960000
276.809998	154.840000
276.903046	154.360000
276.996094	155.080000
277.089111	155.680000
277.182159	155.920000
277.275208	155.360000
277.368256	155.600000
277.461304	155.240000
277.554321	154.460000
277.647369	154.120000
277.740417	154.260000
277.833466	153.880000
277.926514	153.340000
278.019562	154.100000
278.112610	153.560000
278.205688	153.920000
278.298706	154.360000
278.391785	154.700000
278.484833	154.380000
278.577881	154.360000
278.670929	154.580000
278.763977	154.540000
278.857025	154.560000
278.950073	154.700000
279.043121	154.600000
279.136169	154.220000
279.229248	153.860000
279.322296	154.160000
279.415344	153.860000
279.508392	153.960000
279.601440	154.120000
279.694519	154.360000
279.787567	154.020000
279.880615	153.800000
279.973694	153.200000
280.066742	152.880000
280.159790	153.080000
280.252869	152.500000
280.345917	152.740000
280.438995	153.280000
280.532074	153.600000
280.625122	153.480000
280.718201	154.520000
280.811279	154.440000
280.904327	154.320000
280.997406	154.280000
281.090454	154.140000
281.183533	153.260000
281.276581	153.540000
281.369659	153.480000
281.462738	153.680000
281.555786	153.820000
281.648865	154.100000
281.741943	153.920000
281.835022	154.460000
281.928070	154.100000
282.021149	154.000000
282.114227	154.100000
282.207306	154.020000
282.300385	154.140000
282.393433	154.440000
282.486511	154.480000
282.579590	154.780000
282.672668	155.380000
282.765747	154.620000
282.858856	154.280000
282.951904	154.200000
283.045013	154.140000
283.138062	153.880000
283.231171	154.360000
283.324249	154.480000
283.417328	154.780000
283.510406	154.320000
283.603485	153.980000
283.696564	153.600000
283.789642	153.600000
283.882751	153.200000
283.975830	153.820000
284.068909	153.660000
284.161987	154.540000
284.255066	154.240000
284.348175	154.640000
284.441254	154.300000
284.534332	154.780000
284.627441	153.900000
284.720520	153.580000
284.813599	153.320000
284.906708	153.400000
284.999786	152.880000
285.092896	152.480000
285.185974	153.820000
285.279053	153.360000
285.372192	153.280000
285.465240	154.140000
285.558380	154.460000
285.651459	153.600000
285.744568	154.900000
285.837677	154.820000
285.930756	154.800000
286.023865	155.100000
286.116943	154.740000
286.210052	154.420000
286.303162	154.140000
286.396240	153.540000
286.489349	153.460000
286.582458	154.000000
286.675568	153.360000
286.768646	153.720000
286.861755	154.440000
286.954865	155.120000
287.047974	154.600000
287.141083	154.640000
287.234161	154.380000
287.327271	153.820000
287.420380	154.140000
287.513519	154.300000
287.606598	154.440000
287.699738	154.600000
287.792816	154.360000
287.885956	153.740000
287.979034	153.820000
288.072174	153.960000
288.165283	154.020000
288.258392	154.360000
288.351501	153.640000
288.444611	153.740000
288.537720	153.700000
288.630859	153.220000
288.723969	153.320000
288.817078	154.260000
288.910187	154.080000
289.003296	153.460000
289.096436	153.480000
289.189545	153.340000
289.282654	152.520000
289.375763	152.980000
289.468903	153.780000
289.562012	154.140000
289.655121	153.800000
289.748260	154.320000
289.841400	154.560000
289.934509	154.120000
290.027649	154.440000
290.120728	154.600000
290.213898	154.500000
290.306976	154.080000
290.400146	154.540000
290.493256	153.840000
290.586395	154.340000
290.679535	154.400000
290.772644	154.280000
290.865784	153.220000
290.958893	153.220000
291.052032	152.380000
291.145172	152.380000
291.238281	152.180000
291.331421	152.740000
291.424561	153.360000
291.517670	153.320000
291.610809	153.540000
291.703949	153.480000
291.797089	153.700000
291.890228	153.120000
291.983337	153.360000
292.076477	152.800000
292.169617	153.320000
292.262756	153.080000
292.355927	153.420000
292.449036	153.440000
292.542206	153.820000
292.635315	153.880000
292.728485	154.120000
292.821625	153.620000
292.914764	154.560000
293.007904	154.240000
293.101044	153.980000
293.194183	153.680000
293.287323	154.120000
293.380463	153.460000
293.473602	153.240000
293.566742	153.640000
293.659882	154.120000
293.753021	154.280000
293.846191	154.220000
293.939331	154.060000
294.032471	153.620000
294.125610	153.360000
294.218781	153.540000
294.311920	154.060000
294.405060	154.440000
294.498230	154.380000
294.591370	154.260000
294.684540	153.620000
294.777679	152.740000
294.870850	153.300000
294.963959	153.540000
295.057159	153.380000
295.150299	153.640000
295.243469	153.840000
295.336609	152.920000
295.429779	152.960000
295.522919	153.440000
295.616089	153.540000
295.709229	153.980000
295.802399	154.620000
295.895569	154.220000
295.988708	153.940000
296.081879	154.140000
296.175018	153.520000
296.268188	153.280000
296.361359	153.800000
296.454529	153.980000
296.547668	153.640000
296.640839	154.200000
296.734009	153.980000
296.827179	153.840000
296.920319	154.060000
297.013519	153.760000
297.106659	153.760000
297.199860	153.620000
297.292999	153.500000
297.386200	153.120000
297.479309	153.240000
297.572510	152.940000
297.665680	152.960000
297.758850	153.040000
297.852020	153.200000
297.945190	153.280000
298.038361	152.800000
298.131531	154.100000
298.224701	153.760000
298.317871	153.400000
298.411072	153.160000
298.504242	153.260000
298.597412	152.360000
298.690582	152.860000
298.783752	153.060000
298.876923	153.720000
298.970093	154.100000
299.063293	154.400000
299.156464	154.760000
299.249634	155.040000
299.342834	154.940000
299.436005	155.280000
299.529205	154.820000
299.622345	154.580000
299.715576	153.740000
299.808716	153.340000
299.901917	153.240000
299.995117	153.760000
300.088287	153.740000
300.181488	153.740000
300.274658	153.820000
300.367828	153.920000
300.461029	153.480000
300.554199	153.680000
300.647400	154.140000
300.740601	154.700000
300.833771	154.220000
300.926971	154.560000
301.020142	153.980000
301.113342	153.740000
301.206512	153.540000
301.299713	154.360000
301.392914	153.940000
301.486084	154.240000
301.579285	154.280000
301.672516	154.520000
301.765686	153.700000
301.858887	153.920000
301.952057	153.780000
302.045288	153.800000
302.138458	153.560000
302.231659	153.760000
302.324860	153.660000
302.418060	153.400000
302.511261	153.520000
302.604462	153.620000
302.697662	153.320000
302.790863	153.240000
302.884064	152.940000
302.977264	153.140000
303.070465	153.160000
303.163666	153.920000
303.256866	154.160000
303.350067	154.360000
303.443268	154.260000
303.536469	154.280000
303.629669	153.720000
303.722870	153.740000
303.816071	153.740000
303.909271	153.980000
304.002472	153.020000
304.095673	152.840000
304.188934	152.220000
304.282104	153.100000
304.375336	152.760000
304.468506	153.200000
304.561768	153.200000
304.654968	154.080000
304.748169	153.220000
304.841370	153.180000
304.934601	153.520000
305.027802	153.280000
305.121002	152.720000
305.214233	152.820000
305.307434	152.780000
305.400665	153.240000
305.493866	153.380000
