Model Number: SPM-002-B   
Serial Number: 70087108
Firmware Version: 004.15.4
Exposure Time: 100000.000000us
Data Taken on: 15-01-2021 16:36:10.405
Wavelength	Amplitude
221.570786	0.000000
221.663406	0.000000
221.756027	0.000000
221.848648	0.000000
221.941269	0.000000
222.033905	0.000000
222.126526	0.000000
222.219162	0.000000
222.311798	0.000000
222.404419	0.000000
222.497055	0.000000
222.589676	0.000000
222.682312	0.000000
222.774933	0.000000
222.867569	0.000000
222.960205	0.000000
223.052841	0.000000
223.145462	0.000000
223.238098	0.000000
223.330734	0.000000
223.423386	0.000000
223.516022	0.000000
223.608658	0.000000
223.701309	0.000000
223.793945	0.000000
223.886581	0.000000
223.979218	0.000000
224.071869	0.000000
224.164505	0.000000
224.257156	0.000000
224.349792	0.000000
224.442444	0.000000
224.535095	0.000000
224.627747	0.000000
224.720398	0.000000
224.813034	0.000000
224.905685	0.000000
224.998337	152.840000
225.090988	152.620000
225.183640	152.540000
225.276291	152.340000
225.368942	152.840000
225.461594	153.480000
225.554245	153.500000
225.646912	153.500000
225.739578	154.080000
225.832230	154.600000
225.924896	153.680000
226.017548	154.300000
226.110199	155.040000
226.202866	154.220000
226.295532	153.960000
226.388184	153.580000
226.480850	152.940000
226.573517	152.280000
226.666168	152.860000
226.758835	152.660000
226.851501	153.700000
226.944183	153.880000
227.036850	153.660000
227.129517	153.600000
227.222183	153.860000
227.314850	153.920000
227.407516	154.380000
227.500198	155.500000
227.592865	155.040000
227.685532	154.840000
227.778214	154.420000
227.870880	154.540000
227.963562	154.440000
228.056229	155.020000
228.148926	154.960000
228.241592	155.740000
228.334274	155.000000
228.426956	154.800000
228.519638	154.700000
228.612305	153.900000
228.704987	153.320000
228.797668	153.840000
228.890350	153.220000
228.983032	152.520000
229.075714	153.620000
229.168396	153.620000
229.261108	152.940000
229.353790	153.140000
229.446472	153.640000
229.539169	153.440000
229.631851	153.160000
229.724533	153.440000
229.817230	153.880000
229.909912	154.800000
230.002609	154.560000
230.095306	154.760000
230.187988	155.040000
230.280685	154.640000
230.373383	153.380000
230.466095	153.520000
230.558792	153.780000
230.651474	153.520000
230.744171	153.260000
230.836868	153.440000
230.929581	153.320000
231.022278	153.160000
231.114975	153.340000
231.207672	153.560000
231.300369	153.940000
231.393082	154.260000
231.485779	154.080000
231.578506	153.860000
231.671204	154.160000
231.763916	154.060000
231.856613	153.700000
231.949326	154.040000
232.042023	154.240000
232.134735	154.060000
232.227448	153.480000
232.320160	154.200000
232.412872	154.180000
232.505585	154.660000
232.598297	154.540000
232.691010	154.940000
232.783722	154.100000
232.876450	154.360000
232.969162	153.660000
233.061874	153.380000
233.154587	152.920000
233.247314	153.540000
233.340027	152.960000
233.432739	153.640000
233.525467	153.700000
233.618179	154.520000
233.710907	153.880000
233.803635	154.180000
233.896347	153.460000
233.989090	154.080000
234.081818	153.600000
234.174545	154.140000
234.267258	153.820000
234.359985	154.060000
234.452713	153.520000
234.545441	153.240000
234.638168	153.140000
234.730896	153.680000
234.823639	153.760000
234.916367	154.180000
235.009094	154.660000
235.101822	154.600000
235.194580	154.440000
235.287308	154.540000
235.380051	154.220000
235.472778	154.140000
235.565521	154.580000
235.658249	154.160000
235.750992	153.980000
235.843719	153.900000
235.936462	154.400000
236.029205	153.660000
236.121948	153.240000
236.214691	153.760000
236.307449	154.740000
236.400192	153.860000
236.492935	153.900000
236.585678	154.400000
236.678421	153.900000
236.771164	153.380000
236.863907	154.240000
236.956665	154.160000
237.049408	155.580000
237.142151	155.420000
237.234909	156.060000
237.327652	155.900000
237.420410	155.980000
237.513153	155.160000
237.605927	154.980000
237.698669	154.180000
237.791428	153.500000
237.884186	154.080000
237.976944	153.400000
238.069702	153.700000
238.162445	153.220000
238.255203	153.360000
238.347961	153.640000
238.440720	153.500000
238.533478	153.420000
238.626266	153.500000
238.719025	153.900000
238.811783	153.360000
238.904541	153.400000
238.997314	153.360000
239.090073	153.120000
239.182831	153.600000
239.275604	154.360000
239.368362	154.600000
239.461136	154.720000
239.553909	155.200000
239.646667	154.680000
239.739441	154.140000
239.832214	154.500000
239.925003	154.660000
240.017761	155.000000
240.110535	155.400000
240.203308	155.000000
240.296082	154.580000
240.388855	154.300000
240.481628	154.180000
240.574417	154.200000
240.667191	154.260000
240.759964	154.200000
240.852737	154.460000
240.945526	154.080000
241.038315	153.560000
241.131088	153.660000
241.223877	153.920000
241.316650	153.360000
241.409439	153.820000
241.502228	153.700000
241.595001	154.120000
241.687790	153.720000
241.780579	153.900000
241.873367	154.020000
241.966141	154.340000
242.058929	153.560000
242.151718	153.920000
242.244507	154.340000
242.337311	153.680000
242.430099	153.800000
242.522903	154.460000
242.615692	153.940000
242.708481	153.760000
242.801270	153.860000
242.894073	153.860000
242.986862	153.480000
243.079651	154.460000
243.172455	154.360000
243.265244	154.700000
243.358063	154.020000
243.450867	154.440000
243.543655	153.740000
243.636459	153.780000
243.729263	154.080000
243.822067	154.500000
243.914856	154.760000
244.007660	155.320000
244.100464	155.120000
244.193268	154.340000
244.286072	154.200000
244.378876	153.480000
244.471680	152.820000
244.564499	153.440000
244.657318	154.660000
244.750122	154.920000
244.842926	154.560000
244.935745	155.060000
245.028549	154.560000
245.121368	153.800000
245.214172	153.560000
245.306992	154.200000
245.399796	153.840000
245.492615	154.020000
245.585434	153.760000
245.678253	153.860000
245.771072	153.820000
245.863892	154.220000
245.956711	154.240000
246.049530	154.240000
246.142349	154.020000
246.235168	153.900000
246.327988	154.220000
246.420807	154.060000
246.513626	154.340000
246.606445	154.380000
246.699280	153.960000
246.792099	153.420000
246.884918	153.060000
246.977753	152.560000
247.070587	153.040000
247.163422	153.320000
247.256241	153.300000
247.349075	153.740000
247.441895	153.920000
247.534729	153.580000
247.627563	153.780000
247.720383	154.620000
247.813217	154.380000
247.906052	154.440000
247.998886	154.440000
248.091736	154.400000
248.184570	153.780000
248.277405	154.080000
248.370239	155.260000
248.463074	156.240000
248.555908	156.200000
248.648743	156.100000
248.741592	156.140000
248.834427	155.000000
248.927261	153.740000
249.020111	154.080000
249.112946	154.520000
249.205795	153.860000
249.298630	154.060000
249.391495	154.140000
249.484344	153.620000
249.577179	153.440000
249.670029	154.120000
249.762878	154.320000
249.855728	154.640000
249.948563	155.160000
250.041412	154.680000
250.134262	154.560000
250.227112	154.560000
250.319962	154.280000
250.412827	153.860000
250.505692	153.620000
250.598541	153.700000
250.691391	153.240000
250.784241	153.260000
250.877106	153.380000
250.969955	153.440000
251.062805	154.040000
251.155670	154.760000
251.248520	154.840000
251.341385	155.080000
251.434235	154.760000
251.527100	154.060000
251.619965	153.380000
251.712814	154.100000
251.805695	153.880000
251.898560	154.700000
251.991425	154.960000
252.084290	155.220000
252.177155	154.300000
252.270020	154.280000
252.362885	154.100000
252.455750	154.000000
252.548615	153.720000
252.641479	153.800000
252.734360	153.840000
252.827240	153.480000
252.920105	153.440000
253.012970	153.480000
253.105850	153.180000
253.198715	153.000000
253.291595	153.180000
253.384460	152.820000
253.477341	152.680000
253.570221	153.160000
253.663086	152.860000
253.755966	153.560000
253.848846	153.840000
253.941727	153.960000
254.034592	153.840000
254.127472	153.640000
254.220367	153.200000
254.313248	153.500000
254.406128	153.380000
254.499008	153.700000
254.591904	154.800000
254.684784	155.340000
254.777664	155.140000
254.870544	155.080000
254.963440	154.960000
255.056335	154.320000
255.149216	153.940000
255.242111	154.240000
255.334991	154.720000
255.427887	154.780000
255.520767	154.780000
255.613663	154.900000
255.706558	154.400000
255.799438	153.720000
255.892334	153.340000
255.985229	153.640000
256.078125	153.320000
256.171021	153.620000
256.263916	154.580000
256.356812	154.680000
256.449707	154.560000
256.542603	154.460000
256.635498	154.740000
256.728394	153.940000
256.821289	153.820000
256.914215	154.120000
257.007080	154.100000
257.100006	153.940000
257.192932	154.820000
257.285828	154.960000
257.378723	154.320000
257.471619	154.460000
257.564545	153.800000
257.657440	153.660000
257.750336	154.180000
257.843262	154.160000
257.936157	155.040000
258.029053	155.780000
258.121979	155.320000
258.214874	154.980000
258.307800	154.740000
258.400696	153.520000
258.493622	153.240000
258.586517	152.400000
258.679443	152.620000
258.772339	152.680000
258.865265	152.740000
258.958160	152.260000
259.051086	153.640000
259.144012	153.360000
259.236938	154.260000
259.329834	154.480000
259.422791	154.540000
259.515717	153.660000
259.608612	153.420000
259.701538	153.120000
259.794464	152.900000
259.887390	152.700000
259.980316	152.800000
260.073212	152.700000
260.166138	151.800000
260.259064	152.300000
260.351990	153.400000
260.444916	153.360000
260.537842	153.800000
260.630768	154.720000
260.723694	154.560000
260.816620	154.140000
260.909546	154.280000
261.002472	153.940000
261.095398	153.420000
261.188354	153.380000
261.281281	153.020000
261.374207	153.180000
261.467133	153.980000
261.560089	154.140000
261.653015	153.760000
261.745972	154.580000
261.838867	155.060000
261.931824	154.880000
262.024780	154.840000
262.117706	155.080000
262.210663	154.760000
262.303589	154.260000
262.396515	154.280000
262.489471	154.960000
262.582397	155.020000
262.675354	154.640000
262.768280	154.660000
262.861237	154.640000
262.954163	154.280000
263.047119	154.400000
263.140045	154.060000
263.233002	154.160000
263.325958	153.840000
263.418884	153.420000
263.511841	153.080000
263.604797	153.540000
263.697723	153.300000
263.790680	153.700000
263.883636	154.340000
263.976593	154.540000
264.069550	154.880000
264.162476	154.860000
264.255463	154.660000
264.348419	154.600000
264.441376	154.900000
264.534332	153.780000
264.627289	153.700000
264.720245	154.120000
264.813202	153.240000
264.906158	153.080000
264.999115	153.920000
265.092072	153.940000
265.185028	153.980000
265.277985	154.660000
265.370941	154.720000
265.463898	154.540000
265.556854	154.560000
265.649811	153.620000
265.742798	153.760000
265.835754	153.680000
265.928711	154.020000
266.021667	154.220000
266.114655	154.480000
266.207611	154.320000
266.300568	153.600000
266.393585	153.300000
266.486511	153.520000
266.579498	152.940000
266.672485	152.960000
266.765442	153.380000
266.858429	153.900000
266.951385	153.500000
267.044342	153.820000
267.137329	153.600000
267.230316	153.840000
267.323273	153.060000
267.416260	153.740000
267.509216	153.800000
267.602203	153.760000
267.695160	154.240000
267.788147	154.340000
267.881134	153.620000
267.974091	154.140000
268.067078	154.260000
268.160065	153.800000
268.253052	154.060000
268.346008	154.040000
268.438995	153.500000
268.531982	153.740000
268.624969	153.460000
268.717987	153.620000
268.810944	153.620000
268.903961	154.120000
268.996948	153.360000
269.089905	153.960000
269.182892	153.900000
269.275879	154.500000
269.368866	153.920000
269.461853	154.520000
269.554871	154.280000
269.647858	154.380000
269.740845	154.460000
269.833832	154.860000
269.926819	154.600000
270.019806	154.380000
270.112793	153.620000
270.205811	153.520000
270.298798	153.480000
270.391785	154.260000
270.484772	154.220000
270.577789	154.800000
270.670776	154.280000
270.763763	153.980000
270.856750	153.620000
270.949768	153.400000
271.042786	153.000000
271.135773	153.280000
271.228790	153.760000
271.321808	153.300000
271.414795	153.180000
271.507782	152.960000
271.600800	152.420000
271.693817	152.300000
271.786804	153.060000
271.879822	153.320000
271.972809	153.300000
272.065826	153.900000
272.158844	153.740000
272.251831	154.080000
272.344849	154.140000
272.437866	154.460000
272.530853	154.620000
272.623871	154.700000
272.716888	153.220000
272.809906	153.500000
272.902893	153.540000
272.995911	152.700000
273.088928	152.480000
273.181946	153.040000
273.274963	152.660000
273.367981	152.460000
273.460999	153.180000
273.554047	153.740000
273.647003	154.700000
273.740051	154.660000
273.833069	155.220000
273.926086	155.500000
274.019135	154.940000
274.112152	154.320000
274.205170	154.540000
274.298187	154.440000
274.391205	153.620000
274.484222	153.800000
274.577240	153.540000
274.670258	153.700000
274.763306	153.720000
274.856323	154.220000
274.949341	154.600000
275.042358	155.000000
275.135406	154.720000
275.228424	154.720000
275.321442	154.640000
275.414490	153.980000
275.507507	154.340000
275.600525	154.800000
275.693573	154.440000
275.786591	154.100000
275.879669	154.180000
275.972656	153.340000
276.065735	153.200000
276.158752	153.940000
276.251801	154.680000
276.344818	155.180000
276.437866	155.620000
276.530884	155.440000
276.623932	154.680000
276.716980	154.600000
276.809998	154.420000
276.903046	154.240000
276.996094	155.080000
277.089111	155.720000
277.182159	156.100000
277.275208	155.860000
277.368256	156.000000
277.461304	155.420000
277.554321	154.600000
277.647369	154.280000
277.740417	154.440000
277.833466	153.920000
277.926514	153.600000
278.019562	154.460000
278.112610	153.900000
278.205688	153.660000
278.298706	154.140000
278.391785	154.000000
278.484833	153.040000
278.577881	153.180000
278.670929	153.660000
278.763977	153.600000
278.857025	153.940000
278.950073	154.320000
279.043121	153.920000
279.136169	153.940000
279.229248	153.440000
279.322296	153.800000
279.415344	153.720000
279.508392	153.760000
279.601440	153.400000
279.694519	153.860000
279.787567	153.280000
279.880615	153.220000
279.973694	153.160000
280.066742	153.340000
280.159790	153.360000
280.252869	153.100000
280.345917	153.640000
280.438995	154.040000
280.532074	153.840000
280.625122	154.060000
280.718201	155.280000
280.811279	154.940000
280.904327	154.720000
280.997406	155.240000
281.090454	155.160000
281.183533	154.140000
281.276581	154.220000
281.369659	154.020000
281.462738	153.660000
281.555786	153.660000
281.648865	153.640000
281.741943	153.500000
281.835022	154.340000
281.928070	154.340000
282.021149	154.240000
282.114227	154.140000
282.207306	153.920000
282.300385	153.900000
282.393433	153.980000
282.486511	154.060000
282.579590	154.800000
282.672668	155.180000
282.765747	154.580000
282.858856	154.240000
282.951904	154.020000
283.045013	154.180000
283.138062	154.520000
283.231171	154.780000
283.324249	155.200000
283.417328	155.140000
283.510406	154.640000
283.603485	154.320000
283.696564	154.220000
283.789642	153.820000
283.882751	153.720000
283.975830	153.980000
284.068909	153.560000
284.161987	154.360000
284.255066	154.000000
284.348175	154.360000
284.441254	154.120000
284.534332	154.680000
284.627441	153.780000
284.720520	154.000000
284.813599	153.900000
284.906708	153.940000
284.999786	153.020000
285.092896	152.900000
285.185974	153.720000
285.279053	153.320000
285.372192	153.480000
285.465240	154.800000
285.558380	154.800000
285.651459	154.620000
285.744568	155.500000
285.837677	155.040000
285.930756	154.680000
286.023865	154.900000
286.116943	154.140000
286.210052	154.040000
286.303162	154.160000
286.396240	153.820000
286.489349	153.620000
286.582458	154.400000
286.675568	153.900000
286.768646	153.900000
286.861755	154.160000
286.954865	155.040000
287.047974	154.360000
287.141083	154.060000
287.234161	153.880000
287.327271	153.600000
287.420380	153.520000
287.513519	153.520000
287.606598	153.660000
287.699738	154.020000
287.792816	154.280000
287.885956	153.700000
287.979034	153.620000
288.072174	153.640000
288.165283	153.620000
288.258392	153.520000
288.351501	153.180000
288.444611	153.940000
288.537720	154.440000
288.630859	154.240000
288.723969	154.600000
288.817078	155.320000
288.910187	155.120000
289.003296	154.440000
289.096436	154.000000
289.189545	153.620000
289.282654	152.960000
289.375763	153.220000
289.468903	153.920000
289.562012	154.540000
289.655121	154.240000
289.748260	154.660000
289.841400	154.640000
289.934509	154.340000
290.027649	154.580000
290.120728	154.840000
290.213898	154.900000
290.306976	154.460000
290.400146	154.960000
290.493256	154.220000
290.586395	154.480000
290.679535	154.560000
290.772644	154.500000
290.865784	153.440000
290.958893	153.580000
291.052032	153.120000
291.145172	153.200000
291.238281	153.040000
291.331421	153.500000
291.424561	154.020000
291.517670	153.800000
291.610809	153.640000
291.703949	153.620000
291.797089	153.980000
291.890228	153.380000
291.983337	153.740000
292.076477	153.720000
292.169617	154.200000
292.262756	153.920000
292.355927	153.940000
292.449036	153.580000
292.542206	153.740000
292.635315	153.520000
292.728485	153.860000
292.821625	153.600000
292.914764	155.100000
293.007904	154.780000
293.101044	155.080000
293.194183	154.700000
293.287323	155.140000
293.380463	154.100000
293.473602	153.600000
293.566742	153.680000
293.659882	154.360000
293.753021	154.720000
293.846191	154.580000
293.939331	154.620000
294.032471	154.340000
294.125610	153.620000
294.218781	153.720000
294.311920	154.220000
294.405060	154.780000
294.498230	154.940000
294.591370	154.900000
294.684540	154.240000
294.777679	153.640000
294.870850	153.880000
294.963959	153.480000
295.057159	153.640000
295.150299	153.960000
295.243469	154.020000
295.336609	153.480000
295.429779	153.940000
295.522919	154.040000
295.616089	154.020000
295.709229	154.820000
295.802399	154.900000
295.895569	154.340000
295.988708	154.080000
296.081879	154.300000
296.175018	153.620000
296.268188	153.800000
296.361359	154.440000
296.454529	154.920000
296.547668	154.600000
296.640839	154.960000
296.734009	154.860000
296.827179	154.980000
296.920319	155.100000
297.013519	154.900000
297.106659	154.980000
297.199860	155.100000
297.292999	155.020000
297.386200	154.560000
297.479309	154.640000
297.572510	154.300000
297.665680	153.820000
297.758850	153.500000
297.852020	153.480000
297.945190	153.500000
298.038361	153.020000
298.131531	154.340000
298.224701	154.080000
298.317871	153.700000
298.411072	153.260000
298.504242	153.340000
298.597412	152.320000
298.690582	152.540000
298.783752	152.920000
298.876923	153.540000
298.970093	153.700000
299.063293	154.360000
299.156464	154.520000
299.249634	154.640000
299.342834	154.600000
299.436005	155.160000
299.529205	154.560000
299.622345	154.780000
299.715576	154.120000
299.808716	154.060000
299.901917	153.820000
299.995117	154.240000
300.088287	154.160000
300.181488	154.340000
300.274658	154.200000
300.367828	154.400000
300.461029	154.180000
300.554199	154.520000
300.647400	154.940000
300.740601	155.400000
300.833771	154.900000
300.926971	155.100000
301.020142	154.040000
301.113342	153.700000
301.206512	153.800000
301.299713	154.460000
301.392914	154.200000
301.486084	154.760000
301.579285	154.780000
301.672516	155.080000
301.765686	154.560000
301.858887	154.620000
301.952057	154.740000
302.045288	154.920000
302.138458	154.360000
302.231659	154.240000
302.324860	154.340000
302.418060	154.040000
302.511261	153.880000
302.604462	154.220000
302.697662	153.840000
302.790863	153.620000
302.884064	153.320000
302.977264	153.260000
303.070465	152.960000
303.163666	154.200000
303.256866	154.340000
303.350067	154.540000
303.443268	154.760000
303.536469	155.160000
303.629669	154.300000
303.722870	154.400000
303.816071	154.280000
303.909271	154.420000
304.002472	153.600000
304.095673	153.580000
304.188934	153.040000
304.282104	154.140000
304.375336	154.000000
304.468506	154.100000
304.561768	154.000000
304.654968	154.520000
304.748169	153.540000
304.841370	153.340000
304.934601	153.800000
305.027802	153.400000
305.121002	152.740000
305.214233	152.960000
305.307434	153.080000
305.400665	153.660000
305.493866	153.660000
