Model Number: SPM-002-B   
Serial Number: 70087108
Firmware Version: 004.15.4
Exposure Time: 100000.000000us
Data Taken on: 15-01-2021 16:36:06.803
Wavelength	Amplitude
221.570786	0.000000
221.663406	0.000000
221.756027	0.000000
221.848648	0.000000
221.941269	0.000000
222.033905	0.000000
222.126526	0.000000
222.219162	0.000000
222.311798	0.000000
222.404419	0.000000
222.497055	0.000000
222.589676	0.000000
222.682312	0.000000
222.774933	0.000000
222.867569	0.000000
222.960205	0.000000
223.052841	0.000000
223.145462	0.000000
223.238098	0.000000
223.330734	0.000000
223.423386	0.000000
223.516022	0.000000
223.608658	0.000000
223.701309	0.000000
223.793945	0.000000
223.886581	0.000000
223.979218	0.000000
224.071869	0.000000
224.164505	0.000000
224.257156	0.000000
224.349792	0.000000
224.442444	0.000000
224.535095	0.000000
224.627747	0.000000
224.720398	0.000000
224.813034	0.000000
224.905685	0.000000
224.998337	153.040000
225.090988	152.540000
225.183640	152.880000
225.276291	152.780000
225.368942	153.000000
225.461594	153.500000
225.554245	153.940000
225.646912	153.840000
225.739578	154.260000
225.832230	154.700000
225.924896	153.860000
226.017548	154.180000
226.110199	154.860000
226.202866	154.140000
226.295532	153.800000
226.388184	153.660000
226.480850	153.140000
226.573517	152.500000
226.666168	152.900000
226.758835	153.280000
226.851501	154.140000
226.944183	154.260000
227.036850	154.100000
227.129517	154.200000
227.222183	154.280000
227.314850	154.020000
227.407516	154.000000
227.500198	154.720000
227.592865	154.400000
227.685532	153.860000
227.778214	153.580000
227.870880	154.140000
227.963562	154.540000
228.056229	155.180000
228.148926	155.280000
228.241592	156.260000
228.334274	155.480000
228.426956	154.780000
228.519638	154.400000
228.612305	153.760000
228.704987	153.380000
228.797668	153.620000
228.890350	153.640000
228.983032	153.240000
229.075714	154.160000
229.168396	153.940000
229.261108	153.280000
229.353790	153.420000
229.446472	153.900000
229.539169	153.700000
229.631851	153.240000
229.724533	153.840000
229.817230	154.040000
229.909912	154.720000
230.002609	154.540000
230.095306	154.820000
230.187988	155.140000
230.280685	154.360000
230.373383	153.280000
230.466095	153.360000
230.558792	153.520000
230.651474	153.320000
230.744171	153.600000
230.836868	153.620000
230.929581	153.560000
231.022278	153.580000
231.114975	153.600000
231.207672	153.380000
231.300369	153.820000
231.393082	153.900000
231.485779	153.860000
231.578506	153.820000
231.671204	154.280000
231.763916	154.340000
231.856613	154.440000
231.949326	154.540000
232.042023	154.260000
232.134735	154.200000
232.227448	153.580000
232.320160	153.860000
232.412872	153.680000
232.505585	154.740000
232.598297	154.920000
232.691010	155.020000
232.783722	154.220000
232.876450	154.800000
232.969162	153.800000
233.061874	153.460000
233.154587	153.360000
233.247314	154.280000
233.340027	153.220000
233.432739	153.900000
233.525467	153.680000
233.618179	154.100000
233.710907	153.180000
233.803635	153.880000
233.896347	153.300000
233.989090	154.020000
234.081818	154.120000
234.174545	154.480000
234.267258	153.960000
234.359985	154.300000
234.452713	154.260000
234.545441	154.140000
234.638168	153.960000
234.730896	154.440000
234.823639	154.200000
234.916367	154.340000
235.009094	154.120000
235.101822	154.300000
235.194580	154.220000
235.287308	154.320000
235.380051	153.820000
235.472778	154.320000
235.565521	154.560000
235.658249	153.960000
235.750992	153.820000
235.843719	153.760000
235.936462	154.000000
236.029205	153.460000
236.121948	153.440000
236.214691	154.120000
236.307449	154.800000
236.400192	153.800000
236.492935	153.720000
236.585678	154.080000
236.678421	153.620000
236.771164	152.540000
236.863907	153.540000
236.956665	153.940000
237.049408	155.780000
237.142151	155.500000
237.234909	156.940000
237.327652	156.440000
237.420410	156.280000
237.513153	154.800000
237.605927	154.740000
237.698669	153.680000
237.791428	153.120000
237.884186	153.380000
237.976944	152.900000
238.069702	153.060000
238.162445	153.160000
238.255203	153.320000
238.347961	153.820000
238.440720	154.100000
238.533478	153.960000
238.626266	153.600000
238.719025	154.020000
238.811783	153.580000
238.904541	153.480000
238.997314	153.640000
239.090073	153.520000
239.182831	153.600000
239.275604	154.140000
239.368362	154.000000
239.461136	153.980000
239.553909	154.060000
239.646667	153.860000
239.739441	153.320000
239.832214	153.660000
239.925003	154.180000
240.017761	154.820000
240.110535	155.420000
240.203308	155.220000
240.296082	155.220000
240.388855	154.700000
240.481628	154.840000
240.574417	154.660000
240.667191	154.520000
240.759964	154.120000
240.852737	154.260000
240.945526	153.840000
241.038315	153.520000
241.131088	153.840000
241.223877	154.420000
241.316650	154.100000
241.409439	154.340000
241.502228	154.040000
241.595001	154.340000
241.687790	154.160000
241.780579	154.260000
241.873367	154.140000
241.966141	154.800000
242.058929	154.340000
242.151718	154.380000
242.244507	154.780000
242.337311	154.360000
242.430099	154.820000
242.522903	154.980000
242.615692	154.600000
242.708481	154.220000
242.801270	154.760000
242.894073	154.160000
242.986862	154.180000
243.079651	155.080000
243.172455	154.880000
243.265244	154.920000
243.358063	154.460000
243.450867	154.640000
243.543655	154.140000
243.636459	154.360000
243.729263	154.460000
243.822067	154.860000
243.914856	155.080000
244.007660	155.380000
244.100464	155.400000
244.193268	154.820000
244.286072	154.460000
244.378876	154.000000
244.471680	153.460000
244.564499	153.520000
244.657318	154.420000
244.750122	155.020000
244.842926	154.580000
244.935745	155.140000
245.028549	154.900000
245.121368	154.460000
245.214172	154.160000
245.306992	154.560000
245.399796	153.740000
245.492615	153.820000
245.585434	153.420000
245.678253	153.320000
245.771072	153.360000
245.863892	154.080000
245.956711	154.340000
246.049530	154.320000
246.142349	154.260000
246.235168	154.120000
246.327988	154.080000
246.420807	153.700000
246.513626	153.740000
246.606445	153.820000
246.699280	153.940000
246.792099	153.760000
246.884918	153.360000
246.977753	153.260000
247.070587	153.340000
247.163422	153.240000
247.256241	153.280000
247.349075	154.080000
247.441895	154.240000
247.534729	154.020000
247.627563	154.180000
247.720383	154.580000
247.813217	154.120000
247.906052	154.000000
247.998886	153.920000
248.091736	153.620000
248.184570	153.200000
248.277405	153.440000
248.370239	154.440000
248.463074	155.360000
248.555908	155.560000
248.648743	155.660000
248.741592	156.000000
248.834427	155.060000
248.927261	153.940000
249.020111	154.580000
249.112946	154.940000
249.205795	154.060000
249.298630	154.180000
249.391495	154.520000
249.484344	154.020000
249.577179	154.020000
249.670029	154.720000
249.762878	155.460000
249.855728	155.460000
249.948563	155.480000
250.041412	154.360000
250.134262	154.380000
250.227112	154.180000
250.319962	154.120000
250.412827	154.060000
250.505692	153.940000
250.598541	153.900000
250.691391	153.280000
250.784241	153.540000
250.877106	153.720000
250.969955	154.220000
251.062805	154.740000
251.155670	155.260000
251.248520	155.060000
251.341385	155.140000
251.434235	154.980000
251.527100	154.120000
251.619965	153.480000
251.712814	154.040000
251.805695	154.120000
251.898560	154.500000
251.991425	155.060000
252.084290	155.320000
252.177155	154.660000
252.270020	154.220000
252.362885	154.020000
252.455750	154.040000
252.548615	153.900000
252.641479	153.960000
252.734360	153.920000
252.827240	153.580000
252.920105	153.680000
253.012970	153.540000
253.105850	153.460000
253.198715	153.120000
253.291595	153.340000
253.384460	152.600000
253.477341	152.520000
253.570221	152.780000
253.663086	152.780000
253.755966	153.580000
253.848846	153.880000
253.941727	154.260000
254.034592	153.980000
254.127472	153.700000
254.220367	153.540000
254.313248	153.480000
254.406128	153.180000
254.499008	153.480000
254.591904	154.800000
254.684784	155.000000
254.777664	154.940000
254.870544	154.740000
254.963440	154.440000
255.056335	153.720000
255.149216	153.140000
255.242111	153.620000
255.334991	154.200000
255.427887	154.400000
255.520767	154.760000
255.613663	155.480000
255.706558	155.200000
255.799438	154.860000
255.892334	154.500000
255.985229	154.140000
256.078125	153.400000
256.171021	153.220000
256.263916	153.780000
256.356812	154.260000
256.449707	154.600000
256.542603	154.400000
256.635498	154.940000
256.728394	154.580000
256.821289	154.200000
256.914215	154.300000
257.007080	154.620000
257.100006	154.520000
257.192932	155.040000
257.285828	155.340000
257.378723	154.640000
257.471619	154.500000
257.564545	153.920000
257.657440	153.640000
257.750336	154.100000
257.843262	154.280000
257.936157	155.680000
258.029053	156.140000
258.121979	155.820000
258.214874	155.320000
258.307800	155.260000
258.400696	153.840000
258.493622	153.840000
258.586517	153.380000
258.679443	153.500000
258.772339	153.000000
258.865265	152.860000
258.958160	152.060000
259.051086	153.220000
259.144012	152.980000
259.236938	154.340000
259.329834	154.520000
259.422791	154.700000
259.515717	153.800000
259.608612	153.700000
259.701538	153.340000
259.794464	153.320000
259.887390	153.480000
259.980316	153.540000
260.073212	153.420000
260.166138	152.640000
260.259064	153.000000
260.351990	153.880000
260.444916	154.200000
260.537842	154.600000
260.630768	155.280000
260.723694	154.940000
260.816620	154.440000
260.909546	154.080000
261.002472	153.700000
261.095398	152.920000
261.188354	152.840000
261.281281	152.600000
261.374207	152.660000
261.467133	153.420000
261.560089	154.040000
261.653015	153.740000
261.745972	154.400000
261.838867	154.960000
261.931824	155.040000
262.024780	154.500000
262.117706	155.260000
262.210663	155.260000
262.303589	154.980000
262.396515	154.840000
262.489471	156.060000
262.582397	155.380000
262.675354	154.760000
262.768280	154.580000
262.861237	154.480000
262.954163	154.180000
263.047119	154.640000
263.140045	154.420000
263.233002	154.640000
263.325958	154.400000
263.418884	153.800000
263.511841	153.540000
263.604797	153.800000
263.697723	153.740000
263.790680	153.840000
263.883636	154.180000
263.976593	154.040000
264.069550	154.060000
264.162476	153.740000
264.255463	153.540000
264.348419	153.460000
264.441376	153.940000
264.534332	153.520000
264.627289	153.660000
264.720245	154.200000
264.813202	153.660000
264.906158	153.440000
264.999115	154.340000
265.092072	154.240000
265.185028	154.440000
265.277985	154.740000
265.370941	154.900000
265.463898	154.260000
265.556854	154.100000
265.649811	153.380000
265.742798	153.680000
265.835754	153.560000
265.928711	154.020000
266.021667	154.080000
266.114655	154.320000
266.207611	154.180000
266.300568	153.940000
266.393585	153.360000
266.486511	153.800000
266.579498	153.120000
266.672485	153.260000
266.765442	153.080000
266.858429	153.500000
266.951385	153.380000
267.044342	153.700000
267.137329	153.500000
267.230316	153.900000
267.323273	153.640000
267.416260	154.040000
267.509216	153.980000
267.602203	153.840000
267.695160	154.440000
267.788147	154.580000
267.881134	153.840000
267.974091	154.260000
268.067078	154.140000
268.160065	153.320000
268.253052	153.320000
268.346008	153.580000
268.438995	152.900000
268.531982	153.120000
268.624969	153.300000
268.717987	153.500000
268.810944	153.400000
268.903961	153.640000
268.996948	153.160000
269.089905	153.600000
269.182892	153.740000
269.275879	154.240000
269.368866	154.240000
269.461853	154.740000
269.554871	154.460000
269.647858	154.120000
269.740845	154.380000
269.833832	154.600000
269.926819	154.540000
270.019806	154.480000
270.112793	154.240000
270.205811	154.240000
270.298798	154.260000
270.391785	154.760000
270.484772	154.580000
270.577789	154.800000
270.670776	153.980000
270.763763	153.700000
270.856750	153.200000
270.949768	152.980000
271.042786	152.940000
271.135773	153.360000
271.228790	153.780000
271.321808	153.580000
271.414795	153.400000
271.507782	153.040000
271.600800	152.400000
271.693817	152.360000
271.786804	152.620000
271.879822	153.160000
271.972809	153.220000
272.065826	154.320000
272.158844	153.940000
272.251831	154.840000
272.344849	154.780000
272.437866	154.680000
272.530853	154.040000
272.623871	154.480000
272.716888	153.020000
272.809906	153.160000
272.902893	153.180000
272.995911	152.760000
273.088928	152.440000
273.181946	153.360000
273.274963	153.260000
273.367981	153.400000
273.460999	153.700000
273.554047	154.240000
273.647003	154.440000
273.740051	154.220000
273.833069	155.000000
273.926086	155.220000
274.019135	154.920000
274.112152	154.460000
274.205170	154.800000
274.298187	154.520000
274.391205	153.880000
274.484222	153.740000
274.577240	153.400000
274.670258	153.020000
274.763306	153.120000
274.856323	153.880000
274.949341	153.840000
275.042358	154.600000
275.135406	154.680000
275.228424	154.200000
275.321442	153.900000
275.414490	153.860000
275.507507	153.900000
275.600525	154.360000
275.693573	154.160000
275.786591	154.060000
275.879669	154.220000
275.972656	153.760000
276.065735	153.180000
276.158752	153.780000
276.251801	154.400000
276.344818	154.740000
276.437866	154.880000
276.530884	154.880000
276.623932	154.300000
276.716980	154.420000
276.809998	154.100000
276.903046	154.100000
276.996094	155.120000
277.089111	155.580000
277.182159	155.720000
277.275208	155.480000
277.368256	155.480000
277.461304	154.860000
277.554321	154.400000
277.647369	153.880000
277.740417	154.220000
277.833466	154.000000
277.926514	153.680000
278.019562	154.460000
278.112610	154.200000
278.205688	154.000000
278.298706	154.480000
278.391785	154.520000
278.484833	153.880000
278.577881	153.900000
278.670929	154.180000
278.763977	153.760000
278.857025	154.120000
278.950073	154.080000
279.043121	153.700000
279.136169	153.720000
279.229248	153.560000
279.322296	153.680000
279.415344	153.680000
279.508392	153.940000
279.601440	153.760000
279.694519	153.840000
279.787567	153.660000
279.880615	153.520000
279.973694	153.280000
280.066742	153.200000
280.159790	153.300000
280.252869	152.800000
280.345917	153.320000
280.438995	153.380000
280.532074	153.340000
280.625122	153.920000
280.718201	155.060000
280.811279	154.880000
280.904327	155.060000
280.997406	155.220000
281.090454	154.920000
281.183533	153.940000
281.276581	153.880000
281.369659	153.640000
281.462738	153.720000
281.555786	153.780000
281.648865	153.880000
281.741943	153.780000
281.835022	154.500000
281.928070	154.220000
282.021149	154.020000
282.114227	154.140000
282.207306	154.240000
282.300385	154.240000
282.393433	154.440000
282.486511	154.420000
282.579590	154.920000
282.672668	155.100000
282.765747	154.500000
282.858856	154.200000
282.951904	154.160000
283.045013	154.160000
283.138062	154.060000
283.231171	154.760000
283.324249	155.340000
283.417328	155.560000
283.510406	155.100000
283.603485	155.280000
283.696564	154.560000
283.789642	154.140000
283.882751	153.800000
283.975830	154.620000
284.068909	154.180000
284.161987	154.800000
284.255066	154.280000
284.348175	154.260000
284.441254	153.600000
284.534332	154.060000
284.627441	153.760000
284.720520	154.080000
284.813599	154.300000
284.906708	154.420000
284.999786	153.840000
285.092896	153.480000
285.185974	154.500000
285.279053	153.880000
285.372192	153.900000
285.465240	154.680000
285.558380	154.860000
285.651459	154.180000
285.744568	155.400000
285.837677	154.840000
285.930756	154.720000
286.023865	154.620000
286.116943	154.320000
286.210052	153.920000
286.303162	154.240000
286.396240	153.960000
286.489349	153.980000
286.582458	154.280000
286.675568	153.780000
286.768646	153.620000
286.861755	153.920000
286.954865	154.740000
287.047974	154.180000
287.141083	154.260000
287.234161	154.200000
287.327271	153.900000
287.420380	154.120000
287.513519	154.180000
287.606598	154.520000
287.699738	155.000000
287.792816	155.060000
287.885956	154.660000
287.979034	154.620000
288.072174	154.460000
288.165283	154.200000
288.258392	154.080000
288.351501	153.360000
288.444611	153.600000
288.537720	153.840000
288.630859	153.600000
288.723969	154.020000
288.817078	154.560000
288.910187	154.740000
289.003296	154.300000
289.096436	154.080000
289.189545	153.680000
289.282654	153.100000
289.375763	153.420000
289.468903	153.980000
289.562012	154.560000
289.655121	154.360000
289.748260	154.940000
289.841400	155.100000
289.934509	154.900000
290.027649	154.900000
290.120728	155.220000
290.213898	154.960000
290.306976	154.720000
290.400146	154.580000
290.493256	154.080000
290.586395	154.160000
290.679535	154.640000
290.772644	154.280000
290.865784	153.800000
290.958893	154.000000
291.052032	153.740000
291.145172	153.620000
291.238281	153.320000
291.331421	153.380000
291.424561	153.940000
291.517670	153.800000
291.610809	153.740000
291.703949	153.840000
291.797089	154.500000
291.890228	153.820000
291.983337	154.080000
292.076477	154.040000
292.169617	154.440000
292.262756	154.040000
292.355927	154.080000
292.449036	153.660000
292.542206	153.660000
292.635315	153.620000
292.728485	154.060000
292.821625	153.940000
292.914764	155.160000
293.007904	155.080000
293.101044	155.300000
293.194183	154.980000
293.287323	154.920000
293.380463	154.000000
293.473602	153.980000
293.566742	154.120000
293.659882	154.340000
293.753021	154.940000
293.846191	155.000000
293.939331	154.680000
294.032471	154.120000
294.125610	153.760000
294.218781	153.980000
294.311920	154.260000
294.405060	154.600000
294.498230	154.820000
294.591370	155.180000
294.684540	154.040000
294.777679	153.620000
294.870850	153.520000
294.963959	153.200000
295.057159	152.960000
295.150299	153.820000
295.243469	153.380000
295.336609	153.160000
295.429779	153.260000
295.522919	153.540000
295.616089	153.480000
295.709229	154.340000
295.802399	154.440000
295.895569	154.460000
295.988708	154.300000
296.081879	153.980000
296.175018	153.420000
296.268188	153.300000
296.361359	153.520000
296.454529	153.820000
296.547668	154.060000
296.640839	154.360000
296.734009	154.340000
296.827179	154.500000
296.920319	154.220000
297.013519	153.940000
297.106659	154.440000
297.199860	154.320000
297.292999	154.280000
297.386200	153.860000
297.479309	153.580000
297.572510	153.240000
297.665680	153.300000
297.758850	153.140000
297.852020	153.580000
297.945190	153.720000
298.038361	153.220000
298.131531	154.300000
298.224701	153.900000
298.317871	153.420000
298.411072	153.240000
298.504242	153.360000
298.597412	152.520000
298.690582	152.960000
298.783752	153.180000
298.876923	153.780000
298.970093	153.960000
299.063293	154.380000
299.156464	154.800000
299.249634	155.240000
299.342834	155.240000
299.436005	155.680000
299.529205	155.280000
299.622345	154.740000
299.715576	153.720000
299.808716	153.180000
299.901917	153.000000
299.995117	153.380000
300.088287	153.640000
300.181488	154.080000
300.274658	154.280000
300.367828	154.280000
300.461029	154.040000
300.554199	154.160000
300.647400	154.000000
300.740601	154.760000
300.833771	154.180000
300.926971	154.400000
301.020142	154.060000
301.113342	154.100000
301.206512	153.820000
301.299713	154.280000
301.392914	154.020000
301.486084	154.200000
301.579285	154.320000
301.672516	154.480000
301.765686	154.000000
301.858887	153.720000
301.952057	153.920000
302.045288	153.900000
302.138458	153.560000
302.231659	153.840000
302.324860	153.920000
302.418060	153.520000
302.511261	153.240000
302.604462	153.520000
302.697662	153.080000
302.790863	153.020000
302.884064	152.800000
302.977264	153.120000
303.070465	152.880000
303.163666	153.880000
303.256866	154.360000
303.350067	154.640000
303.443268	154.540000
303.536469	154.800000
303.629669	154.100000
303.722870	153.980000
303.816071	153.620000
303.909271	153.740000
304.002472	152.820000
304.095673	152.680000
304.188934	152.140000
304.282104	153.560000
304.375336	153.740000
304.468506	154.000000
304.561768	153.980000
304.654968	154.560000
304.748169	153.260000
304.841370	152.860000
304.934601	153.440000
305.027802	153.220000
305.121002	152.780000
305.214233	153.200000
305.307434	153.540000
305.400665	154.140000
305.493866	154.260000
