Model Number: SPM-002-B   
Serial Number: 70087108
Firmware Version: 004.15.4
Exposure Time: 100000.000000us
Data Taken on: 15-01-2021 16:36:15.250
Wavelength	Amplitude
221.570786	0.000000
221.663406	0.000000
221.756027	0.000000
221.848648	0.000000
221.941269	0.000000
222.033905	0.000000
222.126526	0.000000
222.219162	0.000000
222.311798	0.000000
222.404419	0.000000
222.497055	0.000000
222.589676	0.000000
222.682312	0.000000
222.774933	0.000000
222.867569	0.000000
222.960205	0.000000
223.052841	0.000000
223.145462	0.000000
223.238098	0.000000
223.330734	0.000000
223.423386	0.000000
223.516022	0.000000
223.608658	0.000000
223.701309	0.000000
223.793945	0.000000
223.886581	0.000000
223.979218	0.000000
224.071869	0.000000
224.164505	0.000000
224.257156	0.000000
224.349792	0.000000
224.442444	0.000000
224.535095	0.000000
224.627747	0.000000
224.720398	0.000000
224.813034	0.000000
224.905685	0.000000
224.998337	153.300000
225.090988	152.880000
225.183640	152.860000
225.276291	152.600000
225.368942	152.600000
225.461594	153.460000
225.554245	153.880000
225.646912	153.600000
225.739578	154.120000
225.832230	154.820000
225.924896	153.740000
226.017548	154.180000
226.110199	154.980000
226.202866	154.300000
226.295532	153.800000
226.388184	153.660000
226.480850	152.820000
226.573517	152.140000
226.666168	152.360000
226.758835	152.860000
226.851501	153.880000
226.944183	154.340000
227.036850	154.200000
227.129517	154.540000
227.222183	154.600000
227.314850	154.180000
227.407516	154.300000
227.500198	155.300000
227.592865	154.920000
227.685532	154.360000
227.778214	154.180000
227.870880	154.140000
227.963562	154.360000
228.056229	154.940000
228.148926	155.000000
228.241592	155.660000
228.334274	155.320000
228.426956	154.660000
228.519638	154.400000
228.612305	154.060000
228.704987	153.800000
228.797668	153.860000
228.890350	153.860000
228.983032	153.380000
229.075714	154.280000
229.168396	153.860000
229.261108	153.420000
229.353790	153.480000
229.446472	153.980000
229.539169	153.700000
229.631851	153.600000
229.724533	154.040000
229.817230	154.120000
229.909912	155.040000
230.002609	154.760000
230.095306	154.780000
230.187988	154.800000
230.280685	154.220000
230.373383	152.840000
230.466095	152.620000
230.558792	152.980000
230.651474	153.060000
230.744171	153.220000
230.836868	153.380000
230.929581	154.020000
231.022278	154.060000
231.114975	154.200000
231.207672	154.260000
231.300369	154.760000
231.393082	154.760000
231.485779	154.480000
231.578506	154.200000
231.671204	154.260000
231.763916	153.860000
231.856613	153.600000
231.949326	153.900000
232.042023	153.660000
232.134735	153.840000
232.227448	153.600000
232.320160	153.780000
232.412872	153.720000
232.505585	154.740000
232.598297	154.560000
232.691010	154.620000
232.783722	154.240000
232.876450	154.840000
232.969162	154.180000
233.061874	154.180000
233.154587	153.860000
233.247314	154.380000
233.340027	153.600000
233.432739	153.920000
233.525467	153.900000
233.618179	154.440000
233.710907	153.760000
233.803635	154.740000
233.896347	154.500000
233.989090	155.100000
234.081818	155.020000
234.174545	155.280000
234.267258	154.200000
234.359985	154.280000
234.452713	154.060000
234.545441	154.160000
234.638168	153.860000
234.730896	154.420000
234.823639	154.040000
234.916367	154.260000
235.009094	154.280000
235.101822	154.480000
235.194580	154.120000
235.287308	154.340000
235.380051	153.660000
235.472778	153.940000
235.565521	154.340000
235.658249	154.140000
235.750992	154.140000
235.843719	154.100000
235.936462	153.920000
236.029205	153.420000
236.121948	153.140000
236.214691	153.520000
236.307449	154.460000
236.400192	154.000000
236.492935	153.860000
236.585678	154.020000
236.678421	153.960000
236.771164	153.180000
236.863907	154.160000
236.956665	154.480000
237.049408	156.460000
237.142151	155.700000
237.234909	156.920000
237.327652	156.460000
237.420410	156.200000
237.513153	155.000000
237.605927	155.260000
237.698669	154.000000
237.791428	153.400000
237.884186	153.780000
237.976944	153.220000
238.069702	153.500000
238.162445	153.180000
238.255203	153.460000
238.347961	153.720000
238.440720	153.720000
238.533478	153.520000
238.626266	154.020000
238.719025	154.220000
238.811783	154.160000
238.904541	154.240000
238.997314	154.200000
239.090073	153.480000
239.182831	153.640000
239.275604	154.280000
239.368362	154.060000
239.461136	154.380000
239.553909	154.520000
239.646667	154.520000
239.739441	153.720000
239.832214	154.180000
239.925003	154.140000
240.017761	155.060000
240.110535	155.360000
240.203308	155.160000
240.296082	155.020000
240.388855	154.880000
240.481628	154.580000
240.574417	154.680000
240.667191	154.860000
240.759964	154.520000
240.852737	154.460000
240.945526	154.160000
241.038315	153.620000
241.131088	153.840000
241.223877	154.140000
241.316650	153.800000
241.409439	154.260000
241.502228	153.860000
241.595001	154.080000
241.687790	153.680000
241.780579	154.040000
241.873367	154.220000
241.966141	154.520000
242.058929	153.800000
242.151718	154.460000
242.244507	154.900000
242.337311	154.000000
242.430099	154.520000
242.522903	155.060000
242.615692	154.360000
242.708481	154.160000
242.801270	154.640000
242.894073	154.440000
242.986862	154.200000
243.079651	154.720000
243.172455	154.200000
243.265244	154.420000
243.358063	153.560000
243.450867	153.720000
243.543655	153.840000
243.636459	154.160000
243.729263	154.320000
243.822067	155.200000
243.914856	155.480000
244.007660	155.220000
244.100464	155.080000
244.193268	154.360000
244.286072	153.900000
244.378876	153.660000
244.471680	153.700000
244.564499	154.080000
244.657318	155.020000
244.750122	155.360000
244.842926	154.440000
244.935745	154.840000
245.028549	154.340000
245.121368	153.700000
245.214172	153.600000
245.306992	154.520000
245.399796	154.040000
245.492615	154.400000
245.585434	154.040000
245.678253	154.220000
245.771072	153.980000
245.863892	154.560000
245.956711	154.540000
246.049530	154.520000
246.142349	154.120000
246.235168	153.820000
246.327988	153.780000
246.420807	153.560000
246.513626	153.880000
246.606445	153.880000
246.699280	153.920000
246.792099	153.680000
246.884918	153.160000
246.977753	152.700000
247.070587	152.720000
247.163422	152.920000
247.256241	152.780000
247.349075	153.560000
247.441895	153.980000
247.534729	154.040000
247.627563	153.960000
247.720383	154.440000
247.813217	154.220000
247.906052	154.280000
247.998886	154.560000
248.091736	154.640000
248.184570	154.340000
248.277405	154.300000
248.370239	155.200000
248.463074	155.700000
248.555908	155.740000
248.648743	155.540000
248.741592	155.880000
248.834427	154.880000
248.927261	153.760000
249.020111	154.220000
249.112946	154.820000
249.205795	154.160000
249.298630	154.340000
249.391495	154.340000
249.484344	153.720000
249.577179	153.360000
249.670029	153.720000
249.762878	154.020000
249.855728	154.420000
249.948563	154.680000
250.041412	153.780000
250.134262	153.940000
250.227112	154.020000
250.319962	154.200000
250.412827	154.180000
250.505692	154.080000
250.598541	153.860000
250.691391	153.300000
250.784241	153.080000
250.877106	152.960000
250.969955	153.160000
251.062805	153.860000
251.155670	154.660000
251.248520	154.520000
251.341385	155.020000
251.434235	155.220000
251.527100	154.820000
251.619965	154.020000
251.712814	154.820000
251.805695	154.560000
251.898560	154.960000
251.991425	154.940000
252.084290	155.100000
252.177155	154.160000
252.270020	153.960000
252.362885	153.560000
252.455750	153.440000
252.548615	153.040000
252.641479	153.280000
252.734360	153.040000
252.827240	153.200000
252.920105	153.440000
253.012970	153.620000
253.105850	153.320000
253.198715	153.280000
253.291595	153.400000
253.384460	152.900000
253.477341	152.760000
253.570221	153.300000
253.663086	152.960000
253.755966	153.700000
253.848846	154.100000
253.941727	154.460000
254.034592	154.360000
254.127472	154.460000
254.220367	154.040000
254.313248	153.980000
254.406128	153.660000
254.499008	153.880000
254.591904	154.700000
254.684784	155.260000
254.777664	155.300000
254.870544	155.040000
254.963440	154.880000
255.056335	154.780000
255.149216	154.020000
255.242111	154.480000
255.334991	155.140000
255.427887	155.100000
255.520767	155.060000
255.613663	155.360000
255.706558	154.440000
255.799438	154.180000
255.892334	153.920000
255.985229	153.500000
256.078125	153.260000
256.171021	153.600000
256.263916	154.080000
256.356812	154.380000
256.449707	154.800000
256.542603	154.380000
256.635498	155.040000
256.728394	154.540000
256.821289	154.180000
256.914215	154.280000
257.007080	154.460000
257.100006	154.180000
257.192932	154.660000
257.285828	155.100000
257.378723	154.680000
257.471619	154.720000
257.564545	154.180000
257.657440	154.220000
257.750336	154.700000
257.843262	154.620000
257.936157	155.800000
258.029053	155.940000
258.121979	155.840000
258.214874	155.240000
258.307800	155.240000
258.400696	153.840000
258.493622	153.860000
258.586517	153.060000
258.679443	153.380000
258.772339	153.060000
258.865265	153.180000
258.958160	152.440000
259.051086	153.420000
259.144012	153.140000
259.236938	153.880000
259.329834	153.960000
259.422791	154.440000
259.515717	153.600000
259.608612	153.280000
259.701538	153.300000
259.794464	153.060000
259.887390	153.120000
259.980316	153.460000
260.073212	153.420000
260.166138	152.280000
260.259064	152.880000
260.351990	153.640000
260.444916	153.460000
260.537842	153.980000
260.630768	154.960000
260.723694	154.780000
260.816620	154.420000
260.909546	154.340000
261.002472	153.920000
261.095398	153.560000
261.188354	153.520000
261.281281	152.960000
261.374207	153.300000
261.467133	154.040000
261.560089	154.140000
261.653015	153.740000
261.745972	154.520000
261.838867	154.920000
261.931824	154.700000
262.024780	154.520000
262.117706	155.020000
262.210663	155.020000
262.303589	154.380000
262.396515	154.240000
262.489471	155.120000
262.582397	154.660000
262.675354	153.900000
262.768280	154.020000
262.861237	154.120000
262.954163	153.800000
263.047119	154.080000
263.140045	154.200000
263.233002	154.180000
263.325958	153.740000
263.418884	153.320000
263.511841	153.400000
263.604797	153.820000
263.697723	153.880000
263.790680	153.820000
263.883636	154.300000
263.976593	154.420000
264.069550	154.360000
264.162476	154.020000
264.255463	154.180000
264.348419	153.800000
264.441376	154.140000
264.534332	153.400000
264.627289	153.860000
264.720245	154.560000
264.813202	154.200000
264.906158	153.820000
264.999115	154.620000
265.092072	154.580000
265.185028	154.640000
265.277985	155.140000
265.370941	155.200000
265.463898	154.800000
265.556854	154.500000
265.649811	153.340000
265.742798	153.300000
265.835754	153.200000
265.928711	154.340000
266.021667	154.640000
266.114655	155.200000
266.207611	155.580000
266.300568	155.120000
266.393585	154.240000
266.486511	154.380000
266.579498	153.800000
266.672485	153.580000
266.765442	153.540000
266.858429	153.640000
266.951385	153.360000
267.044342	153.780000
267.137329	153.620000
267.230316	154.140000
267.323273	153.880000
267.416260	154.660000
267.509216	154.320000
267.602203	154.320000
267.695160	154.340000
267.788147	154.440000
267.881134	153.200000
267.974091	153.880000
268.067078	153.520000
268.160065	153.520000
268.253052	153.260000
268.346008	153.860000
268.438995	153.440000
268.531982	153.660000
268.624969	153.460000
268.717987	153.880000
268.810944	153.680000
268.903961	153.900000
268.996948	153.680000
269.089905	154.160000
269.182892	154.020000
269.275879	154.540000
269.368866	153.740000
269.461853	153.820000
269.554871	153.380000
269.647858	153.140000
269.740845	153.220000
269.833832	153.940000
269.926819	153.920000
270.019806	154.200000
270.112793	154.140000
270.205811	153.940000
270.298798	154.020000
270.391785	154.660000
270.484772	154.120000
270.577789	154.520000
270.670776	154.060000
270.763763	153.840000
270.856750	153.860000
270.949768	153.700000
271.042786	153.440000
271.135773	153.720000
271.228790	153.980000
271.321808	153.180000
271.414795	153.340000
271.507782	153.100000
271.600800	152.560000
271.693817	152.620000
271.786804	153.320000
271.879822	153.280000
271.972809	153.360000
272.065826	154.360000
272.158844	154.120000
272.251831	154.680000
272.344849	154.800000
272.437866	154.560000
272.530853	154.360000
272.623871	154.640000
272.716888	153.060000
272.809906	153.300000
272.902893	153.540000
272.995911	152.740000
273.088928	152.500000
273.181946	153.300000
273.274963	152.840000
273.367981	152.960000
273.460999	153.420000
273.554047	153.660000
273.647003	154.220000
273.740051	154.380000
273.833069	154.820000
273.926086	154.960000
274.019135	154.480000
274.112152	153.700000
274.205170	154.080000
274.298187	153.880000
274.391205	153.280000
274.484222	153.460000
274.577240	153.520000
274.670258	153.260000
274.763306	153.360000
274.856323	154.020000
274.949341	153.900000
275.042358	154.580000
275.135406	154.720000
275.228424	154.300000
275.321442	154.060000
275.414490	154.040000
275.507507	153.980000
275.600525	154.220000
275.693573	154.160000
275.786591	153.900000
275.879669	154.220000
275.972656	153.760000
276.065735	153.320000
276.158752	153.900000
276.251801	154.740000
276.344818	154.720000
276.437866	154.680000
276.530884	154.580000
276.623932	153.860000
276.716980	153.920000
276.809998	153.840000
276.903046	154.040000
276.996094	155.000000
277.089111	155.640000
277.182159	155.680000
277.275208	155.600000
277.368256	155.580000
277.461304	154.980000
277.554321	154.340000
277.647369	154.020000
277.740417	153.780000
277.833466	153.480000
277.926514	153.300000
278.019562	153.900000
278.112610	153.400000
278.205688	153.840000
278.298706	154.240000
278.391785	154.060000
278.484833	153.560000
278.577881	153.480000
278.670929	153.420000
278.763977	153.300000
278.857025	153.840000
278.950073	153.920000
279.043121	154.080000
279.136169	154.200000
279.229248	153.740000
279.322296	153.640000
279.415344	153.780000
279.508392	153.520000
279.601440	153.260000
279.694519	153.560000
279.787567	153.520000
279.880615	153.060000
279.973694	152.900000
280.066742	152.900000
280.159790	152.860000
280.252869	152.120000
280.345917	152.600000
280.438995	153.120000
280.532074	153.060000
280.625122	153.680000
280.718201	155.180000
280.811279	155.040000
280.904327	154.860000
280.997406	155.500000
281.090454	155.200000
281.183533	154.200000
281.276581	154.280000
281.369659	154.120000
281.462738	153.820000
281.555786	153.720000
281.648865	154.060000
281.741943	153.980000
281.835022	154.740000
281.928070	154.320000
282.021149	154.280000
282.114227	154.000000
282.207306	153.940000
282.300385	154.300000
282.393433	154.760000
282.486511	154.760000
282.579590	155.560000
282.672668	156.080000
282.765747	155.260000
282.858856	154.920000
282.951904	154.820000
283.045013	154.400000
283.138062	154.660000
283.231171	154.960000
283.324249	155.340000
283.417328	155.760000
283.510406	155.640000
283.603485	155.280000
283.696564	155.160000
283.789642	155.080000
283.882751	154.600000
283.975830	155.120000
284.068909	154.700000
284.161987	155.100000
284.255066	154.580000
284.348175	154.920000
284.441254	153.920000
284.534332	154.480000
284.627441	153.920000
284.720520	153.660000
284.813599	153.680000
284.906708	154.320000
284.999786	153.600000
285.092896	153.580000
285.185974	154.840000
285.279053	154.200000
285.372192	154.340000
285.465240	155.140000
285.558380	155.160000
285.651459	154.780000
285.744568	155.880000
285.837677	155.040000
285.930756	155.020000
286.023865	154.940000
286.116943	154.320000
286.210052	154.180000
286.303162	154.440000
286.396240	154.140000
286.489349	154.260000
286.582458	154.880000
286.675568	154.500000
286.768646	154.640000
286.861755	155.060000
286.954865	155.620000
287.047974	154.980000
287.141083	154.800000
287.234161	154.780000
287.327271	154.400000
287.420380	154.520000
287.513519	154.680000
287.606598	154.640000
287.699738	154.700000
287.792816	154.580000
287.885956	153.980000
287.979034	154.020000
288.072174	154.160000
288.165283	154.080000
288.258392	154.320000
288.351501	153.920000
288.444611	154.280000
288.537720	154.560000
288.630859	154.500000
288.723969	154.660000
288.817078	155.400000
288.910187	155.180000
289.003296	154.580000
289.096436	154.480000
289.189545	153.940000
289.282654	153.300000
289.375763	153.380000
289.468903	153.840000
289.562012	154.060000
289.655121	154.100000
289.748260	154.220000
289.841400	154.660000
289.934509	154.460000
290.027649	154.520000
290.120728	154.440000
290.213898	154.620000
290.306976	153.880000
290.400146	154.220000
290.493256	153.860000
290.586395	154.160000
290.679535	154.300000
290.772644	154.460000
290.865784	153.380000
290.958893	153.380000
291.052032	153.200000
291.145172	153.080000
291.238281	152.900000
291.331421	153.300000
291.424561	153.720000
291.517670	153.420000
291.610809	153.380000
291.703949	153.340000
291.797089	153.820000
291.890228	153.440000
291.983337	153.420000
292.076477	153.260000
292.169617	153.720000
292.262756	153.560000
292.355927	153.540000
292.449036	153.860000
292.542206	154.100000
292.635315	154.120000
292.728485	154.360000
292.821625	154.180000
292.914764	155.040000
293.007904	155.120000
293.101044	155.080000
293.194183	154.960000
293.287323	155.340000
293.380463	154.640000
293.473602	154.120000
293.566742	154.160000
293.659882	154.560000
293.753021	154.860000
293.846191	154.800000
293.939331	154.800000
294.032471	154.360000
294.125610	153.820000
294.218781	153.860000
294.311920	154.380000
294.405060	154.540000
294.498230	154.640000
294.591370	154.960000
294.684540	154.200000
294.777679	153.520000
294.870850	153.940000
294.963959	153.680000
295.057159	153.200000
295.150299	153.820000
295.243469	153.800000
295.336609	153.100000
295.429779	153.580000
295.522919	154.020000
295.616089	153.760000
295.709229	154.560000
295.802399	155.140000
295.895569	154.760000
295.988708	154.460000
296.081879	154.780000
296.175018	153.880000
296.268188	153.880000
296.361359	154.360000
296.454529	154.660000
296.547668	154.220000
296.640839	154.560000
296.734009	154.080000
296.827179	154.040000
296.920319	154.260000
297.013519	154.120000
297.106659	154.280000
297.199860	154.360000
297.292999	154.340000
297.386200	154.040000
297.479309	154.040000
297.572510	154.040000
297.665680	153.800000
297.758850	153.600000
297.852020	153.520000
297.945190	153.560000
298.038361	153.180000
298.131531	154.340000
298.224701	154.480000
298.317871	154.180000
298.411072	153.740000
298.504242	153.740000
298.597412	152.900000
298.690582	152.920000
298.783752	153.060000
298.876923	153.940000
298.970093	153.920000
299.063293	154.460000
299.156464	154.760000
299.249634	155.020000
299.342834	154.920000
299.436005	155.520000
299.529205	155.440000
299.622345	155.440000
299.715576	154.560000
299.808716	154.320000
299.901917	154.020000
299.995117	153.760000
300.088287	153.700000
300.181488	154.120000
300.274658	153.900000
300.367828	153.880000
300.461029	154.020000
300.554199	154.120000
300.647400	153.960000
300.740601	154.580000
300.833771	154.340000
300.926971	154.560000
301.020142	154.260000
301.113342	154.720000
301.206512	154.760000
301.299713	155.260000
301.392914	155.000000
301.486084	155.060000
301.579285	154.740000
301.672516	154.860000
301.765686	154.380000
301.858887	154.440000
301.952057	154.400000
302.045288	154.540000
302.138458	154.260000
302.231659	154.400000
302.324860	154.080000
302.418060	153.700000
302.511261	153.600000
302.604462	153.680000
302.697662	153.400000
302.790863	153.400000
302.884064	153.320000
302.977264	153.260000
303.070465	153.440000
303.163666	154.220000
303.256866	154.480000
303.350067	154.660000
303.443268	155.100000
303.536469	155.160000
303.629669	154.480000
303.722870	154.800000
303.816071	154.760000
303.909271	154.520000
304.002472	153.820000
304.095673	153.900000
304.188934	153.060000
304.282104	153.940000
304.375336	153.940000
304.468506	154.120000
304.561768	153.860000
304.654968	154.640000
304.748169	153.780000
304.841370	153.580000
304.934601	154.120000
305.027802	153.920000
305.121002	153.440000
305.214233	153.640000
305.307434	153.940000
305.400665	153.920000
305.493866	154.020000
