Model Number: SPM-002-B   
Serial Number: 70087108
Firmware Version: 004.15.4
Exposure Time: 100000.000000us
Data Taken on: 15-01-2021 16:36:20.700
Wavelength	Amplitude
221.570786	0.000000
221.663406	0.000000
221.756027	0.000000
221.848648	0.000000
221.941269	0.000000
222.033905	0.000000
222.126526	0.000000
222.219162	0.000000
222.311798	0.000000
222.404419	0.000000
222.497055	0.000000
222.589676	0.000000
222.682312	0.000000
222.774933	0.000000
222.867569	0.000000
222.960205	0.000000
223.052841	0.000000
223.145462	0.000000
223.238098	0.000000
223.330734	0.000000
223.423386	0.000000
223.516022	0.000000
223.608658	0.000000
223.701309	0.000000
223.793945	0.000000
223.886581	0.000000
223.979218	0.000000
224.071869	0.000000
224.164505	0.000000
224.257156	0.000000
224.349792	0.000000
224.442444	0.000000
224.535095	0.000000
224.627747	0.000000
224.720398	0.000000
224.813034	0.000000
224.905685	0.000000
224.998337	153.320000
225.090988	153.060000
225.183640	152.920000
225.276291	152.660000
225.368942	152.840000
225.461594	153.340000
225.554245	153.380000
225.646912	153.540000
225.739578	154.080000
225.832230	154.680000
225.924896	153.820000
226.017548	154.320000
226.110199	154.660000
226.202866	154.020000
226.295532	153.540000
226.388184	153.540000
226.480850	152.960000
226.573517	152.380000
226.666168	152.820000
226.758835	153.280000
226.851501	154.220000
226.944183	154.420000
227.036850	154.360000
227.129517	154.240000
227.222183	154.440000
227.314850	153.920000
227.407516	153.900000
227.500198	154.600000
227.592865	154.420000
227.685532	153.940000
227.778214	153.620000
227.870880	154.260000
227.963562	154.520000
228.056229	154.920000
228.148926	155.080000
228.241592	156.160000
228.334274	155.360000
228.426956	154.860000
228.519638	154.580000
228.612305	154.080000
228.704987	153.700000
228.797668	153.960000
228.890350	153.920000
228.983032	153.200000
229.075714	153.880000
229.168396	153.360000
229.261108	152.900000
229.353790	152.620000
229.446472	153.160000
229.539169	152.920000
229.631851	152.720000
229.724533	153.240000
229.817230	153.760000
229.909912	154.820000
230.002609	154.820000
230.095306	155.120000
230.187988	154.960000
230.280685	154.480000
230.373383	153.280000
230.466095	153.280000
230.558792	153.340000
230.651474	153.100000
230.744171	152.980000
230.836868	152.940000
230.929581	152.940000
231.022278	152.700000
231.114975	152.920000
231.207672	153.160000
231.300369	153.720000
231.393082	153.680000
231.485779	153.600000
231.578506	153.660000
231.671204	153.640000
231.763916	153.440000
231.856613	153.280000
231.949326	153.500000
232.042023	153.100000
232.134735	153.040000
232.227448	152.880000
232.320160	153.400000
232.412872	153.600000
232.505585	154.660000
232.598297	155.160000
232.691010	155.100000
232.783722	154.320000
232.876450	154.840000
232.969162	154.140000
233.061874	153.500000
233.154587	152.980000
233.247314	153.560000
233.340027	152.880000
233.432739	153.040000
233.525467	153.320000
233.618179	154.120000
233.710907	153.760000
233.803635	153.940000
233.896347	153.660000
233.989090	154.180000
234.081818	154.120000
234.174545	154.320000
234.267258	154.100000
234.359985	154.480000
234.452713	154.180000
234.545441	153.880000
234.638168	153.960000
234.730896	154.460000
234.823639	154.180000
234.916367	154.100000
235.009094	154.280000
235.101822	154.000000
235.194580	153.700000
235.287308	153.700000
235.380051	153.080000
235.472778	153.540000
235.565521	154.080000
235.658249	153.620000
235.750992	153.500000
235.843719	153.720000
235.936462	153.640000
236.029205	153.160000
236.121948	152.660000
236.214691	153.260000
236.307449	153.900000
236.400192	153.240000
236.492935	153.120000
236.585678	154.080000
236.678421	153.960000
236.771164	153.720000
236.863907	154.500000
236.956665	154.520000
237.049408	155.960000
237.142151	155.280000
237.234909	156.000000
237.327652	155.680000
237.420410	155.360000
237.513153	154.100000
237.605927	154.280000
237.698669	153.600000
237.791428	152.980000
237.884186	153.720000
237.976944	153.100000
238.069702	153.340000
238.162445	152.840000
238.255203	153.540000
238.347961	153.820000
238.440720	154.000000
238.533478	153.700000
238.626266	153.680000
238.719025	153.640000
238.811783	153.160000
238.904541	153.240000
238.997314	153.300000
239.090073	153.060000
239.182831	153.340000
239.275604	154.360000
239.368362	154.280000
239.461136	154.520000
239.553909	154.720000
239.646667	154.300000
239.739441	153.600000
239.832214	153.740000
239.925003	153.580000
240.017761	154.220000
240.110535	154.760000
240.203308	154.380000
240.296082	154.660000
240.388855	154.860000
240.481628	154.740000
240.574417	154.780000
240.667191	154.900000
240.759964	154.400000
240.852737	154.320000
240.945526	154.060000
241.038315	153.420000
241.131088	153.560000
241.223877	153.720000
241.316650	153.280000
241.409439	153.580000
241.502228	153.620000
241.595001	153.880000
241.687790	153.680000
241.780579	153.620000
241.873367	153.640000
241.966141	153.820000
242.058929	153.280000
242.151718	153.680000
242.244507	154.360000
242.337311	153.760000
242.430099	154.060000
242.522903	154.400000
242.615692	154.040000
242.708481	153.900000
242.801270	154.480000
242.894073	154.380000
242.986862	154.280000
243.079651	154.820000
243.172455	154.400000
243.265244	154.180000
243.358063	153.480000
243.450867	153.820000
243.543655	153.580000
243.636459	154.000000
243.729263	154.420000
243.822067	154.940000
243.914856	155.020000
244.007660	155.000000
244.100464	154.900000
244.193268	154.180000
244.286072	154.120000
244.378876	153.420000
244.471680	153.100000
244.564499	153.120000
244.657318	154.080000
244.750122	153.960000
244.842926	153.720000
244.935745	153.920000
245.028549	153.580000
245.121368	152.600000
245.214172	152.460000
245.306992	152.920000
245.399796	152.660000
245.492615	152.980000
245.585434	153.240000
245.678253	153.840000
245.771072	153.720000
245.863892	154.180000
245.956711	154.140000
246.049530	154.160000
246.142349	153.660000
246.235168	153.620000
246.327988	154.080000
246.420807	154.160000
246.513626	154.500000
246.606445	154.300000
246.699280	154.700000
246.792099	154.260000
246.884918	154.000000
246.977753	153.440000
247.070587	153.840000
247.163422	153.520000
247.256241	153.440000
247.349075	153.740000
247.441895	153.680000
247.534729	153.500000
247.627563	153.440000
247.720383	154.120000
247.813217	154.040000
247.906052	154.220000
247.998886	154.100000
248.091736	154.200000
248.184570	153.480000
248.277405	153.220000
248.370239	154.300000
248.463074	155.400000
248.555908	155.620000
248.648743	155.560000
248.741592	155.900000
248.834427	154.960000
248.927261	153.620000
249.020111	153.820000
249.112946	154.340000
249.205795	153.820000
249.298630	153.880000
249.391495	154.100000
249.484344	153.320000
249.577179	153.340000
249.670029	153.760000
249.762878	154.060000
249.855728	154.320000
249.948563	154.540000
250.041412	153.760000
250.134262	154.100000
250.227112	154.000000
250.319962	153.860000
250.412827	153.700000
250.505692	153.440000
250.598541	153.140000
250.691391	152.900000
250.784241	152.900000
250.877106	153.460000
250.969955	153.680000
251.062805	153.940000
251.155670	154.540000
251.248520	154.320000
251.341385	154.480000
251.434235	154.380000
251.527100	154.020000
251.619965	153.620000
251.712814	154.640000
251.805695	154.280000
251.898560	154.740000
251.991425	155.120000
252.084290	155.300000
252.177155	154.400000
252.270020	154.260000
252.362885	154.100000
252.455750	154.140000
252.548615	153.600000
252.641479	153.800000
252.734360	153.800000
252.827240	153.640000
252.920105	153.640000
253.012970	153.580000
253.105850	153.420000
253.198715	153.220000
253.291595	153.520000
253.384460	153.120000
253.477341	153.400000
253.570221	153.680000
253.663086	153.660000
253.755966	154.200000
253.848846	154.120000
253.941727	154.060000
254.034592	153.520000
254.127472	153.060000
254.220367	152.880000
254.313248	153.180000
254.406128	152.820000
254.499008	153.320000
254.591904	154.420000
254.684784	154.680000
254.777664	154.420000
254.870544	154.440000
254.963440	154.520000
255.056335	154.300000
255.149216	153.620000
255.242111	153.980000
255.334991	154.500000
255.427887	154.600000
255.520767	154.500000
255.613663	154.960000
255.706558	154.540000
255.799438	154.320000
255.892334	154.000000
255.985229	153.980000
256.078125	153.600000
256.171021	153.840000
256.263916	154.240000
256.356812	154.500000
256.449707	154.720000
256.542603	154.560000
256.635498	154.920000
256.728394	154.860000
256.821289	154.280000
256.914215	154.380000
257.007080	154.760000
257.100006	154.680000
257.192932	154.600000
257.285828	154.860000
257.378723	154.480000
257.471619	154.200000
257.564545	153.700000
257.657440	153.500000
257.750336	154.020000
257.843262	153.580000
257.936157	154.780000
258.029053	155.360000
258.121979	155.560000
258.214874	154.880000
258.307800	155.180000
258.400696	154.000000
258.493622	153.500000
258.586517	152.740000
258.679443	153.140000
258.772339	152.600000
258.865265	152.420000
258.958160	152.080000
259.051086	153.320000
259.144012	153.020000
259.236938	154.320000
259.329834	154.280000
259.422791	154.280000
259.515717	153.160000
259.608612	153.340000
259.701538	153.000000
259.794464	153.060000
259.887390	153.040000
259.980316	153.240000
260.073212	153.060000
260.166138	151.980000
260.259064	152.280000
260.351990	153.240000
260.444916	153.400000
260.537842	153.520000
260.630768	154.620000
260.723694	154.640000
260.816620	154.240000
260.909546	154.100000
261.002472	153.980000
261.095398	153.300000
261.188354	153.080000
261.281281	152.460000
261.374207	152.760000
261.467133	153.600000
261.560089	153.880000
261.653015	153.680000
261.745972	154.640000
261.838867	155.200000
261.931824	154.760000
262.024780	154.460000
262.117706	154.980000
262.210663	154.780000
262.303589	154.260000
262.396515	154.440000
262.489471	155.100000
262.582397	154.740000
262.675354	154.180000
262.768280	154.220000
262.861237	153.960000
262.954163	153.960000
263.047119	154.320000
263.140045	154.140000
263.233002	153.840000
263.325958	153.620000
263.418884	153.140000
263.511841	152.940000
263.604797	153.200000
263.697723	153.480000
263.790680	153.360000
263.883636	153.780000
263.976593	153.640000
264.069550	154.020000
264.162476	153.540000
264.255463	153.600000
264.348419	153.240000
264.441376	153.520000
264.534332	152.540000
264.627289	152.860000
264.720245	153.340000
264.813202	152.820000
264.906158	152.820000
264.999115	153.680000
265.092072	153.400000
265.185028	153.660000
265.277985	154.240000
265.370941	154.160000
265.463898	153.920000
265.556854	154.060000
265.649811	153.200000
265.742798	153.220000
265.835754	153.380000
265.928711	153.800000
266.021667	153.580000
266.114655	153.760000
266.207611	153.880000
266.300568	153.100000
266.393585	152.500000
266.486511	153.020000
266.579498	152.600000
266.672485	152.160000
266.765442	152.480000
266.858429	153.140000
266.951385	152.560000
267.044342	152.800000
267.137329	153.240000
267.230316	153.560000
267.323273	153.120000
267.416260	154.060000
267.509216	153.820000
267.602203	153.460000
267.695160	153.700000
267.788147	153.600000
267.881134	152.740000
267.974091	153.220000
268.067078	153.340000
268.160065	152.960000
268.253052	152.800000
268.346008	153.100000
268.438995	152.700000
268.531982	152.680000
268.624969	152.600000
268.717987	153.300000
268.810944	153.140000
268.903961	153.460000
268.996948	153.080000
269.089905	153.600000
269.182892	153.220000
269.275879	153.440000
269.368866	152.960000
269.461853	153.640000
269.554871	153.260000
269.647858	153.500000
269.740845	153.780000
269.833832	154.560000
269.926819	154.120000
270.019806	153.940000
270.112793	153.320000
270.205811	153.600000
270.298798	153.080000
270.391785	153.580000
270.484772	153.680000
270.577789	153.880000
270.670776	153.020000
270.763763	153.000000
270.856750	152.840000
270.949768	152.520000
271.042786	152.600000
271.135773	152.960000
271.228790	153.200000
271.321808	152.760000
271.414795	152.740000
271.507782	152.440000
271.600800	151.940000
271.693817	152.180000
271.786804	153.000000
271.879822	153.420000
271.972809	153.640000
272.065826	154.300000
272.158844	153.660000
272.251831	154.060000
272.344849	154.180000
272.437866	154.180000
272.530853	153.920000
272.623871	154.360000
272.716888	152.900000
272.809906	153.040000
272.902893	152.860000
272.995911	152.460000
273.088928	152.300000
273.181946	153.040000
273.274963	152.200000
273.367981	152.520000
273.460999	152.820000
273.554047	153.540000
273.647003	153.820000
273.740051	154.140000
273.833069	154.240000
273.926086	154.340000
274.019135	153.780000
274.112152	153.620000
274.205170	153.840000
274.298187	154.120000
274.391205	153.760000
274.484222	153.800000
274.577240	153.660000
274.670258	153.540000
274.763306	153.020000
274.856323	153.520000
274.949341	153.320000
275.042358	153.520000
275.135406	153.440000
275.228424	153.640000
275.321442	153.540000
275.414490	153.780000
275.507507	153.960000
275.600525	154.560000
275.693573	154.400000
275.786591	153.880000
275.879669	153.760000
275.972656	153.400000
276.065735	153.060000
276.158752	153.620000
276.251801	154.740000
276.344818	155.000000
276.437866	155.120000
276.530884	154.540000
276.623932	153.560000
276.716980	153.320000
276.809998	153.540000
276.903046	153.360000
276.996094	154.540000
277.089111	155.560000
277.182159	156.020000
277.275208	155.280000
277.368256	155.340000
277.461304	154.720000
277.554321	153.740000
277.647369	153.260000
277.740417	153.540000
277.833466	153.360000
277.926514	153.000000
278.019562	153.880000
278.112610	153.320000
278.205688	153.600000
278.298706	153.740000
278.391785	153.700000
278.484833	152.880000
278.577881	152.980000
278.670929	153.020000
278.763977	153.220000
278.857025	153.880000
278.950073	154.040000
279.043121	153.900000
279.136169	153.700000
279.229248	153.280000
279.322296	153.200000
279.415344	153.200000
279.508392	153.160000
279.601440	153.180000
279.694519	153.320000
279.787567	152.980000
279.880615	153.100000
279.973694	153.100000
280.066742	152.920000
280.159790	152.880000
280.252869	152.700000
280.345917	152.820000
280.438995	152.920000
280.532074	153.180000
280.625122	153.060000
280.718201	154.080000
280.811279	153.880000
280.904327	153.640000
280.997406	153.740000
281.090454	154.160000
281.183533	153.240000
281.276581	153.380000
281.369659	153.320000
281.462738	153.080000
281.555786	153.020000
281.648865	153.440000
281.741943	153.220000
281.835022	154.180000
281.928070	153.860000
282.021149	153.460000
282.114227	153.040000
282.207306	153.200000
282.300385	152.900000
282.393433	153.260000
282.486511	153.580000
282.579590	154.220000
282.672668	154.440000
282.765747	154.080000
282.858856	153.720000
282.951904	153.940000
283.045013	154.020000
283.138062	154.240000
283.231171	154.340000
283.324249	154.840000
283.417328	154.940000
283.510406	154.300000
283.603485	153.920000
283.696564	153.900000
283.789642	153.860000
283.882751	153.460000
283.975830	153.940000
284.068909	153.620000
284.161987	154.200000
284.255066	153.640000
284.348175	153.720000
284.441254	153.440000
284.534332	153.880000
284.627441	153.200000
284.720520	153.320000
284.813599	153.540000
284.906708	153.660000
284.999786	153.260000
285.092896	153.160000
285.185974	154.180000
285.279053	153.520000
285.372192	153.540000
285.465240	154.160000
285.558380	154.220000
285.651459	153.740000
285.744568	154.940000
285.837677	154.680000
285.930756	154.480000
286.023865	154.480000
286.116943	153.940000
286.210052	153.520000
286.303162	153.540000
286.396240	153.620000
286.489349	153.560000
286.582458	153.860000
286.675568	153.420000
286.768646	153.580000
286.861755	153.940000
286.954865	154.700000
287.047974	154.200000
287.141083	153.860000
287.234161	153.300000
287.327271	152.940000
287.420380	152.900000
287.513519	153.080000
287.606598	153.340000
287.699738	153.720000
287.792816	153.660000
287.885956	153.500000
287.979034	153.260000
288.072174	153.540000
288.165283	153.460000
288.258392	153.800000
288.351501	153.020000
288.444611	153.500000
288.537720	154.080000
288.630859	154.040000
288.723969	154.160000
288.817078	155.040000
288.910187	154.860000
289.003296	153.980000
289.096436	153.880000
289.189545	153.160000
289.282654	152.380000
289.375763	152.800000
289.468903	153.380000
289.562012	153.500000
289.655121	153.720000
289.748260	154.380000
289.841400	154.540000
289.934509	154.300000
290.027649	154.680000
290.120728	154.360000
290.213898	154.160000
290.306976	153.660000
290.400146	153.780000
290.493256	153.020000
290.586395	153.360000
290.679535	153.600000
290.772644	153.580000
290.865784	152.720000
290.958893	152.940000
291.052032	152.720000
291.145172	152.560000
291.238281	152.220000
291.331421	152.340000
291.424561	152.860000
291.517670	152.640000
291.610809	152.840000
291.703949	153.000000
291.797089	153.500000
291.890228	153.100000
291.983337	153.420000
292.076477	152.920000
292.169617	153.420000
292.262756	153.460000
292.355927	153.300000
292.449036	153.140000
292.542206	153.380000
292.635315	153.320000
292.728485	153.600000
292.821625	153.640000
292.914764	154.840000
293.007904	154.860000
293.101044	154.680000
293.194183	154.180000
293.287323	154.260000
293.380463	153.120000
293.473602	152.980000
293.566742	153.220000
293.659882	153.900000
293.753021	154.280000
293.846191	154.440000
293.939331	154.140000
294.032471	153.680000
294.125610	152.980000
294.218781	152.980000
294.311920	153.380000
294.405060	153.580000
294.498230	154.000000
294.591370	154.060000
294.684540	153.360000
294.777679	152.920000
294.870850	153.320000
294.963959	153.120000
295.057159	153.280000
295.150299	153.940000
295.243469	154.040000
295.336609	153.360000
295.429779	153.320000
295.522919	153.620000
295.616089	153.640000
295.709229	154.140000
295.802399	154.640000
295.895569	154.180000
295.988708	153.700000
296.081879	153.520000
296.175018	152.760000
296.268188	152.560000
296.361359	153.320000
296.454529	153.380000
296.547668	153.220000
296.640839	153.520000
296.734009	153.260000
296.827179	153.340000
296.920319	153.880000
297.013519	153.480000
297.106659	153.860000
297.199860	154.000000
297.292999	153.820000
297.386200	153.100000
297.479309	153.480000
297.572510	153.140000
297.665680	152.920000
297.758850	152.700000
297.852020	152.640000
297.945190	152.380000
298.038361	151.920000
298.131531	153.100000
298.224701	153.040000
298.317871	153.080000
298.411072	152.820000
298.504242	152.740000
298.597412	152.200000
298.690582	152.680000
298.783752	152.740000
298.876923	153.360000
298.970093	153.520000
299.063293	153.520000
299.156464	153.540000
299.249634	153.980000
299.342834	154.140000
299.436005	154.540000
299.529205	154.140000
299.622345	153.940000
299.715576	153.280000
299.808716	152.780000
299.901917	152.560000
299.995117	153.080000
300.088287	153.280000
300.181488	153.180000
300.274658	153.340000
300.367828	153.420000
300.461029	153.360000
300.554199	153.680000
300.647400	153.940000
300.740601	154.180000
300.833771	153.960000
300.926971	154.060000
301.020142	152.980000
301.113342	152.840000
301.206512	152.900000
301.299713	153.300000
301.392914	152.820000
301.486084	153.760000
301.579285	154.120000
301.672516	154.340000
301.765686	153.960000
301.858887	154.080000
301.952057	153.500000
302.045288	153.520000
302.138458	153.160000
302.231659	153.160000
302.324860	153.160000
302.418060	152.880000
302.511261	152.660000
302.604462	153.260000
302.697662	153.060000
302.790863	152.880000
302.884064	152.800000
302.977264	152.800000
303.070465	152.540000
303.163666	153.560000
303.256866	153.920000
303.350067	154.220000
303.443268	154.220000
303.536469	154.460000
303.629669	153.620000
303.722870	153.740000
303.816071	153.560000
303.909271	153.700000
304.002472	152.620000
304.095673	152.580000
304.188934	151.960000
304.282104	153.000000
304.375336	152.720000
304.468506	152.940000
304.561768	152.780000
304.654968	153.300000
304.748169	152.400000
304.841370	152.540000
304.934601	152.920000
305.027802	152.680000
305.121002	152.360000
305.214233	152.620000
305.307434	152.600000
305.400665	153.160000
305.493866	153.260000
