Model Number: SPM-002-B   
Serial Number: 70087108
Firmware Version: 004.15.4
Exposure Time: 100000.000000us
Data Taken on: 11-12-2020 19:27:51.383
Wavelength	Amplitude
221.570786	0.000000
221.663406	0.000000
221.756027	0.000000
221.848648	0.000000
221.941269	0.000000
222.033905	0.000000
222.126526	0.000000
222.219162	0.000000
222.311798	0.000000
222.404419	0.000000
222.497055	0.000000
222.589676	0.000000
222.682312	0.000000
222.774933	0.000000
222.867569	0.000000
222.960205	0.000000
223.052841	0.000000
223.145462	0.000000
223.238098	0.000000
223.330734	0.000000
223.423386	0.000000
223.516022	0.000000
223.608658	0.000000
223.701309	0.000000
223.793945	0.000000
223.886581	0.000000
223.979218	0.000000
224.071869	0.000000
224.164505	0.000000
224.257156	0.000000
224.349792	0.000000
224.442444	0.000000
224.535095	0.000000
224.627747	0.000000
224.720398	0.000000
224.813034	0.000000
224.905685	0.000000
224.998337	145.840000
225.090988	145.480000
225.183640	145.760000
225.276291	145.460000
225.368942	145.640000
225.461594	146.140000
225.554245	146.520000
225.646912	146.240000
225.739578	147.020000
225.832230	147.460000
225.924896	146.680000
226.017548	147.020000
226.110199	147.520000
226.202866	146.800000
226.295532	146.560000
226.388184	146.600000
226.480850	145.760000
226.573517	145.480000
226.666168	145.560000
226.758835	145.800000
226.851501	146.640000
226.944183	147.020000
227.036850	146.480000
227.129517	146.620000
227.222183	146.680000
227.314850	146.020000
227.407516	146.440000
227.500198	147.500000
227.592865	147.080000
227.685532	146.600000
227.778214	146.380000
227.870880	146.580000
227.963562	146.740000
228.056229	147.580000
228.148926	147.520000
228.241592	148.600000
228.334274	148.080000
228.426956	147.880000
228.519638	147.360000
228.612305	147.000000
228.704987	146.480000
228.797668	146.660000
228.890350	146.160000
228.983032	145.660000
229.075714	146.560000
229.168396	146.440000
229.261108	146.020000
229.353790	146.360000
229.446472	146.920000
229.539169	146.320000
229.631851	145.900000
229.724533	146.100000
229.817230	146.180000
229.909912	146.840000
230.002609	147.160000
230.095306	147.180000
230.187988	147.200000
230.280685	146.840000
230.373383	145.740000
230.466095	145.520000
230.558792	145.980000
230.651474	145.840000
230.744171	145.820000
230.836868	145.900000
230.929581	146.400000
231.022278	146.340000
231.114975	146.380000
231.207672	146.100000
231.300369	146.600000
231.393082	146.400000
231.485779	146.340000
231.578506	146.620000
231.671204	146.900000
231.763916	146.820000
231.856613	146.420000
231.949326	146.800000
232.042023	146.520000
232.134735	146.500000
232.227448	146.300000
232.320160	146.860000
232.412872	146.620000
232.505585	147.400000
232.598297	147.640000
232.691010	147.360000
232.783722	146.800000
232.876450	147.380000
232.969162	146.740000
233.061874	146.120000
233.154587	145.960000
233.247314	146.380000
233.340027	145.860000
233.432739	146.440000
233.525467	146.880000
233.618179	147.540000
233.710907	147.000000
233.803635	147.340000
233.896347	146.660000
233.989090	147.200000
234.081818	147.020000
234.174545	147.440000
234.267258	146.500000
234.359985	146.820000
234.452713	146.120000
234.545441	145.780000
234.638168	145.640000
234.730896	146.300000
234.823639	146.180000
234.916367	146.900000
235.009094	147.160000
235.101822	147.040000
235.194580	146.900000
235.287308	146.680000
235.380051	145.800000
235.472778	146.180000
235.565521	146.660000
235.658249	146.580000
235.750992	146.840000
235.843719	147.180000
235.936462	147.240000
236.029205	146.720000
236.121948	146.440000
236.214691	146.480000
236.307449	146.980000
236.400192	146.360000
236.492935	146.320000
236.585678	146.680000
236.678421	146.640000
236.771164	146.500000
236.863907	147.320000
236.956665	147.520000
237.049408	149.080000
237.142151	148.540000
237.234909	148.760000
237.327652	148.220000
237.420410	148.020000
237.513153	146.540000
237.605927	146.900000
237.698669	146.560000
237.791428	146.300000
237.884186	146.800000
237.976944	146.460000
238.069702	146.760000
238.162445	145.960000
238.255203	146.220000
238.347961	146.640000
238.440720	146.720000
238.533478	146.340000
238.626266	146.420000
238.719025	146.640000
238.811783	146.160000
238.904541	145.900000
238.997314	145.860000
239.090073	145.960000
239.182831	145.980000
239.275604	146.700000
239.368362	146.880000
239.461136	146.980000
239.553909	147.100000
239.646667	146.840000
239.739441	146.320000
239.832214	146.640000
239.925003	146.660000
240.017761	147.220000
240.110535	147.860000
240.203308	147.620000
240.296082	147.400000
240.388855	147.500000
240.481628	147.540000
240.574417	147.040000
240.667191	146.820000
240.759964	146.840000
240.852737	146.800000
240.945526	146.420000
241.038315	146.320000
241.131088	146.540000
241.223877	146.620000
241.316650	146.220000
241.409439	146.140000
241.502228	145.740000
241.595001	146.100000
241.687790	145.900000
241.780579	146.260000
241.873367	146.620000
241.966141	147.160000
242.058929	146.460000
242.151718	146.780000
242.244507	146.860000
242.337311	145.980000
242.430099	146.560000
242.522903	146.900000
242.615692	146.760000
242.708481	146.700000
242.801270	147.500000
242.894073	146.860000
242.986862	146.700000
243.079651	147.100000
243.172455	146.840000
243.265244	147.080000
243.358063	146.680000
243.450867	147.200000
243.543655	147.100000
243.636459	147.160000
243.729263	147.000000
243.822067	147.380000
243.914856	147.460000
244.007660	147.400000
244.100464	147.400000
244.193268	146.740000
244.286072	146.880000
244.378876	146.300000
244.471680	145.700000
244.564499	145.980000
244.657318	146.760000
244.750122	146.820000
244.842926	146.260000
244.935745	146.980000
245.028549	146.520000
245.121368	146.140000
245.214172	146.120000
245.306992	146.720000
245.399796	146.240000
245.492615	146.540000
245.585434	146.440000
245.678253	146.200000
245.771072	146.240000
245.863892	146.400000
245.956711	146.580000
246.049530	146.640000
246.142349	146.320000
246.235168	146.380000
246.327988	146.940000
246.420807	146.780000
246.513626	146.580000
246.606445	146.580000
246.699280	146.240000
246.792099	145.860000
246.884918	145.880000
246.977753	145.820000
247.070587	146.040000
247.163422	146.400000
247.256241	146.240000
247.349075	146.320000
247.441895	146.720000
247.534729	146.780000
247.627563	146.420000
247.720383	146.880000
247.813217	146.700000
247.906052	146.260000
247.998886	146.340000
248.091736	146.420000
248.184570	146.140000
248.277405	145.980000
248.370239	146.880000
248.463074	147.700000
248.555908	148.160000
248.648743	148.040000
248.741592	148.380000
248.834427	147.540000
248.927261	146.160000
249.020111	146.480000
249.112946	147.040000
249.205795	146.580000
249.298630	146.920000
249.391495	147.260000
249.484344	146.500000
249.577179	146.120000
249.670029	146.520000
249.762878	146.840000
249.855728	146.860000
249.948563	147.000000
250.041412	146.580000
250.134262	146.940000
250.227112	146.880000
250.319962	147.060000
250.412827	147.140000
250.505692	146.980000
250.598541	146.440000
250.691391	145.800000
250.784241	145.660000
250.877106	145.920000
250.969955	146.060000
251.062805	146.880000
251.155670	147.680000
251.248520	147.700000
251.341385	147.480000
251.434235	147.220000
251.527100	146.700000
251.619965	146.320000
251.712814	147.020000
251.805695	147.200000
251.898560	147.660000
251.991425	147.680000
252.084290	147.920000
252.177155	147.120000
252.270020	146.820000
252.362885	146.700000
252.455750	146.760000
252.548615	146.480000
252.641479	146.500000
252.734360	146.260000
252.827240	146.040000
252.920105	146.000000
253.012970	145.720000
253.105850	145.400000
253.198715	145.280000
253.291595	145.440000
253.384460	144.800000
253.477341	145.060000
253.570221	145.440000
253.663086	145.520000
253.755966	146.200000
253.848846	146.800000
253.941727	146.980000
254.034592	147.020000
254.127472	146.660000
254.220367	146.400000
254.313248	146.560000
254.406128	146.060000
254.499008	146.520000
254.591904	147.540000
254.684784	147.940000
254.777664	147.820000
254.870544	147.680000
254.963440	147.200000
255.056335	146.960000
255.149216	146.100000
255.242111	146.320000
255.334991	146.740000
255.427887	147.140000
255.520767	147.080000
255.613663	147.320000
255.706558	146.580000
255.799438	146.380000
255.892334	145.880000
255.985229	145.700000
256.078125	145.560000
256.171021	145.800000
256.263916	146.220000
256.356812	146.300000
256.449707	146.580000
256.542603	146.440000
256.635498	146.880000
256.728394	146.560000
256.821289	146.340000
256.914215	146.560000
257.007080	147.040000
257.100006	146.900000
257.192932	147.340000
257.285828	147.660000
257.378723	147.160000
257.471619	146.920000
257.564545	146.600000
257.657440	146.420000
257.750336	146.840000
257.843262	146.640000
257.936157	147.780000
258.029053	148.120000
258.121979	148.100000
258.214874	147.500000
258.307800	147.860000
258.400696	146.540000
258.493622	146.220000
258.586517	145.480000
258.679443	145.760000
258.772339	145.180000
258.865265	145.000000
258.958160	144.640000
259.051086	145.840000
259.144012	145.560000
259.236938	146.600000
259.329834	146.880000
259.422791	146.960000
259.515717	145.940000
259.608612	145.820000
259.701538	145.380000
259.794464	145.220000
259.887390	145.420000
259.980316	145.820000
260.073212	145.720000
260.166138	145.080000
260.259064	145.360000
260.351990	146.160000
260.444916	146.080000
260.537842	146.380000
260.630768	147.060000
260.723694	147.020000
260.816620	146.620000
260.909546	146.560000
261.002472	146.120000
261.095398	145.860000
261.188354	145.960000
261.281281	145.440000
261.374207	145.560000
261.467133	146.580000
261.560089	146.700000
261.653015	146.440000
261.745972	147.320000
261.838867	147.560000
261.931824	147.300000
262.024780	146.940000
262.117706	147.280000
262.210663	146.860000
262.303589	146.560000
262.396515	146.640000
262.489471	147.740000
262.582397	147.540000
262.675354	147.120000
262.768280	147.280000
262.861237	147.140000
262.954163	146.480000
263.047119	146.620000
263.140045	146.600000
263.233002	146.380000
263.325958	146.320000
263.418884	145.900000
263.511841	145.700000
263.604797	145.800000
263.697723	145.820000
263.790680	145.700000
263.883636	146.160000
263.976593	146.100000
264.069550	146.400000
264.162476	146.140000
264.255463	146.180000
264.348419	145.940000
264.441376	146.320000
264.534332	145.720000
264.627289	145.900000
264.720245	146.480000
264.813202	146.100000
264.906158	146.260000
264.999115	146.780000
265.092072	146.880000
265.185028	147.100000
265.277985	147.580000
265.370941	147.220000
265.463898	146.960000
265.556854	146.980000
265.649811	145.880000
265.742798	145.780000
265.835754	145.940000
265.928711	146.480000
266.021667	146.220000
266.114655	146.580000
266.207611	146.820000
266.300568	146.360000
266.393585	145.460000
266.486511	145.900000
266.579498	145.360000
266.672485	145.240000
266.765442	145.360000
266.858429	146.320000
266.951385	145.940000
267.044342	146.300000
267.137329	146.080000
267.230316	146.400000
267.323273	145.620000
267.416260	146.380000
267.509216	146.260000
267.602203	146.260000
267.695160	146.460000
267.788147	146.840000
267.881134	146.000000
267.974091	146.620000
268.067078	146.600000
268.160065	146.240000
268.253052	145.880000
268.346008	146.100000
268.438995	145.580000
268.531982	145.740000
268.624969	145.480000
268.717987	145.900000
268.810944	145.980000
268.903961	146.360000
268.996948	145.860000
269.089905	146.540000
269.182892	146.900000
269.275879	147.220000
269.368866	146.600000
269.461853	147.100000
269.554871	146.740000
269.647858	145.960000
269.740845	146.260000
269.833832	146.460000
269.926819	146.340000
270.019806	146.080000
270.112793	146.240000
270.205811	145.900000
270.298798	145.960000
270.391785	146.300000
270.484772	146.240000
270.577789	146.340000
270.670776	145.780000
270.763763	145.820000
270.856750	145.940000
270.949768	146.280000
271.042786	146.360000
271.135773	146.600000
271.228790	147.040000
271.321808	146.660000
271.414795	146.100000
271.507782	145.840000
271.600800	145.400000
271.693817	145.120000
271.786804	145.080000
271.879822	145.620000
271.972809	145.780000
272.065826	146.800000
272.158844	146.420000
272.251831	146.920000
272.344849	146.680000
272.437866	146.220000
272.530853	146.080000
272.623871	146.620000
272.716888	145.720000
272.809906	146.040000
272.902893	146.180000
272.995911	145.500000
273.088928	145.260000
273.181946	145.660000
273.274963	145.260000
273.367981	145.300000
273.460999	145.820000
273.554047	146.440000
273.647003	147.020000
273.740051	147.160000
273.833069	147.540000
273.926086	147.440000
274.019135	146.800000
274.112152	146.440000
274.205170	146.460000
274.298187	146.680000
274.391205	146.040000
274.484222	146.100000
274.577240	146.000000
274.670258	145.920000
274.763306	145.720000
274.856323	146.440000
274.949341	146.420000
275.042358	146.820000
275.135406	147.140000
275.228424	146.980000
275.321442	147.060000
275.414490	146.760000
275.507507	146.880000
275.600525	147.120000
275.693573	147.220000
275.786591	146.700000
275.879669	147.080000
275.972656	146.500000
276.065735	146.000000
276.158752	146.620000
276.251801	147.400000
276.344818	147.620000
276.437866	147.840000
276.530884	147.720000
276.623932	146.620000
276.716980	146.520000
276.809998	146.220000
276.903046	146.280000
276.996094	147.120000
277.089111	148.160000
277.182159	148.680000
277.275208	148.280000
277.368256	148.240000
277.461304	147.580000
277.554321	146.500000
277.647369	145.860000
277.740417	145.940000
277.833466	145.960000
277.926514	145.940000
278.019562	146.600000
278.112610	146.100000
278.205688	146.560000
278.298706	146.540000
278.391785	146.440000
278.484833	146.200000
278.577881	146.200000
278.670929	146.140000
278.763977	146.320000
278.857025	146.660000
278.950073	146.800000
279.043121	146.700000
279.136169	146.340000
279.229248	146.000000
279.322296	145.960000
279.415344	145.680000
279.508392	145.880000
279.601440	146.200000
279.694519	145.960000
279.787567	145.700000
279.880615	145.680000
279.973694	145.520000
280.066742	145.480000
280.159790	145.760000
280.252869	145.600000
280.345917	145.940000
280.438995	146.140000
280.532074	146.200000
280.625122	146.260000
280.718201	147.260000
280.811279	147.200000
280.904327	146.960000
280.997406	147.020000
281.090454	146.940000
281.183533	146.000000
281.276581	145.980000
281.369659	146.060000
281.462738	145.960000
281.555786	146.300000
281.648865	146.620000
281.741943	146.600000
281.835022	147.240000
281.928070	146.980000
282.021149	146.640000
282.114227	146.200000
282.207306	146.160000
282.300385	146.140000
282.393433	146.420000
282.486511	146.820000
282.579590	147.600000
282.672668	147.620000
282.765747	147.020000
282.858856	146.820000
282.951904	146.540000
283.045013	146.500000
283.138062	146.860000
283.231171	147.060000
283.324249	147.460000
283.417328	147.380000
283.510406	146.780000
283.603485	146.460000
283.696564	146.120000
283.789642	146.020000
283.882751	146.040000
283.975830	146.900000
284.068909	146.740000
284.161987	147.720000
284.255066	146.960000
284.348175	147.180000
284.441254	146.700000
284.534332	147.040000
284.627441	146.480000
284.720520	146.520000
284.813599	146.460000
284.906708	146.560000
284.999786	146.100000
285.092896	145.700000
285.185974	146.640000
285.279053	146.180000
285.372192	146.180000
285.465240	146.840000
285.558380	146.960000
285.651459	146.780000
285.744568	147.400000
285.837677	146.880000
285.930756	146.320000
286.023865	146.240000
286.116943	145.780000
286.210052	145.820000
286.303162	146.040000
286.396240	146.220000
286.489349	146.460000
286.582458	146.940000
286.675568	146.480000
286.768646	146.600000
286.861755	146.840000
286.954865	147.320000
287.047974	146.520000
287.141083	146.320000
287.234161	146.260000
287.327271	146.000000
287.420380	146.380000
287.513519	146.680000
287.606598	147.060000
287.699738	147.120000
287.792816	147.020000
287.885956	146.300000
287.979034	146.200000
288.072174	146.200000
288.165283	146.020000
288.258392	146.320000
288.351501	145.980000
288.444611	146.360000
288.537720	146.500000
288.630859	146.400000
288.723969	146.340000
288.817078	146.920000
288.910187	146.800000
289.003296	146.260000
289.096436	146.120000
289.189545	145.960000
289.282654	145.360000
289.375763	145.840000
289.468903	146.220000
289.562012	146.700000
289.655121	146.540000
289.748260	146.880000
289.841400	146.840000
289.934509	146.780000
290.027649	146.560000
290.120728	146.560000
290.213898	146.400000
290.306976	146.140000
290.400146	146.420000
290.493256	146.200000
290.586395	146.500000
290.679535	146.660000
290.772644	146.400000
290.865784	145.680000
290.958893	145.920000
291.052032	145.700000
291.145172	145.800000
291.238281	145.660000
291.331421	145.860000
291.424561	146.160000
291.517670	146.180000
291.610809	146.180000
291.703949	146.140000
291.797089	146.260000
291.890228	145.640000
291.983337	145.580000
292.076477	145.280000
292.169617	145.580000
292.262756	145.560000
292.355927	145.700000
292.449036	145.600000
292.542206	145.640000
292.635315	145.780000
292.728485	146.000000
292.821625	145.560000
292.914764	146.520000
293.007904	146.940000
293.101044	146.980000
293.194183	146.680000
293.287323	147.020000
293.380463	146.300000
293.473602	145.960000
293.566742	146.080000
293.659882	146.740000
293.753021	147.200000
293.846191	147.040000
293.939331	146.700000
294.032471	146.420000
294.125610	145.900000
294.218781	146.200000
294.311920	146.560000
294.405060	146.760000
294.498230	146.560000
294.591370	146.880000
294.684540	146.160000
294.777679	145.860000
294.870850	146.260000
294.963959	146.600000
295.057159	146.280000
295.150299	146.740000
295.243469	146.560000
295.336609	145.940000
295.429779	145.960000
295.522919	146.520000
295.616089	146.420000
295.709229	147.220000
295.802399	147.420000
295.895569	147.020000
295.988708	146.480000
296.081879	146.280000
296.175018	145.560000
296.268188	145.860000
296.361359	146.360000
296.454529	146.640000
296.547668	146.660000
296.640839	147.240000
296.734009	146.660000
296.827179	146.520000
296.920319	146.660000
297.013519	146.560000
297.106659	146.480000
297.199860	146.620000
297.292999	146.580000
297.386200	146.360000
297.479309	146.300000
297.572510	146.080000
297.665680	146.000000
297.758850	145.880000
297.852020	145.640000
297.945190	145.600000
298.038361	145.500000
298.131531	146.300000
298.224701	146.220000
298.317871	145.940000
298.411072	145.720000
298.504242	145.580000
298.597412	145.180000
298.690582	145.500000
298.783752	145.620000
298.876923	146.060000
298.970093	146.080000
299.063293	146.340000
299.156464	146.460000
299.249634	146.740000
299.342834	147.080000
299.436005	147.420000
299.529205	147.080000
299.622345	146.960000
299.715576	146.340000
299.808716	145.920000
299.901917	145.840000
299.995117	146.260000
300.088287	146.540000
300.181488	146.700000
300.274658	146.460000
300.367828	146.460000
300.461029	146.360000
300.554199	146.180000
300.647400	146.380000
300.740601	147.200000
300.833771	146.840000
300.926971	146.840000
301.020142	146.360000
301.113342	146.440000
301.206512	146.120000
301.299713	146.540000
301.392914	146.340000
301.486084	146.860000
301.579285	146.740000
301.672516	147.100000
301.765686	146.940000
301.858887	146.940000
301.952057	146.740000
302.045288	146.860000
302.138458	146.420000
302.231659	146.180000
302.324860	145.920000
302.418060	145.460000
302.511261	145.200000
302.604462	145.420000
302.697662	145.460000
302.790863	145.560000
302.884064	145.460000
302.977264	145.780000
303.070465	145.980000
303.163666	146.660000
303.256866	147.200000
303.350067	147.560000
303.443268	147.660000
303.536469	147.500000
303.629669	146.900000
303.722870	146.780000
303.816071	146.800000
303.909271	146.860000
304.002472	145.840000
304.095673	145.720000
304.188934	144.800000
304.282104	145.280000
304.375336	145.000000
304.468506	145.600000
304.561768	145.280000
304.654968	146.240000
304.748169	145.740000
304.841370	145.580000
304.934601	145.900000
305.027802	146.000000
305.121002	145.480000
305.214233	145.900000
305.307434	146.140000
305.400665	146.620000
305.493866	146.840000
