Model Number: SPM-002-B   
Serial Number: 70087108
Firmware Version: 004.15.4
Exposure Time: 100000.000000us
Data Taken on: 11-12-2020 19:27:43.330
Wavelength	Amplitude
221.570786	0.000000
221.663406	0.000000
221.756027	0.000000
221.848648	0.000000
221.941269	0.000000
222.033905	0.000000
222.126526	0.000000
222.219162	0.000000
222.311798	0.000000
222.404419	0.000000
222.497055	0.000000
222.589676	0.000000
222.682312	0.000000
222.774933	0.000000
222.867569	0.000000
222.960205	0.000000
223.052841	0.000000
223.145462	0.000000
223.238098	0.000000
223.330734	0.000000
223.423386	0.000000
223.516022	0.000000
223.608658	0.000000
223.701309	0.000000
223.793945	0.000000
223.886581	0.000000
223.979218	0.000000
224.071869	0.000000
224.164505	0.000000
224.257156	0.000000
224.349792	0.000000
224.442444	0.000000
224.535095	0.000000
224.627747	0.000000
224.720398	0.000000
224.813034	0.000000
224.905685	0.000000
224.998337	146.520000
225.090988	146.280000
225.183640	146.400000
225.276291	146.100000
225.368942	146.340000
225.461594	146.540000
225.554245	146.800000
225.646912	146.460000
225.739578	147.260000
225.832230	147.400000
225.924896	146.860000
226.017548	147.000000
226.110199	147.720000
226.202866	146.720000
226.295532	146.480000
226.388184	146.320000
226.480850	145.720000
226.573517	144.840000
226.666168	145.200000
226.758835	145.660000
226.851501	146.500000
226.944183	146.820000
227.036850	146.760000
227.129517	146.840000
227.222183	146.900000
227.314850	146.600000
227.407516	147.180000
227.500198	148.000000
227.592865	147.820000
227.685532	147.100000
227.778214	146.620000
227.870880	146.620000
227.963562	146.780000
228.056229	147.220000
228.148926	147.460000
228.241592	148.460000
228.334274	148.060000
228.426956	147.500000
228.519638	147.520000
228.612305	147.120000
228.704987	146.980000
228.797668	147.260000
228.890350	147.160000
228.983032	146.340000
229.075714	147.080000
229.168396	146.540000
229.261108	145.920000
229.353790	146.100000
229.446472	146.640000
229.539169	146.300000
229.631851	145.800000
229.724533	146.080000
229.817230	146.200000
229.909912	147.140000
230.002609	147.380000
230.095306	147.740000
230.187988	147.780000
230.280685	147.580000
230.373383	146.140000
230.466095	145.860000
230.558792	146.260000
230.651474	146.060000
230.744171	145.920000
230.836868	146.060000
230.929581	146.100000
231.022278	146.100000
231.114975	146.380000
231.207672	146.260000
231.300369	146.740000
231.393082	146.820000
231.485779	146.500000
231.578506	146.340000
231.671204	146.800000
231.763916	146.680000
231.856613	146.860000
231.949326	146.840000
232.042023	146.800000
232.134735	146.320000
232.227448	145.780000
232.320160	146.080000
232.412872	146.340000
232.505585	147.060000
232.598297	147.500000
232.691010	147.460000
232.783722	146.800000
232.876450	147.320000
232.969162	146.640000
233.061874	146.300000
233.154587	146.080000
233.247314	146.300000
233.340027	145.420000
233.432739	145.700000
233.525467	145.420000
233.618179	146.260000
233.710907	145.740000
233.803635	146.140000
233.896347	145.880000
233.989090	146.580000
234.081818	146.360000
234.174545	146.740000
234.267258	146.200000
234.359985	146.640000
234.452713	146.220000
234.545441	145.740000
234.638168	145.680000
234.730896	146.600000
234.823639	146.360000
234.916367	146.960000
235.009094	147.480000
235.101822	147.360000
235.194580	146.840000
235.287308	146.960000
235.380051	146.400000
235.472778	146.800000
235.565521	147.020000
235.658249	146.820000
235.750992	146.840000
235.843719	146.900000
235.936462	146.780000
236.029205	146.560000
236.121948	146.380000
236.214691	146.440000
236.307449	147.060000
236.400192	146.560000
236.492935	146.580000
236.585678	146.700000
236.678421	146.800000
236.771164	146.200000
236.863907	146.920000
236.956665	147.200000
237.049408	148.900000
237.142151	148.620000
237.234909	149.760000
237.327652	149.560000
237.420410	149.340000
237.513153	148.000000
237.605927	147.960000
237.698669	147.020000
237.791428	146.280000
237.884186	146.920000
237.976944	146.400000
238.069702	146.660000
238.162445	146.040000
238.255203	146.380000
238.347961	146.380000
238.440720	146.660000
238.533478	146.380000
238.626266	146.600000
238.719025	147.020000
238.811783	146.600000
238.904541	146.540000
238.997314	146.360000
239.090073	146.140000
239.182831	146.120000
239.275604	146.800000
239.368362	146.720000
239.461136	147.100000
239.553909	147.260000
239.646667	146.820000
239.739441	146.380000
239.832214	146.620000
239.925003	146.700000
240.017761	147.400000
240.110535	148.140000
240.203308	147.400000
240.296082	147.540000
240.388855	147.160000
240.481628	146.940000
240.574417	146.740000
240.667191	147.240000
240.759964	146.940000
240.852737	147.100000
240.945526	146.700000
241.038315	146.140000
241.131088	146.460000
241.223877	146.660000
241.316650	146.140000
241.409439	146.480000
241.502228	146.120000
241.595001	146.080000
241.687790	145.960000
241.780579	146.240000
241.873367	146.400000
241.966141	147.180000
242.058929	146.780000
242.151718	147.040000
242.244507	147.480000
242.337311	146.740000
242.430099	147.340000
242.522903	147.420000
242.615692	146.800000
242.708481	146.620000
242.801270	147.480000
242.894073	146.940000
242.986862	147.240000
243.079651	148.060000
243.172455	147.760000
243.265244	147.560000
243.358063	146.820000
243.450867	147.040000
243.543655	146.600000
243.636459	146.880000
243.729263	147.000000
243.822067	147.600000
243.914856	147.560000
244.007660	148.000000
244.100464	147.800000
244.193268	147.260000
244.286072	147.200000
244.378876	146.760000
244.471680	146.300000
244.564499	146.940000
244.657318	147.760000
244.750122	147.760000
244.842926	147.100000
244.935745	147.380000
245.028549	146.700000
245.121368	145.980000
245.214172	145.900000
245.306992	146.860000
245.399796	146.680000
245.492615	147.120000
245.585434	147.240000
245.678253	147.340000
245.771072	147.140000
245.863892	147.380000
245.956711	147.500000
246.049530	147.540000
246.142349	147.320000
246.235168	147.140000
246.327988	147.660000
246.420807	147.160000
246.513626	147.160000
246.606445	147.080000
246.699280	147.340000
246.792099	146.640000
246.884918	146.480000
246.977753	146.120000
247.070587	146.440000
247.163422	146.400000
247.256241	146.860000
247.349075	147.160000
247.441895	147.460000
247.534729	147.440000
247.627563	147.060000
247.720383	146.920000
247.813217	147.020000
247.906052	147.040000
247.998886	146.840000
248.091736	146.940000
248.184570	146.420000
248.277405	146.340000
248.370239	146.900000
248.463074	147.620000
248.555908	148.080000
248.648743	148.260000
248.741592	148.360000
248.834427	147.620000
248.927261	146.660000
249.020111	146.660000
249.112946	147.220000
249.205795	146.620000
249.298630	146.800000
249.391495	147.040000
249.484344	147.060000
249.577179	146.820000
249.670029	147.340000
249.762878	148.040000
249.855728	147.880000
249.948563	147.600000
250.041412	147.200000
250.134262	147.160000
250.227112	146.720000
250.319962	146.880000
250.412827	146.840000
250.505692	146.560000
250.598541	146.480000
250.691391	145.980000
250.784241	146.000000
250.877106	146.160000
250.969955	146.060000
251.062805	146.840000
251.155670	147.780000
251.248520	147.680000
251.341385	147.860000
251.434235	147.980000
251.527100	147.100000
251.619965	146.120000
251.712814	146.680000
251.805695	146.480000
251.898560	146.900000
251.991425	147.480000
252.084290	147.780000
252.177155	147.180000
252.270020	146.860000
252.362885	146.540000
252.455750	146.320000
252.548615	146.020000
252.641479	145.860000
252.734360	145.780000
252.827240	145.800000
252.920105	145.660000
253.012970	145.820000
253.105850	146.380000
253.198715	146.160000
253.291595	146.140000
253.384460	146.000000
253.477341	145.800000
253.570221	145.740000
253.663086	145.880000
253.755966	146.360000
253.848846	146.560000
253.941727	147.340000
254.034592	147.300000
254.127472	147.060000
254.220367	146.880000
254.313248	147.060000
254.406128	146.120000
254.499008	146.160000
254.591904	147.280000
254.684784	147.560000
254.777664	147.420000
254.870544	147.400000
254.963440	147.220000
255.056335	147.100000
255.149216	146.620000
255.242111	146.960000
255.334991	147.720000
255.427887	147.860000
255.520767	147.740000
255.613663	148.040000
255.706558	147.240000
255.799438	146.900000
255.892334	146.580000
255.985229	146.240000
256.078125	146.360000
256.171021	146.520000
256.263916	146.940000
256.356812	147.380000
256.449707	147.720000
256.542603	147.320000
256.635498	147.840000
256.728394	147.280000
256.821289	146.640000
256.914215	146.460000
257.007080	146.840000
257.100006	146.900000
257.192932	147.420000
257.285828	147.960000
257.378723	148.000000
257.471619	147.620000
257.564545	147.120000
257.657440	146.960000
257.750336	147.240000
257.843262	146.720000
257.936157	147.820000
258.029053	148.260000
258.121979	148.160000
258.214874	147.660000
258.307800	147.480000
258.400696	146.340000
258.493622	146.260000
258.586517	145.780000
258.679443	146.220000
258.772339	146.240000
258.865265	146.400000
258.958160	145.880000
259.051086	146.440000
259.144012	145.820000
259.236938	146.600000
259.329834	146.560000
259.422791	146.560000
259.515717	146.040000
259.608612	146.060000
259.701538	145.940000
259.794464	145.760000
259.887390	145.660000
259.980316	145.960000
260.073212	145.940000
260.166138	144.780000
260.259064	145.340000
260.351990	146.440000
260.444916	146.160000
260.537842	146.740000
260.630768	148.100000
260.723694	147.860000
260.816620	147.300000
260.909546	147.460000
261.002472	146.780000
261.095398	145.860000
261.188354	145.640000
261.281281	145.220000
261.374207	145.340000
261.467133	146.400000
261.560089	146.920000
261.653015	146.980000
261.745972	147.780000
261.838867	148.300000
261.931824	148.100000
262.024780	147.640000
262.117706	147.880000
262.210663	147.780000
262.303589	147.480000
262.396515	147.320000
262.489471	148.340000
262.582397	148.100000
262.675354	147.320000
262.768280	147.460000
262.861237	147.280000
262.954163	146.900000
263.047119	147.020000
263.140045	146.920000
263.233002	146.560000
263.325958	146.660000
263.418884	146.220000
263.511841	146.000000
263.604797	146.420000
263.697723	146.460000
263.790680	146.120000
263.883636	146.680000
263.976593	146.640000
264.069550	146.500000
264.162476	146.360000
264.255463	146.580000
264.348419	146.100000
264.441376	146.440000
264.534332	146.140000
264.627289	146.500000
264.720245	146.600000
264.813202	146.220000
264.906158	146.340000
264.999115	147.080000
265.092072	146.860000
265.185028	147.520000
265.277985	147.840000
265.370941	147.620000
265.463898	147.200000
265.556854	146.800000
265.649811	145.560000
265.742798	145.780000
265.835754	145.960000
265.928711	146.460000
266.021667	146.640000
266.114655	147.020000
266.207611	147.280000
266.300568	146.780000
266.393585	146.160000
266.486511	146.580000
266.579498	146.160000
266.672485	145.840000
266.765442	145.860000
266.858429	146.320000
266.951385	146.000000
267.044342	146.220000
267.137329	146.260000
267.230316	146.780000
267.323273	146.220000
267.416260	146.800000
267.509216	146.740000
267.602203	146.140000
267.695160	146.260000
267.788147	146.520000
267.881134	145.580000
267.974091	145.960000
268.067078	146.280000
268.160065	146.000000
268.253052	145.800000
268.346008	146.240000
268.438995	145.800000
268.531982	146.240000
268.624969	145.980000
268.717987	146.480000
268.810944	146.480000
268.903961	146.620000
268.996948	146.260000
269.089905	146.480000
269.182892	146.440000
269.275879	146.860000
269.368866	146.520000
269.461853	146.660000
269.554871	146.620000
269.647858	146.580000
269.740845	146.580000
269.833832	147.080000
269.926819	146.760000
270.019806	147.100000
270.112793	146.760000
270.205811	146.720000
270.298798	146.480000
270.391785	147.100000
270.484772	146.460000
270.577789	146.560000
270.670776	146.040000
270.763763	146.000000
270.856750	145.640000
270.949768	145.760000
271.042786	145.960000
271.135773	146.160000
271.228790	146.420000
271.321808	146.280000
271.414795	145.980000
271.507782	145.800000
271.600800	145.520000
271.693817	145.700000
271.786804	146.160000
271.879822	146.580000
271.972809	146.620000
272.065826	147.380000
272.158844	146.760000
272.251831	147.080000
272.344849	147.240000
272.437866	146.960000
272.530853	146.800000
272.623871	147.300000
272.716888	146.280000
272.809906	146.580000
272.902893	146.760000
272.995911	146.300000
273.088928	146.280000
273.181946	146.700000
273.274963	145.900000
273.367981	146.000000
273.460999	146.220000
273.554047	146.760000
273.647003	147.460000
273.740051	147.940000
273.833069	148.100000
273.926086	148.100000
274.019135	147.600000
274.112152	146.960000
274.205170	146.860000
274.298187	146.940000
274.391205	146.600000
274.484222	146.360000
274.577240	146.580000
274.670258	146.520000
274.763306	146.120000
274.856323	146.660000
274.949341	147.000000
275.042358	147.620000
275.135406	147.320000
275.228424	147.340000
275.321442	147.060000
275.414490	146.720000
275.507507	146.480000
275.600525	147.020000
275.693573	146.980000
275.786591	146.680000
275.879669	146.920000
275.972656	146.300000
276.065735	146.000000
276.158752	146.460000
276.251801	147.400000
276.344818	147.540000
276.437866	147.760000
276.530884	147.760000
276.623932	146.840000
276.716980	146.520000
276.809998	146.360000
276.903046	146.360000
276.996094	147.400000
277.089111	148.540000
277.182159	148.840000
277.275208	148.860000
277.368256	148.720000
277.461304	148.080000
277.554321	147.020000
277.647369	146.920000
277.740417	146.720000
277.833466	146.660000
277.926514	146.240000
278.019562	147.120000
278.112610	146.320000
278.205688	146.580000
278.298706	146.680000
278.391785	146.540000
278.484833	145.820000
278.577881	145.840000
278.670929	146.100000
278.763977	146.520000
278.857025	147.320000
278.950073	147.720000
279.043121	147.940000
279.136169	147.440000
279.229248	146.840000
279.322296	146.300000
279.415344	146.060000
279.508392	146.040000
279.601440	146.200000
279.694519	146.180000
279.787567	146.060000
279.880615	146.040000
279.973694	146.180000
280.066742	146.180000
280.159790	146.620000
280.252869	146.560000
280.345917	146.780000
280.438995	146.520000
280.532074	146.380000
280.625122	146.260000
280.718201	147.100000
280.811279	147.080000
280.904327	147.120000
280.997406	147.240000
281.090454	147.020000
281.183533	146.440000
281.276581	146.640000
281.369659	146.260000
281.462738	146.420000
281.555786	146.880000
281.648865	146.660000
281.741943	146.580000
281.835022	147.560000
281.928070	147.680000
282.021149	147.320000
282.114227	147.720000
282.207306	147.420000
282.300385	147.260000
282.393433	147.260000
282.486511	147.180000
282.579590	147.420000
282.672668	147.760000
282.765747	147.160000
282.858856	146.760000
282.951904	147.080000
283.045013	146.880000
283.138062	147.020000
283.231171	147.720000
283.324249	148.000000
283.417328	147.620000
283.510406	147.180000
283.603485	147.020000
283.696564	146.580000
283.789642	146.840000
283.882751	146.960000
283.975830	147.540000
284.068909	147.040000
284.161987	147.740000
284.255066	147.040000
284.348175	147.040000
284.441254	146.900000
284.534332	147.600000
284.627441	147.060000
284.720520	147.160000
284.813599	147.480000
284.906708	147.660000
284.999786	146.840000
285.092896	146.480000
285.185974	147.460000
285.279053	146.700000
285.372192	146.180000
285.465240	147.320000
285.558380	147.420000
285.651459	146.880000
285.744568	148.000000
285.837677	147.700000
285.930756	147.080000
286.023865	146.980000
286.116943	146.260000
286.210052	146.080000
286.303162	146.680000
286.396240	146.880000
286.489349	146.680000
286.582458	147.240000
286.675568	146.760000
286.768646	146.700000
286.861755	146.820000
286.954865	147.860000
287.047974	147.120000
287.141083	147.120000
287.234161	146.760000
287.327271	146.480000
287.420380	146.480000
287.513519	146.840000
287.606598	146.940000
287.699738	147.380000
287.792816	147.180000
287.885956	146.700000
287.979034	146.800000
288.072174	146.800000
288.165283	146.860000
288.258392	147.300000
288.351501	147.140000
288.444611	147.500000
288.537720	147.860000
288.630859	147.580000
288.723969	147.540000
288.817078	147.620000
288.910187	147.360000
289.003296	147.080000
289.096436	146.820000
289.189545	146.580000
289.282654	146.420000
289.375763	146.940000
289.468903	147.160000
289.562012	147.400000
289.655121	147.380000
289.748260	147.460000
289.841400	147.360000
289.934509	147.320000
290.027649	147.580000
290.120728	147.540000
290.213898	147.840000
290.306976	147.360000
290.400146	147.320000
290.493256	146.660000
290.586395	146.620000
290.679535	146.460000
290.772644	146.520000
290.865784	145.700000
290.958893	145.920000
291.052032	146.080000
291.145172	146.080000
291.238281	145.900000
291.331421	146.320000
291.424561	146.780000
291.517670	146.180000
291.610809	146.180000
291.703949	146.100000
291.797089	146.240000
291.890228	145.820000
291.983337	146.080000
292.076477	145.940000
292.169617	146.400000
292.262756	146.520000
292.355927	146.380000
292.449036	146.400000
292.542206	146.500000
292.635315	146.720000
292.728485	146.980000
292.821625	147.000000
292.914764	147.860000
293.007904	148.080000
293.101044	147.800000
293.194183	147.560000
293.287323	147.540000
293.380463	147.040000
293.473602	146.560000
293.566742	146.760000
293.659882	146.880000
293.753021	147.300000
293.846191	147.200000
293.939331	146.900000
294.032471	146.620000
294.125610	146.140000
294.218781	146.320000
294.311920	146.220000
294.405060	146.760000
294.498230	146.800000
294.591370	147.180000
294.684540	146.340000
294.777679	146.420000
294.870850	146.780000
294.963959	146.680000
295.057159	146.440000
295.150299	146.960000
295.243469	146.760000
295.336609	146.100000
295.429779	146.260000
295.522919	146.720000
295.616089	146.800000
295.709229	147.720000
295.802399	148.080000
295.895569	147.700000
295.988708	147.160000
296.081879	146.980000
296.175018	145.840000
296.268188	145.600000
296.361359	146.160000
296.454529	146.560000
296.547668	146.620000
296.640839	147.300000
296.734009	147.200000
296.827179	147.360000
296.920319	147.280000
297.013519	147.180000
297.106659	147.220000
297.199860	147.540000
297.292999	147.260000
297.386200	147.060000
297.479309	146.940000
297.572510	146.740000
297.665680	146.220000
297.758850	146.280000
297.852020	146.200000
297.945190	145.860000
298.038361	145.640000
298.131531	146.820000
298.224701	146.500000
298.317871	146.260000
298.411072	146.260000
298.504242	146.440000
298.597412	145.780000
298.690582	145.920000
298.783752	146.100000
298.876923	146.600000
298.970093	146.560000
299.063293	147.020000
299.156464	147.320000
299.249634	147.680000
299.342834	147.840000
299.436005	148.080000
299.529205	147.520000
299.622345	147.760000
299.715576	147.200000
299.808716	146.940000
299.901917	146.780000
299.995117	147.120000
300.088287	147.200000
300.181488	147.320000
300.274658	147.300000
300.367828	147.400000
300.461029	147.340000
300.554199	147.000000
300.647400	147.080000
300.740601	147.600000
300.833771	147.380000
300.926971	147.500000
301.020142	147.320000
301.113342	147.300000
301.206512	146.680000
301.299713	147.000000
301.392914	147.080000
301.486084	147.320000
301.579285	147.220000
301.672516	147.780000
301.765686	147.440000
301.858887	147.080000
301.952057	146.500000
302.045288	146.840000
302.138458	146.620000
302.231659	146.300000
302.324860	146.180000
302.418060	146.160000
302.511261	146.020000
302.604462	146.220000
302.697662	146.120000
302.790863	145.980000
302.884064	146.080000
302.977264	145.920000
303.070465	146.080000
303.163666	147.080000
303.256866	147.580000
303.350067	147.560000
303.443268	147.680000
303.536469	147.460000
303.629669	146.760000
303.722870	146.660000
303.816071	146.520000
303.909271	146.460000
304.002472	145.940000
304.095673	145.700000
304.188934	144.980000
304.282104	145.780000
304.375336	145.800000
304.468506	146.080000
304.561768	146.160000
304.654968	147.000000
304.748169	146.580000
304.841370	146.280000
304.934601	146.460000
305.027802	146.540000
305.121002	146.160000
305.214233	146.200000
305.307434	146.680000
305.400665	147.200000
305.493866	146.700000
