Model Number: SPM-002-B   
Serial Number: 70087108
Firmware Version: 004.15.4
Exposure Time: 100000.000000us
Data Taken on: 11-12-2020 19:27:58.984
Wavelength	Amplitude
221.570786	0.000000
221.663406	0.000000
221.756027	0.000000
221.848648	0.000000
221.941269	0.000000
222.033905	0.000000
222.126526	0.000000
222.219162	0.000000
222.311798	0.000000
222.404419	0.000000
222.497055	0.000000
222.589676	0.000000
222.682312	0.000000
222.774933	0.000000
222.867569	0.000000
222.960205	0.000000
223.052841	0.000000
223.145462	0.000000
223.238098	0.000000
223.330734	0.000000
223.423386	0.000000
223.516022	0.000000
223.608658	0.000000
223.701309	0.000000
223.793945	0.000000
223.886581	0.000000
223.979218	0.000000
224.071869	0.000000
224.164505	0.000000
224.257156	0.000000
224.349792	0.000000
224.442444	0.000000
224.535095	0.000000
224.627747	0.000000
224.720398	0.000000
224.813034	0.000000
224.905685	0.000000
224.998337	146.140000
225.090988	146.000000
225.183640	146.060000
225.276291	145.820000
225.368942	146.160000
225.461594	146.680000
225.554245	147.020000
225.646912	146.900000
225.739578	147.300000
225.832230	147.760000
225.924896	147.100000
226.017548	147.580000
226.110199	148.220000
226.202866	147.580000
226.295532	147.460000
226.388184	147.400000
226.480850	146.580000
226.573517	146.340000
226.666168	146.660000
226.758835	146.580000
226.851501	147.200000
226.944183	147.380000
227.036850	146.680000
227.129517	146.840000
227.222183	146.980000
227.314850	146.840000
227.407516	147.180000
227.500198	148.060000
227.592865	147.660000
227.685532	147.140000
227.778214	146.980000
227.870880	147.080000
227.963562	147.120000
228.056229	147.420000
228.148926	147.400000
228.241592	148.140000
228.334274	147.840000
228.426956	147.640000
228.519638	147.520000
228.612305	147.120000
228.704987	146.900000
228.797668	147.080000
228.890350	146.700000
228.983032	146.420000
229.075714	147.380000
229.168396	146.700000
229.261108	146.320000
229.353790	146.600000
229.446472	146.860000
229.539169	146.480000
229.631851	146.260000
229.724533	146.420000
229.817230	146.460000
229.909912	147.340000
230.002609	147.520000
230.095306	147.820000
230.187988	147.740000
230.280685	147.640000
230.373383	146.520000
230.466095	146.200000
230.558792	146.660000
230.651474	146.860000
230.744171	146.500000
230.836868	146.620000
230.929581	146.720000
231.022278	146.420000
231.114975	146.200000
231.207672	146.180000
231.300369	146.300000
231.393082	146.720000
231.485779	146.420000
231.578506	146.520000
231.671204	146.920000
231.763916	147.060000
231.856613	146.700000
231.949326	146.980000
232.042023	146.820000
232.134735	146.480000
232.227448	146.360000
232.320160	146.680000
232.412872	146.740000
232.505585	147.580000
232.598297	148.100000
232.691010	147.880000
232.783722	147.280000
232.876450	147.520000
232.969162	146.780000
233.061874	146.400000
233.154587	146.020000
233.247314	146.300000
233.340027	145.840000
233.432739	146.380000
233.525467	146.360000
233.618179	147.080000
233.710907	147.100000
233.803635	147.980000
233.896347	147.640000
233.989090	148.120000
234.081818	147.800000
234.174545	147.880000
234.267258	147.080000
234.359985	147.400000
234.452713	147.360000
234.545441	147.340000
234.638168	147.100000
234.730896	147.660000
234.823639	147.320000
234.916367	147.480000
235.009094	147.580000
235.101822	147.680000
235.194580	147.160000
235.287308	147.040000
235.380051	146.420000
235.472778	146.780000
235.565521	146.760000
235.658249	146.560000
235.750992	146.700000
235.843719	146.720000
235.936462	146.620000
236.029205	146.300000
236.121948	146.420000
236.214691	146.780000
236.307449	147.400000
236.400192	147.200000
236.492935	147.260000
236.585678	147.360000
236.678421	147.220000
236.771164	146.940000
236.863907	147.460000
236.956665	148.040000
237.049408	149.760000
237.142151	149.160000
237.234909	149.760000
237.327652	149.380000
237.420410	148.900000
237.513153	147.640000
237.605927	147.480000
237.698669	146.900000
237.791428	146.260000
237.884186	146.920000
237.976944	146.520000
238.069702	147.320000
238.162445	146.740000
238.255203	147.240000
238.347961	147.180000
238.440720	147.120000
238.533478	147.120000
238.626266	147.000000
238.719025	147.320000
238.811783	146.900000
238.904541	146.940000
238.997314	146.540000
239.090073	146.540000
239.182831	146.600000
239.275604	147.340000
239.368362	147.260000
239.461136	147.480000
239.553909	147.560000
239.646667	147.380000
239.739441	146.880000
239.832214	147.220000
239.925003	147.240000
240.017761	148.280000
240.110535	148.620000
240.203308	148.000000
240.296082	147.900000
240.388855	147.880000
240.481628	147.580000
240.574417	147.560000
240.667191	147.980000
240.759964	147.860000
240.852737	147.740000
240.945526	147.460000
241.038315	147.200000
241.131088	147.420000
241.223877	147.540000
241.316650	147.320000
241.409439	147.780000
241.502228	147.480000
241.595001	147.760000
241.687790	147.600000
241.780579	147.440000
241.873367	147.240000
241.966141	147.660000
242.058929	147.020000
242.151718	147.160000
242.244507	147.960000
242.337311	147.180000
242.430099	147.520000
242.522903	147.880000
242.615692	147.640000
242.708481	147.560000
242.801270	148.380000
242.894073	148.000000
242.986862	147.940000
243.079651	148.340000
243.172455	147.880000
243.265244	147.800000
243.358063	147.580000
243.450867	147.920000
243.543655	147.940000
243.636459	148.240000
243.729263	148.500000
243.822067	148.740000
243.914856	148.680000
244.007660	148.600000
244.100464	148.660000
244.193268	148.080000
244.286072	147.760000
244.378876	147.140000
244.471680	146.600000
244.564499	146.420000
244.657318	147.160000
244.750122	147.480000
244.842926	147.200000
244.935745	147.820000
245.028549	147.580000
245.121368	146.800000
245.214172	146.740000
245.306992	147.600000
245.399796	147.180000
245.492615	147.480000
245.585434	147.520000
245.678253	147.200000
245.771072	146.980000
245.863892	147.320000
245.956711	147.460000
246.049530	147.220000
246.142349	147.280000
246.235168	147.080000
246.327988	147.440000
246.420807	147.140000
246.513626	147.360000
246.606445	147.360000
246.699280	147.480000
246.792099	147.400000
246.884918	147.320000
246.977753	147.160000
247.070587	147.400000
247.163422	147.260000
247.256241	147.040000
247.349075	147.200000
247.441895	147.340000
247.534729	146.980000
247.627563	147.060000
247.720383	147.740000
247.813217	147.760000
247.906052	147.660000
247.998886	147.760000
248.091736	147.720000
248.184570	147.040000
248.277405	146.720000
248.370239	147.760000
248.463074	148.740000
248.555908	149.080000
248.648743	148.880000
248.741592	149.300000
248.834427	148.340000
248.927261	147.020000
249.020111	147.180000
249.112946	147.880000
249.205795	147.220000
249.298630	147.580000
249.391495	147.940000
249.484344	147.520000
249.577179	147.260000
249.670029	147.920000
249.762878	148.180000
249.855728	148.140000
249.948563	148.060000
250.041412	147.300000
250.134262	147.300000
250.227112	147.180000
250.319962	147.240000
250.412827	147.440000
250.505692	147.380000
250.598541	147.280000
250.691391	147.100000
250.784241	146.980000
250.877106	146.860000
250.969955	146.840000
251.062805	147.640000
251.155670	147.840000
251.248520	147.620000
251.341385	148.020000
251.434235	148.200000
251.527100	147.480000
251.619965	147.180000
251.712814	148.160000
251.805695	147.840000
251.898560	148.020000
251.991425	148.140000
252.084290	148.040000
252.177155	147.240000
252.270020	147.080000
252.362885	146.960000
252.455750	147.180000
252.548615	146.900000
252.641479	146.700000
252.734360	146.520000
252.827240	146.360000
252.920105	146.220000
253.012970	146.480000
253.105850	146.860000
253.198715	146.600000
253.291595	146.940000
253.384460	146.540000
253.477341	146.460000
253.570221	146.420000
253.663086	146.760000
253.755966	147.080000
253.848846	147.140000
253.941727	147.500000
254.034592	147.440000
254.127472	147.160000
254.220367	147.160000
254.313248	147.180000
254.406128	146.580000
254.499008	146.860000
254.591904	147.700000
254.684784	148.160000
254.777664	148.240000
254.870544	148.220000
254.963440	148.120000
255.056335	148.000000
255.149216	147.180000
255.242111	147.520000
255.334991	148.040000
255.427887	148.060000
255.520767	148.200000
255.613663	148.440000
255.706558	147.860000
255.799438	147.460000
255.892334	147.380000
255.985229	146.880000
256.078125	146.840000
256.171021	147.080000
256.263916	147.640000
256.356812	147.840000
256.449707	148.080000
256.542603	147.760000
256.635498	148.120000
256.728394	147.640000
256.821289	147.160000
256.914215	147.280000
257.007080	147.600000
257.100006	147.480000
257.192932	148.060000
257.285828	148.200000
257.378723	147.940000
257.471619	147.800000
257.564545	147.340000
257.657440	147.200000
257.750336	147.880000
257.843262	147.660000
257.936157	148.460000
258.029053	148.940000
258.121979	148.860000
258.214874	148.360000
258.307800	148.320000
258.400696	147.500000
258.493622	147.200000
258.586517	146.540000
258.679443	146.860000
258.772339	146.480000
258.865265	146.120000
258.958160	145.900000
259.051086	146.740000
259.144012	146.300000
259.236938	147.320000
259.329834	147.740000
259.422791	147.680000
259.515717	147.100000
259.608612	147.080000
259.701538	147.080000
259.794464	147.220000
259.887390	147.400000
259.980316	147.460000
260.073212	147.260000
260.166138	146.180000
260.259064	146.080000
260.351990	146.400000
260.444916	146.560000
260.537842	146.880000
260.630768	147.720000
260.723694	147.640000
260.816620	147.500000
260.909546	147.320000
261.002472	147.040000
261.095398	146.360000
261.188354	146.360000
261.281281	146.200000
261.374207	146.260000
261.467133	147.260000
261.560089	147.900000
261.653015	147.540000
261.745972	147.920000
261.838867	148.240000
261.931824	147.920000
262.024780	147.080000
262.117706	147.460000
262.210663	147.440000
262.303589	147.320000
262.396515	147.040000
262.489471	147.980000
262.582397	147.940000
262.675354	147.440000
262.768280	147.600000
262.861237	147.680000
262.954163	147.480000
263.047119	147.560000
263.140045	147.300000
263.233002	147.240000
263.325958	147.140000
263.418884	146.660000
263.511841	146.580000
263.604797	146.840000
263.697723	146.540000
263.790680	146.320000
263.883636	147.140000
263.976593	146.760000
264.069550	146.820000
264.162476	146.540000
264.255463	146.940000
264.348419	146.600000
264.441376	147.360000
264.534332	147.020000
264.627289	147.400000
264.720245	147.320000
264.813202	146.580000
264.906158	146.280000
264.999115	147.140000
265.092072	147.120000
265.185028	147.440000
265.277985	147.980000
265.370941	147.920000
265.463898	147.160000
265.556854	146.800000
265.649811	146.240000
265.742798	146.360000
265.835754	146.320000
265.928711	147.000000
266.021667	147.200000
266.114655	147.420000
266.207611	147.740000
266.300568	147.360000
266.393585	146.620000
266.486511	147.040000
266.579498	146.140000
266.672485	145.800000
266.765442	145.900000
266.858429	146.760000
266.951385	146.280000
267.044342	147.000000
267.137329	146.940000
267.230316	147.360000
267.323273	146.840000
267.416260	147.340000
267.509216	147.200000
267.602203	147.180000
267.695160	147.320000
267.788147	147.220000
267.881134	146.620000
267.974091	146.720000
268.067078	146.660000
268.160065	145.960000
268.253052	146.180000
268.346008	146.380000
268.438995	146.100000
268.531982	146.080000
268.624969	146.380000
268.717987	146.560000
268.810944	146.460000
268.903961	146.660000
268.996948	146.600000
269.089905	147.180000
269.182892	147.120000
269.275879	147.380000
269.368866	147.100000
269.461853	147.440000
269.554871	146.800000
269.647858	146.860000
269.740845	147.140000
269.833832	147.620000
269.926819	147.120000
270.019806	147.380000
270.112793	146.760000
270.205811	146.680000
270.298798	146.360000
270.391785	147.200000
270.484772	146.880000
270.577789	147.160000
270.670776	147.040000
270.763763	147.100000
270.856750	146.760000
270.949768	146.680000
271.042786	146.940000
271.135773	146.880000
271.228790	147.060000
271.321808	146.540000
271.414795	146.020000
271.507782	145.740000
271.600800	145.260000
271.693817	145.340000
271.786804	146.080000
271.879822	147.020000
271.972809	147.080000
272.065826	147.760000
272.158844	147.640000
272.251831	147.820000
272.344849	147.540000
272.437866	147.280000
272.530853	147.300000
272.623871	147.560000
272.716888	146.720000
272.809906	147.040000
272.902893	147.200000
272.995911	146.500000
273.088928	146.220000
273.181946	146.520000
273.274963	146.120000
273.367981	145.820000
273.460999	146.120000
273.554047	146.720000
273.647003	147.180000
273.740051	147.260000
273.833069	147.900000
273.926086	148.040000
274.019135	147.460000
274.112152	146.800000
274.205170	147.020000
274.298187	147.140000
274.391205	146.720000
274.484222	146.780000
274.577240	147.040000
274.670258	146.560000
274.763306	146.260000
274.856323	146.960000
274.949341	146.840000
275.042358	147.160000
275.135406	147.420000
275.228424	147.340000
275.321442	147.160000
275.414490	146.960000
275.507507	147.060000
275.600525	147.480000
275.693573	146.920000
275.786591	146.460000
275.879669	146.900000
275.972656	146.380000
276.065735	145.980000
276.158752	146.800000
276.251801	147.520000
276.344818	147.680000
276.437866	147.800000
276.530884	147.880000
276.623932	147.360000
276.716980	147.580000
276.809998	147.380000
276.903046	147.380000
276.996094	147.740000
277.089111	148.300000
277.182159	148.420000
277.275208	148.020000
277.368256	147.840000
277.461304	147.440000
277.554321	146.880000
277.647369	146.440000
277.740417	146.440000
277.833466	146.480000
277.926514	146.600000
278.019562	147.380000
278.112610	146.760000
278.205688	147.220000
278.298706	147.280000
278.391785	147.040000
278.484833	146.220000
278.577881	146.520000
278.670929	146.420000
278.763977	146.820000
278.857025	147.400000
278.950073	147.600000
279.043121	147.400000
279.136169	147.440000
279.229248	146.820000
279.322296	146.640000
279.415344	146.580000
279.508392	146.540000
279.601440	146.380000
279.694519	146.520000
279.787567	146.280000
279.880615	146.100000
279.973694	146.160000
280.066742	146.280000
280.159790	146.540000
280.252869	146.300000
280.345917	146.700000
280.438995	146.540000
280.532074	146.400000
280.625122	146.640000
280.718201	147.460000
280.811279	147.300000
280.904327	147.500000
280.997406	147.560000
281.090454	147.480000
281.183533	146.740000
281.276581	146.780000
281.369659	146.680000
281.462738	146.800000
281.555786	146.560000
281.648865	146.880000
281.741943	146.760000
281.835022	147.220000
281.928070	146.820000
282.021149	146.800000
282.114227	146.620000
282.207306	146.720000
282.300385	146.680000
282.393433	147.080000
282.486511	147.020000
282.579590	147.460000
282.672668	147.800000
282.765747	147.440000
282.858856	146.940000
282.951904	147.280000
283.045013	147.120000
283.138062	146.940000
283.231171	147.260000
283.324249	147.800000
283.417328	147.620000
283.510406	147.620000
283.603485	147.500000
283.696564	147.460000
283.789642	147.640000
283.882751	147.220000
283.975830	147.840000
284.068909	147.500000
284.161987	147.780000
284.255066	147.100000
284.348175	147.540000
284.441254	146.760000
284.534332	147.440000
284.627441	147.060000
284.720520	146.820000
284.813599	146.900000
284.906708	146.980000
284.999786	146.160000
285.092896	145.840000
285.185974	146.960000
285.279053	146.360000
285.372192	146.120000
285.465240	147.260000
285.558380	147.520000
285.651459	146.900000
285.744568	147.940000
285.837677	147.820000
285.930756	147.100000
286.023865	147.220000
286.116943	147.160000
286.210052	147.040000
286.303162	147.140000
286.396240	147.420000
286.489349	147.260000
286.582458	147.140000
286.675568	146.580000
286.768646	146.620000
286.861755	146.620000
286.954865	147.180000
287.047974	146.860000
287.141083	146.780000
287.234161	146.760000
287.327271	146.500000
287.420380	146.780000
287.513519	147.180000
287.606598	147.320000
287.699738	147.660000
287.792816	147.800000
287.885956	147.540000
287.979034	147.600000
288.072174	147.420000
288.165283	147.220000
288.258392	147.400000
288.351501	146.500000
288.444611	146.620000
288.537720	147.120000
288.630859	147.040000
288.723969	147.000000
288.817078	147.760000
288.910187	147.620000
289.003296	147.220000
289.096436	147.080000
289.189545	146.900000
289.282654	146.220000
289.375763	146.680000
289.468903	147.120000
289.562012	147.480000
289.655121	147.580000
289.748260	148.280000
289.841400	148.320000
289.934509	148.080000
290.027649	148.120000
290.120728	148.120000
290.213898	147.600000
290.306976	147.420000
290.400146	147.220000
290.493256	146.600000
290.586395	146.740000
290.679535	147.240000
290.772644	146.860000
290.865784	146.300000
290.958893	146.640000
291.052032	146.360000
291.145172	145.920000
291.238281	145.800000
291.331421	146.220000
291.424561	146.680000
291.517670	146.460000
291.610809	146.840000
291.703949	146.960000
291.797089	147.300000
291.890228	146.600000
291.983337	146.480000
292.076477	146.060000
292.169617	146.500000
292.262756	146.440000
292.355927	146.460000
292.449036	146.560000
292.542206	146.720000
292.635315	146.660000
292.728485	146.820000
292.821625	146.700000
292.914764	147.880000
293.007904	148.080000
293.101044	147.860000
293.194183	147.460000
293.287323	147.620000
293.380463	146.640000
293.473602	146.620000
293.566742	146.980000
293.659882	147.640000
293.753021	147.900000
293.846191	147.960000
293.939331	147.720000
294.032471	147.180000
294.125610	146.780000
294.218781	147.040000
294.311920	147.200000
294.405060	147.180000
294.498230	147.120000
294.591370	147.140000
294.684540	146.540000
294.777679	146.140000
294.870850	146.280000
294.963959	146.280000
295.057159	146.080000
295.150299	146.520000
295.243469	146.520000
295.336609	146.220000
295.429779	146.480000
295.522919	146.860000
295.616089	146.900000
295.709229	147.580000
295.802399	147.920000
295.895569	147.500000
295.988708	147.100000
296.081879	147.200000
296.175018	146.800000
296.268188	146.920000
296.361359	147.440000
296.454529	147.820000
296.547668	147.340000
296.640839	147.480000
296.734009	146.760000
296.827179	146.880000
296.920319	147.020000
297.013519	147.180000
297.106659	147.000000
297.199860	147.480000
297.292999	147.320000
297.386200	146.900000
297.479309	146.800000
297.572510	146.780000
297.665680	146.300000
297.758850	146.460000
297.852020	146.500000
297.945190	146.580000
298.038361	146.520000
298.131531	147.480000
298.224701	147.260000
298.317871	147.100000
298.411072	146.740000
298.504242	146.580000
298.597412	145.940000
298.690582	146.180000
298.783752	146.560000
298.876923	147.200000
298.970093	147.460000
299.063293	148.000000
299.156464	148.060000
299.249634	147.920000
299.342834	147.800000
299.436005	148.020000
299.529205	147.780000
299.622345	147.780000
299.715576	147.400000
299.808716	146.880000
299.901917	146.500000
299.995117	146.880000
300.088287	146.660000
300.181488	146.560000
300.274658	146.820000
300.367828	147.200000
300.461029	146.940000
300.554199	147.620000
300.647400	148.220000
300.740601	148.620000
300.833771	148.320000
300.926971	148.540000
301.020142	147.520000
301.113342	147.280000
301.206512	147.200000
301.299713	147.400000
301.392914	147.300000
301.486084	147.840000
301.579285	147.840000
301.672516	148.200000
301.765686	148.060000
301.858887	148.080000
301.952057	147.960000
302.045288	147.940000
302.138458	147.240000
302.231659	147.000000
302.324860	146.880000
302.418060	146.640000
302.511261	146.620000
302.604462	147.300000
302.697662	147.460000
302.790863	146.880000
302.884064	146.460000
302.977264	146.400000
303.070465	146.240000
303.163666	146.900000
303.256866	147.600000
303.350067	148.100000
303.443268	148.220000
303.536469	148.400000
303.629669	147.820000
303.722870	147.660000
303.816071	147.680000
303.909271	147.420000
304.002472	146.680000
304.095673	146.540000
304.188934	145.800000
304.282104	146.700000
304.375336	146.880000
304.468506	146.980000
304.561768	147.080000
304.654968	147.920000
304.748169	147.220000
304.841370	146.920000
304.934601	147.100000
305.027802	146.800000
305.121002	146.700000
305.214233	146.340000
305.307434	146.600000
305.400665	147.260000
305.493866	147.340000
