Model Number: SPM-002-B   
Serial Number: 70087108
Firmware Version: 004.15.4
Exposure Time: 100000.000000us
Data Taken on: 11-12-2020 19:28:05.269
Wavelength	Amplitude
221.570786	0.000000
221.663406	0.000000
221.756027	0.000000
221.848648	0.000000
221.941269	0.000000
222.033905	0.000000
222.126526	0.000000
222.219162	0.000000
222.311798	0.000000
222.404419	0.000000
222.497055	0.000000
222.589676	0.000000
222.682312	0.000000
222.774933	0.000000
222.867569	0.000000
222.960205	0.000000
223.052841	0.000000
223.145462	0.000000
223.238098	0.000000
223.330734	0.000000
223.423386	0.000000
223.516022	0.000000
223.608658	0.000000
223.701309	0.000000
223.793945	0.000000
223.886581	0.000000
223.979218	0.000000
224.071869	0.000000
224.164505	0.000000
224.257156	0.000000
224.349792	0.000000
224.442444	0.000000
224.535095	0.000000
224.627747	0.000000
224.720398	0.000000
224.813034	0.000000
224.905685	0.000000
224.998337	146.220000
225.090988	146.220000
225.183640	146.240000
225.276291	145.920000
225.368942	146.540000
225.461594	146.820000
225.554245	147.260000
225.646912	147.080000
225.739578	147.720000
225.832230	147.960000
225.924896	147.060000
226.017548	147.200000
226.110199	148.000000
226.202866	147.140000
226.295532	146.740000
226.388184	147.320000
226.480850	146.560000
226.573517	145.860000
226.666168	146.340000
226.758835	146.600000
226.851501	146.740000
226.944183	147.300000
227.036850	146.980000
227.129517	146.900000
227.222183	146.860000
227.314850	146.880000
227.407516	147.060000
227.500198	148.120000
227.592865	147.640000
227.685532	147.360000
227.778214	147.400000
227.870880	147.520000
227.963562	147.520000
228.056229	148.280000
228.148926	148.260000
228.241592	148.700000
228.334274	148.300000
228.426956	147.740000
228.519638	147.520000
228.612305	147.220000
228.704987	146.900000
228.797668	147.080000
228.890350	147.000000
228.983032	146.760000
229.075714	147.240000
229.168396	146.780000
229.261108	146.320000
229.353790	146.700000
229.446472	147.020000
229.539169	146.660000
229.631851	146.740000
229.724533	147.160000
229.817230	147.000000
229.909912	147.880000
230.002609	148.420000
230.095306	148.280000
230.187988	148.200000
230.280685	148.300000
230.373383	147.000000
230.466095	146.460000
230.558792	146.760000
230.651474	146.700000
230.744171	146.660000
230.836868	146.860000
230.929581	147.260000
231.022278	147.240000
231.114975	147.300000
231.207672	146.620000
231.300369	147.040000
231.393082	147.180000
231.485779	147.080000
231.578506	147.200000
231.671204	147.860000
231.763916	147.400000
231.856613	146.900000
231.949326	147.180000
232.042023	146.980000
232.134735	146.820000
232.227448	146.940000
232.320160	147.300000
232.412872	147.440000
232.505585	148.240000
232.598297	148.460000
232.691010	148.120000
232.783722	147.840000
232.876450	148.080000
232.969162	147.360000
233.061874	147.140000
233.154587	147.260000
233.247314	147.780000
233.340027	147.040000
233.432739	147.580000
233.525467	147.760000
233.618179	148.180000
233.710907	147.700000
233.803635	148.060000
233.896347	147.620000
233.989090	147.940000
234.081818	147.480000
234.174545	147.980000
234.267258	147.640000
234.359985	147.820000
234.452713	147.420000
234.545441	147.300000
234.638168	147.040000
234.730896	147.900000
234.823639	148.000000
234.916367	148.120000
235.009094	148.600000
235.101822	148.360000
235.194580	147.600000
235.287308	147.480000
235.380051	146.960000
235.472778	147.160000
235.565521	147.560000
235.658249	147.460000
235.750992	147.400000
235.843719	147.780000
235.936462	147.640000
236.029205	146.980000
236.121948	146.740000
236.214691	146.740000
236.307449	147.240000
236.400192	146.940000
236.492935	147.040000
236.585678	147.160000
236.678421	147.300000
236.771164	146.960000
236.863907	147.740000
236.956665	148.260000
237.049408	149.820000
237.142151	149.540000
237.234909	150.120000
237.327652	149.860000
237.420410	149.220000
237.513153	148.320000
237.605927	148.140000
237.698669	147.440000
237.791428	146.660000
237.884186	147.440000
237.976944	146.860000
238.069702	147.300000
238.162445	146.960000
238.255203	147.480000
238.347961	147.620000
238.440720	147.880000
238.533478	147.540000
238.626266	147.320000
238.719025	147.400000
238.811783	146.860000
238.904541	146.720000
238.997314	146.740000
239.090073	146.660000
239.182831	146.800000
239.275604	147.360000
239.368362	146.860000
239.461136	146.900000
239.553909	147.180000
239.646667	146.860000
239.739441	146.380000
239.832214	146.980000
239.925003	147.080000
240.017761	147.860000
240.110535	148.300000
240.203308	148.160000
240.296082	148.320000
240.388855	147.900000
240.481628	147.460000
240.574417	147.180000
240.667191	147.140000
240.759964	146.620000
240.852737	147.040000
240.945526	146.780000
241.038315	146.740000
241.131088	147.260000
241.223877	147.440000
241.316650	146.960000
241.409439	147.280000
241.502228	146.860000
241.595001	147.180000
241.687790	147.180000
241.780579	147.400000
241.873367	147.580000
241.966141	148.040000
242.058929	146.940000
242.151718	147.220000
242.244507	147.860000
242.337311	146.940000
242.430099	147.120000
242.522903	147.620000
242.615692	147.200000
242.708481	146.800000
242.801270	147.600000
242.894073	147.320000
242.986862	147.300000
243.079651	147.960000
243.172455	147.760000
243.265244	148.020000
243.358063	147.480000
243.450867	147.600000
243.543655	147.400000
243.636459	147.420000
243.729263	147.080000
243.822067	147.920000
243.914856	148.340000
244.007660	148.220000
244.100464	148.160000
244.193268	148.280000
244.286072	147.700000
244.378876	146.920000
244.471680	146.860000
244.564499	147.240000
244.657318	147.740000
244.750122	148.200000
244.842926	147.980000
244.935745	148.240000
245.028549	148.120000
245.121368	147.500000
245.214172	147.400000
245.306992	148.000000
245.399796	147.700000
245.492615	147.380000
245.585434	147.400000
245.678253	147.280000
245.771072	147.020000
245.863892	147.280000
245.956711	147.460000
246.049530	147.220000
246.142349	146.920000
246.235168	147.280000
246.327988	147.680000
246.420807	147.580000
246.513626	147.880000
246.606445	148.160000
246.699280	148.120000
246.792099	147.880000
246.884918	147.340000
246.977753	146.780000
247.070587	146.780000
247.163422	146.720000
247.256241	146.740000
247.349075	147.580000
247.441895	147.780000
247.534729	148.140000
247.627563	147.760000
247.720383	148.080000
247.813217	148.020000
247.906052	147.940000
247.998886	147.240000
248.091736	147.360000
248.184570	146.820000
248.277405	146.640000
248.370239	147.700000
248.463074	148.900000
248.555908	149.360000
248.648743	149.300000
248.741592	149.500000
248.834427	148.620000
248.927261	147.460000
249.020111	147.740000
249.112946	148.240000
249.205795	147.900000
249.298630	148.080000
249.391495	148.280000
249.484344	147.660000
249.577179	147.460000
249.670029	147.680000
249.762878	148.040000
249.855728	148.140000
249.948563	148.160000
250.041412	147.560000
250.134262	147.700000
250.227112	147.340000
250.319962	147.520000
250.412827	147.520000
250.505692	147.400000
250.598541	147.360000
250.691391	147.140000
250.784241	146.920000
250.877106	147.000000
250.969955	147.160000
251.062805	147.640000
251.155670	148.080000
251.248520	148.140000
251.341385	148.160000
251.434235	148.160000
251.527100	147.720000
251.619965	147.300000
251.712814	148.020000
251.805695	148.060000
251.898560	148.180000
251.991425	148.440000
252.084290	148.720000
252.177155	147.940000
252.270020	147.620000
252.362885	147.640000
252.455750	147.140000
252.548615	146.920000
252.641479	146.880000
252.734360	146.780000
252.827240	146.740000
252.920105	147.020000
253.012970	146.740000
253.105850	146.580000
253.198715	146.460000
253.291595	146.200000
253.384460	145.960000
253.477341	146.060000
253.570221	146.240000
253.663086	146.440000
253.755966	147.520000
253.848846	147.380000
253.941727	148.060000
254.034592	148.100000
254.127472	147.460000
254.220367	146.920000
254.313248	146.980000
254.406128	146.240000
254.499008	146.540000
254.591904	147.740000
254.684784	148.080000
254.777664	148.220000
254.870544	148.020000
254.963440	147.820000
255.056335	147.500000
255.149216	146.900000
255.242111	147.560000
255.334991	148.260000
255.427887	148.300000
255.520767	148.340000
255.613663	148.820000
255.706558	147.700000
255.799438	147.540000
255.892334	147.320000
255.985229	146.960000
256.078125	146.640000
256.171021	147.200000
256.263916	147.520000
256.356812	147.740000
256.449707	148.040000
256.542603	147.680000
256.635498	148.140000
256.728394	147.680000
256.821289	147.380000
256.914215	147.600000
257.007080	147.880000
257.100006	147.720000
257.192932	148.240000
257.285828	148.640000
257.378723	148.120000
257.471619	148.040000
257.564545	147.560000
257.657440	147.440000
257.750336	147.360000
257.843262	147.300000
257.936157	148.240000
258.029053	148.380000
258.121979	148.240000
258.214874	148.140000
258.307800	148.040000
258.400696	147.300000
258.493622	147.100000
258.586517	146.540000
258.679443	146.520000
258.772339	146.220000
258.865265	145.900000
258.958160	146.060000
259.051086	147.040000
259.144012	146.840000
259.236938	147.980000
259.329834	148.120000
259.422791	147.980000
259.515717	147.320000
259.608612	147.400000
259.701538	146.940000
259.794464	147.180000
259.887390	147.100000
259.980316	146.940000
260.073212	146.920000
260.166138	146.080000
260.259064	146.220000
260.351990	146.700000
260.444916	146.600000
260.537842	147.000000
260.630768	148.280000
260.723694	147.920000
260.816620	147.580000
260.909546	147.680000
261.002472	147.140000
261.095398	146.260000
261.188354	146.300000
261.281281	145.900000
261.374207	146.000000
261.467133	146.900000
261.560089	147.300000
261.653015	147.060000
261.745972	147.980000
261.838867	148.520000
261.931824	148.440000
262.024780	148.060000
262.117706	148.340000
262.210663	147.940000
262.303589	147.600000
262.396515	147.280000
262.489471	148.180000
262.582397	148.220000
262.675354	148.020000
262.768280	148.040000
262.861237	147.980000
262.954163	147.700000
263.047119	147.860000
263.140045	147.980000
263.233002	147.480000
263.325958	147.420000
263.418884	146.920000
263.511841	146.560000
263.604797	146.400000
263.697723	146.880000
263.790680	146.800000
263.883636	147.280000
263.976593	147.340000
264.069550	147.540000
264.162476	147.200000
264.255463	147.040000
264.348419	146.560000
264.441376	146.800000
264.534332	146.500000
264.627289	146.720000
264.720245	147.540000
264.813202	147.380000
264.906158	147.360000
264.999115	147.580000
265.092072	147.820000
265.185028	147.800000
265.277985	148.020000
265.370941	147.980000
265.463898	148.040000
265.556854	147.480000
265.649811	146.520000
265.742798	146.660000
265.835754	146.580000
265.928711	147.120000
266.021667	147.480000
266.114655	147.940000
266.207611	148.280000
266.300568	147.660000
266.393585	146.900000
266.486511	147.360000
266.579498	146.800000
266.672485	146.460000
266.765442	146.800000
266.858429	147.320000
266.951385	146.480000
267.044342	146.920000
267.137329	146.600000
267.230316	147.060000
267.323273	146.780000
267.416260	147.800000
267.509216	147.840000
267.602203	148.100000
267.695160	148.140000
267.788147	148.060000
267.881134	147.260000
267.974091	147.020000
268.067078	146.820000
268.160065	146.760000
268.253052	146.400000
268.346008	146.680000
268.438995	146.800000
268.531982	147.160000
268.624969	146.880000
268.717987	147.520000
268.810944	147.280000
268.903961	147.220000
268.996948	146.940000
269.089905	147.240000
269.182892	147.440000
269.275879	147.820000
269.368866	147.500000
269.461853	147.900000
269.554871	147.920000
269.647858	147.740000
269.740845	147.900000
269.833832	148.520000
269.926819	148.180000
270.019806	148.060000
270.112793	147.400000
270.205811	147.360000
270.298798	147.000000
270.391785	147.700000
270.484772	147.120000
270.577789	147.560000
270.670776	147.000000
270.763763	146.860000
270.856750	146.520000
270.949768	146.700000
271.042786	146.740000
271.135773	146.940000
271.228790	147.180000
271.321808	146.580000
271.414795	146.220000
271.507782	145.620000
271.600800	145.040000
271.693817	145.020000
271.786804	145.820000
271.879822	146.360000
271.972809	146.740000
272.065826	147.840000
272.158844	147.680000
272.251831	147.840000
272.344849	147.820000
272.437866	147.560000
272.530853	147.180000
272.623871	147.660000
272.716888	146.480000
272.809906	146.700000
272.902893	146.960000
272.995911	146.300000
273.088928	146.280000
273.181946	146.660000
273.274963	146.300000
273.367981	146.300000
273.460999	147.080000
273.554047	147.280000
273.647003	148.000000
273.740051	148.180000
273.833069	148.340000
273.926086	148.240000
274.019135	147.880000
274.112152	147.560000
274.205170	147.440000
274.298187	147.640000
274.391205	147.100000
274.484222	146.880000
274.577240	146.680000
274.670258	146.720000
274.763306	146.420000
274.856323	147.080000
274.949341	147.540000
275.042358	148.020000
275.135406	148.080000
275.228424	148.120000
275.321442	147.820000
275.414490	147.100000
275.507507	147.340000
275.600525	147.720000
275.693573	147.720000
275.786591	147.360000
275.879669	148.060000
275.972656	147.220000
276.065735	146.780000
276.158752	147.200000
276.251801	147.960000
276.344818	147.620000
276.437866	148.180000
276.530884	148.220000
276.623932	147.500000
276.716980	147.500000
276.809998	147.680000
276.903046	147.420000
276.996094	148.320000
277.089111	149.180000
277.182159	149.560000
277.275208	149.320000
277.368256	149.340000
277.461304	148.480000
277.554321	147.580000
277.647369	147.220000
277.740417	147.160000
277.833466	147.060000
277.926514	147.100000
278.019562	147.680000
278.112610	147.080000
278.205688	147.620000
278.298706	147.480000
278.391785	147.340000
278.484833	146.960000
278.577881	147.000000
278.670929	146.680000
278.763977	146.780000
278.857025	147.100000
278.950073	147.060000
279.043121	147.040000
279.136169	146.940000
279.229248	146.480000
279.322296	146.600000
279.415344	146.340000
279.508392	146.260000
279.601440	146.520000
279.694519	146.540000
279.787567	146.280000
279.880615	146.500000
279.973694	146.480000
280.066742	146.320000
280.159790	146.880000
280.252869	146.420000
280.345917	146.660000
280.438995	146.780000
280.532074	146.720000
280.625122	146.980000
280.718201	148.060000
280.811279	148.260000
280.904327	148.340000
280.997406	148.440000
281.090454	148.380000
281.183533	147.360000
281.276581	147.240000
281.369659	146.980000
281.462738	147.100000
281.555786	147.100000
281.648865	147.340000
281.741943	147.060000
281.835022	147.920000
281.928070	147.440000
282.021149	147.200000
282.114227	147.420000
282.207306	147.640000
282.300385	147.560000
282.393433	148.060000
282.486511	147.920000
282.579590	148.180000
282.672668	148.340000
282.765747	147.600000
282.858856	147.220000
282.951904	147.600000
283.045013	147.560000
283.138062	147.580000
283.231171	148.140000
283.324249	148.580000
283.417328	148.420000
283.510406	148.160000
283.603485	147.860000
283.696564	147.700000
283.789642	147.540000
283.882751	147.120000
283.975830	147.460000
284.068909	147.160000
284.161987	147.320000
284.255066	146.840000
284.348175	147.400000
284.441254	147.140000
284.534332	147.640000
284.627441	147.360000
284.720520	147.320000
284.813599	147.180000
284.906708	147.220000
284.999786	146.720000
285.092896	146.160000
285.185974	147.240000
285.279053	146.780000
285.372192	146.900000
285.465240	147.500000
285.558380	147.820000
285.651459	147.420000
285.744568	148.520000
285.837677	147.880000
285.930756	147.900000
286.023865	148.080000
286.116943	147.520000
286.210052	146.900000
286.303162	147.280000
286.396240	147.220000
286.489349	146.880000
286.582458	147.280000
286.675568	147.220000
286.768646	147.100000
286.861755	147.200000
286.954865	147.980000
287.047974	147.400000
287.141083	147.560000
287.234161	147.400000
287.327271	147.160000
287.420380	147.340000
287.513519	147.380000
287.606598	147.060000
287.699738	147.480000
287.792816	147.280000
287.885956	146.820000
287.979034	147.160000
288.072174	147.340000
288.165283	147.000000
288.258392	147.360000
288.351501	146.820000
288.444611	146.980000
288.537720	147.340000
288.630859	147.460000
288.723969	147.360000
288.817078	147.860000
288.910187	147.620000
289.003296	146.920000
289.096436	146.780000
289.189545	146.580000
289.282654	146.220000
289.375763	146.840000
289.468903	147.240000
289.562012	147.600000
289.655121	147.740000
289.748260	147.980000
289.841400	148.040000
289.934509	147.900000
290.027649	148.080000
290.120728	147.840000
290.213898	147.840000
290.306976	147.380000
290.400146	147.300000
290.493256	146.820000
290.586395	146.920000
290.679535	147.440000
290.772644	147.220000
290.865784	146.360000
290.958893	146.120000
291.052032	146.180000
291.145172	145.660000
291.238281	145.440000
291.331421	146.400000
291.424561	147.260000
291.517670	147.180000
291.610809	147.680000
291.703949	147.800000
291.797089	147.840000
291.890228	147.040000
291.983337	146.760000
292.076477	146.120000
292.169617	146.440000
292.262756	146.480000
292.355927	146.700000
292.449036	147.060000
292.542206	147.220000
292.635315	147.360000
292.728485	147.480000
292.821625	147.040000
292.914764	147.940000
293.007904	148.000000
293.101044	147.980000
293.194183	147.820000
293.287323	148.480000
293.380463	147.760000
293.473602	147.700000
293.566742	147.940000
293.659882	148.400000
293.753021	148.160000
293.846191	148.200000
293.939331	147.880000
294.032471	147.580000
294.125610	147.120000
294.218781	147.480000
294.311920	147.820000
294.405060	148.380000
294.498230	148.420000
294.591370	148.500000
294.684540	148.040000
294.777679	147.200000
294.870850	147.340000
294.963959	147.140000
295.057159	146.860000
295.150299	147.240000
295.243469	147.520000
295.336609	146.780000
295.429779	146.760000
295.522919	147.280000
295.616089	147.080000
295.709229	147.580000
295.802399	148.080000
295.895569	147.900000
295.988708	147.540000
296.081879	147.600000
296.175018	146.880000
296.268188	146.860000
296.361359	147.660000
296.454529	147.940000
296.547668	147.880000
296.640839	148.460000
296.734009	148.480000
296.827179	148.300000
296.920319	148.540000
297.013519	148.300000
297.106659	148.300000
297.199860	148.320000
297.292999	147.920000
297.386200	147.140000
297.479309	147.340000
297.572510	147.140000
297.665680	146.660000
297.758850	147.140000
297.852020	147.320000
297.945190	146.860000
298.038361	146.440000
298.131531	147.300000
298.224701	146.580000
298.317871	146.260000
298.411072	146.160000
298.504242	146.160000
298.597412	145.380000
298.690582	145.680000
298.783752	146.120000
298.876923	146.800000
298.970093	146.900000
299.063293	147.480000
299.156464	147.640000
299.249634	147.660000
299.342834	147.760000
299.436005	148.400000
299.529205	148.200000
299.622345	148.260000
299.715576	147.780000
299.808716	147.300000
299.901917	146.660000
299.995117	146.780000
300.088287	146.800000
300.181488	146.960000
300.274658	147.280000
300.367828	147.500000
300.461029	147.480000
300.554199	147.700000
300.647400	147.440000
300.740601	147.920000
300.833771	147.780000
300.926971	147.880000
301.020142	147.240000
301.113342	147.600000
301.206512	146.900000
301.299713	147.240000
301.392914	147.100000
301.486084	147.320000
301.579285	147.140000
301.672516	147.880000
301.765686	147.680000
301.858887	147.580000
301.952057	147.860000
302.045288	148.120000
302.138458	147.940000
302.231659	147.760000
302.324860	147.620000
302.418060	147.220000
302.511261	147.300000
302.604462	147.220000
302.697662	146.980000
302.790863	147.160000
302.884064	146.800000
302.977264	146.580000
303.070465	146.700000
303.163666	147.820000
303.256866	148.180000
303.350067	148.660000
303.443268	148.800000
303.536469	148.920000
303.629669	148.300000
303.722870	148.060000
303.816071	147.800000
303.909271	147.760000
304.002472	146.720000
304.095673	146.300000
304.188934	145.440000
304.282104	146.220000
304.375336	146.020000
304.468506	146.440000
304.561768	146.340000
304.654968	147.220000
304.748169	146.540000
304.841370	146.480000
304.934601	146.780000
305.027802	146.900000
305.121002	146.440000
305.214233	146.480000
305.307434	146.800000
305.400665	147.240000
305.493866	146.980000
