Model Number: SPM-002-B   
Serial Number: 70087108
Firmware Version: 004.15.4
Exposure Time: 100000.000000us
Data Taken on: 11-12-2020 19:28:18.108
Wavelength	Amplitude
221.570786	0.000000
221.663406	0.000000
221.756027	0.000000
221.848648	0.000000
221.941269	0.000000
222.033905	0.000000
222.126526	0.000000
222.219162	0.000000
222.311798	0.000000
222.404419	0.000000
222.497055	0.000000
222.589676	0.000000
222.682312	0.000000
222.774933	0.000000
222.867569	0.000000
222.960205	0.000000
223.052841	0.000000
223.145462	0.000000
223.238098	0.000000
223.330734	0.000000
223.423386	0.000000
223.516022	0.000000
223.608658	0.000000
223.701309	0.000000
223.793945	0.000000
223.886581	0.000000
223.979218	0.000000
224.071869	0.000000
224.164505	0.000000
224.257156	0.000000
224.349792	0.000000
224.442444	0.000000
224.535095	0.000000
224.627747	0.000000
224.720398	0.000000
224.813034	0.000000
224.905685	0.000000
224.998337	144.980000
225.090988	144.700000
225.183640	144.720000
225.276291	144.740000
225.368942	145.460000
225.461594	146.040000
225.554245	146.480000
225.646912	146.240000
225.739578	146.520000
225.832230	146.860000
225.924896	145.920000
226.017548	145.940000
226.110199	146.700000
226.202866	145.980000
226.295532	145.740000
226.388184	145.720000
226.480850	145.320000
226.573517	144.720000
226.666168	145.160000
226.758835	145.520000
226.851501	146.200000
226.944183	146.280000
227.036850	145.660000
227.129517	145.680000
227.222183	145.540000
227.314850	145.800000
227.407516	146.340000
227.500198	147.500000
227.592865	147.140000
227.685532	146.580000
227.778214	146.060000
227.870880	145.820000
227.963562	145.980000
228.056229	146.560000
228.148926	146.780000
228.241592	147.620000
228.334274	147.580000
228.426956	147.040000
228.519638	146.840000
228.612305	146.520000
228.704987	146.080000
228.797668	145.900000
228.890350	145.980000
228.983032	145.560000
229.075714	145.920000
229.168396	145.480000
229.261108	145.440000
229.353790	145.280000
229.446472	145.720000
229.539169	145.500000
229.631851	145.620000
229.724533	145.840000
229.817230	145.940000
229.909912	146.620000
230.002609	146.760000
230.095306	146.760000
230.187988	146.660000
230.280685	146.740000
230.373383	145.720000
230.466095	145.640000
230.558792	145.680000
230.651474	145.660000
230.744171	145.500000
230.836868	145.540000
230.929581	145.520000
231.022278	145.480000
231.114975	145.680000
231.207672	145.440000
231.300369	145.700000
231.393082	146.040000
231.485779	146.040000
231.578506	145.620000
231.671204	145.980000
231.763916	145.980000
231.856613	145.980000
231.949326	146.300000
232.042023	146.200000
232.134735	146.020000
232.227448	145.760000
232.320160	145.820000
232.412872	145.580000
232.505585	146.400000
232.598297	146.680000
232.691010	146.600000
232.783722	146.340000
232.876450	146.660000
232.969162	146.100000
233.061874	145.600000
233.154587	145.340000
233.247314	145.580000
233.340027	144.900000
233.432739	145.320000
233.525467	145.300000
233.618179	145.800000
233.710907	145.400000
233.803635	146.200000
233.896347	146.040000
233.989090	146.760000
234.081818	146.660000
234.174545	146.840000
234.267258	145.960000
234.359985	145.780000
234.452713	145.480000
234.545441	145.220000
234.638168	145.180000
234.730896	145.920000
234.823639	146.000000
234.916367	146.420000
235.009094	146.840000
235.101822	146.740000
235.194580	146.480000
235.287308	146.620000
235.380051	146.020000
235.472778	146.140000
235.565521	146.340000
235.658249	146.060000
235.750992	145.940000
235.843719	145.880000
235.936462	146.100000
236.029205	145.680000
236.121948	145.360000
236.214691	145.880000
236.307449	146.540000
236.400192	146.000000
236.492935	146.200000
236.585678	146.480000
236.678421	146.140000
236.771164	145.900000
236.863907	146.460000
236.956665	146.360000
237.049408	147.940000
237.142151	147.200000
237.234909	147.720000
237.327652	147.460000
237.420410	147.580000
237.513153	146.520000
237.605927	147.020000
237.698669	146.220000
237.791428	145.760000
237.884186	146.260000
237.976944	145.700000
238.069702	145.900000
238.162445	145.720000
238.255203	145.860000
238.347961	146.100000
238.440720	146.380000
238.533478	146.080000
238.626266	145.980000
238.719025	146.380000
238.811783	145.640000
238.904541	145.620000
238.997314	145.580000
239.090073	145.340000
239.182831	145.540000
239.275604	146.420000
239.368362	145.880000
239.461136	145.980000
239.553909	146.180000
239.646667	145.580000
239.739441	144.980000
239.832214	145.660000
239.925003	145.900000
240.017761	146.640000
240.110535	147.220000
240.203308	146.680000
240.296082	146.420000
240.388855	146.100000
240.481628	145.860000
240.574417	146.080000
240.667191	146.680000
240.759964	146.500000
240.852737	146.800000
240.945526	146.320000
241.038315	145.920000
241.131088	145.640000
241.223877	145.940000
241.316650	145.440000
241.409439	146.080000
241.502228	145.380000
241.595001	145.800000
241.687790	145.800000
241.780579	146.140000
241.873367	145.860000
241.966141	146.440000
242.058929	145.940000
242.151718	145.980000
242.244507	146.340000
242.337311	145.760000
242.430099	146.180000
242.522903	146.540000
242.615692	146.280000
242.708481	146.080000
242.801270	146.760000
242.894073	146.540000
242.986862	146.620000
243.079651	147.140000
243.172455	146.660000
243.265244	146.660000
243.358063	146.220000
243.450867	146.200000
243.543655	145.920000
243.636459	146.460000
243.729263	146.600000
243.822067	147.020000
243.914856	147.240000
244.007660	147.400000
244.100464	147.060000
244.193268	146.780000
244.286072	146.480000
244.378876	145.880000
244.471680	145.380000
244.564499	145.840000
244.657318	146.200000
244.750122	146.400000
244.842926	145.880000
244.935745	146.380000
245.028549	145.860000
245.121368	145.680000
245.214172	145.360000
245.306992	146.480000
245.399796	146.220000
245.492615	146.340000
245.585434	146.120000
245.678253	146.380000
245.771072	146.120000
245.863892	146.680000
245.956711	146.660000
246.049530	146.820000
246.142349	146.660000
246.235168	146.740000
246.327988	146.760000
246.420807	146.800000
246.513626	146.580000
246.606445	146.460000
246.699280	146.280000
246.792099	146.000000
246.884918	145.760000
246.977753	145.440000
247.070587	145.560000
247.163422	145.380000
247.256241	145.360000
247.349075	145.700000
247.441895	145.780000
247.534729	145.820000
247.627563	145.760000
247.720383	146.100000
247.813217	145.960000
247.906052	146.060000
247.998886	145.920000
248.091736	146.060000
248.184570	146.000000
248.277405	146.100000
248.370239	147.120000
248.463074	148.080000
248.555908	148.160000
248.648743	147.620000
248.741592	147.720000
248.834427	146.800000
248.927261	145.600000
249.020111	146.120000
249.112946	146.560000
249.205795	146.140000
249.298630	146.200000
249.391495	146.600000
249.484344	146.140000
249.577179	146.180000
249.670029	146.380000
249.762878	146.860000
249.855728	146.740000
249.948563	146.580000
250.041412	145.840000
250.134262	146.220000
250.227112	146.260000
250.319962	146.420000
250.412827	146.460000
250.505692	146.360000
250.598541	146.080000
250.691391	145.600000
250.784241	145.640000
250.877106	145.680000
250.969955	145.460000
251.062805	145.860000
251.155670	146.500000
251.248520	146.180000
251.341385	146.300000
251.434235	146.940000
251.527100	146.320000
251.619965	145.620000
251.712814	146.860000
251.805695	146.640000
251.898560	146.800000
251.991425	147.060000
252.084290	147.100000
252.177155	145.900000
252.270020	145.700000
252.362885	145.560000
252.455750	145.620000
252.548615	145.680000
252.641479	145.680000
252.734360	145.740000
252.827240	145.340000
252.920105	145.200000
253.012970	144.940000
253.105850	145.080000
253.198715	145.100000
253.291595	145.280000
253.384460	144.980000
253.477341	145.120000
253.570221	145.180000
253.663086	145.140000
253.755966	145.780000
253.848846	146.260000
253.941727	146.280000
254.034592	146.200000
254.127472	146.020000
254.220367	145.840000
254.313248	145.880000
254.406128	145.700000
254.499008	146.040000
254.591904	146.800000
254.684784	147.120000
254.777664	147.040000
254.870544	146.580000
254.963440	146.160000
255.056335	145.920000
255.149216	145.220000
255.242111	145.680000
255.334991	146.700000
255.427887	146.680000
255.520767	146.740000
255.613663	147.340000
255.706558	146.340000
255.799438	145.660000
255.892334	145.580000
255.985229	145.260000
256.078125	144.780000
256.171021	145.120000
256.263916	145.800000
256.356812	146.220000
256.449707	146.420000
256.542603	146.260000
256.635498	146.680000
256.728394	146.220000
256.821289	145.860000
256.914215	146.140000
257.007080	146.440000
257.100006	146.380000
257.192932	146.960000
257.285828	147.240000
257.378723	146.700000
257.471619	146.580000
257.564545	146.120000
257.657440	145.900000
257.750336	146.080000
257.843262	145.820000
257.936157	146.700000
258.029053	146.940000
258.121979	147.160000
258.214874	146.700000
258.307800	146.880000
258.400696	145.800000
258.493622	145.900000
258.586517	145.040000
258.679443	145.640000
258.772339	145.240000
258.865265	145.340000
258.958160	145.020000
259.051086	145.840000
259.144012	145.180000
259.236938	146.400000
259.329834	146.560000
259.422791	146.420000
259.515717	145.780000
259.608612	145.760000
259.701538	145.480000
259.794464	145.220000
259.887390	145.200000
259.980316	145.140000
260.073212	145.180000
260.166138	144.240000
260.259064	144.640000
260.351990	145.540000
260.444916	145.620000
260.537842	145.740000
260.630768	146.360000
260.723694	145.920000
260.816620	145.300000
260.909546	145.440000
261.002472	145.160000
261.095398	145.060000
261.188354	145.500000
261.281281	145.220000
261.374207	145.580000
261.467133	146.320000
261.560089	146.500000
261.653015	146.200000
261.745972	146.920000
261.838867	147.180000
261.931824	147.380000
262.024780	146.940000
262.117706	147.140000
262.210663	147.100000
262.303589	146.780000
262.396515	146.300000
262.489471	147.380000
262.582397	147.220000
262.675354	146.560000
262.768280	146.340000
262.861237	146.460000
262.954163	145.780000
263.047119	145.980000
263.140045	146.000000
263.233002	145.800000
263.325958	145.540000
263.418884	145.260000
263.511841	145.100000
263.604797	145.320000
263.697723	145.500000
263.790680	145.580000
263.883636	145.980000
263.976593	146.000000
264.069550	145.900000
264.162476	145.760000
264.255463	145.680000
264.348419	145.280000
264.441376	145.220000
264.534332	145.260000
264.627289	145.320000
264.720245	145.860000
264.813202	145.620000
264.906158	146.020000
264.999115	146.500000
265.092072	146.520000
265.185028	146.720000
265.277985	147.180000
265.370941	146.760000
265.463898	146.400000
265.556854	145.960000
265.649811	145.220000
265.742798	145.280000
265.835754	145.520000
265.928711	146.020000
266.021667	146.420000
266.114655	146.880000
266.207611	147.040000
266.300568	146.320000
266.393585	145.500000
266.486511	145.960000
266.579498	144.980000
266.672485	144.980000
266.765442	145.280000
266.858429	145.980000
266.951385	145.180000
267.044342	145.440000
267.137329	145.040000
267.230316	145.320000
267.323273	144.580000
267.416260	145.600000
267.509216	145.700000
267.602203	145.940000
267.695160	146.640000
267.788147	146.800000
267.881134	145.980000
267.974091	146.480000
268.067078	146.280000
268.160065	145.660000
268.253052	145.520000
268.346008	145.520000
268.438995	145.120000
268.531982	145.220000
268.624969	145.040000
268.717987	145.540000
268.810944	145.840000
268.903961	146.020000
268.996948	145.640000
269.089905	145.900000
269.182892	145.800000
269.275879	145.980000
269.368866	145.700000
269.461853	146.100000
269.554871	146.040000
269.647858	146.000000
269.740845	146.140000
269.833832	146.540000
269.926819	146.320000
270.019806	146.460000
270.112793	146.420000
270.205811	146.280000
270.298798	145.880000
270.391785	146.620000
270.484772	146.300000
270.577789	146.360000
270.670776	146.140000
270.763763	146.080000
270.856750	145.600000
270.949768	145.560000
271.042786	145.660000
271.135773	145.660000
271.228790	146.460000
271.321808	146.320000
271.414795	145.880000
271.507782	145.640000
271.600800	145.420000
271.693817	145.240000
271.786804	145.720000
271.879822	146.200000
271.972809	146.040000
272.065826	146.980000
272.158844	146.380000
272.251831	146.560000
272.344849	146.620000
272.437866	146.300000
272.530853	145.720000
272.623871	146.020000
272.716888	144.960000
272.809906	145.140000
272.902893	145.620000
272.995911	145.220000
273.088928	145.080000
273.181946	145.680000
273.274963	145.520000
273.367981	145.400000
273.460999	145.860000
273.554047	146.300000
273.647003	146.740000
273.740051	146.640000
273.833069	146.900000
273.926086	146.720000
274.019135	146.400000
274.112152	145.940000
274.205170	146.240000
274.298187	146.480000
274.391205	146.480000
274.484222	146.500000
274.577240	146.680000
274.670258	146.180000
274.763306	145.920000
274.856323	146.300000
274.949341	146.420000
275.042358	146.660000
275.135406	147.000000
275.228424	147.040000
275.321442	146.780000
275.414490	146.320000
275.507507	146.400000
275.600525	146.720000
275.693573	146.360000
275.786591	146.100000
275.879669	146.680000
275.972656	146.160000
276.065735	145.900000
276.158752	146.380000
276.251801	147.100000
276.344818	146.860000
276.437866	147.060000
276.530884	146.860000
276.623932	146.120000
276.716980	146.020000
276.809998	146.180000
276.903046	146.340000
276.996094	147.160000
277.089111	148.140000
277.182159	148.480000
277.275208	148.380000
277.368256	148.260000
277.461304	147.740000
277.554321	146.940000
277.647369	146.460000
277.740417	145.960000
277.833466	145.940000
277.926514	145.620000
278.019562	146.440000
278.112610	145.960000
278.205688	146.400000
278.298706	146.660000
278.391785	146.700000
278.484833	145.940000
278.577881	146.020000
278.670929	146.060000
278.763977	145.900000
278.857025	146.160000
278.950073	146.220000
279.043121	146.320000
279.136169	146.400000
279.229248	145.920000
279.322296	145.940000
279.415344	145.700000
279.508392	145.580000
279.601440	145.160000
279.694519	145.000000
279.787567	144.620000
279.880615	144.760000
279.973694	144.680000
280.066742	145.180000
280.159790	145.560000
280.252869	145.420000
280.345917	145.540000
280.438995	145.640000
280.532074	145.360000
280.625122	145.640000
280.718201	146.780000
280.811279	146.980000
280.904327	147.040000
280.997406	147.460000
281.090454	147.420000
281.183533	146.400000
281.276581	146.620000
281.369659	146.340000
281.462738	146.120000
281.555786	145.960000
281.648865	146.080000
281.741943	145.680000
281.835022	146.340000
281.928070	145.740000
282.021149	145.580000
282.114227	145.520000
282.207306	145.340000
282.300385	145.340000
282.393433	145.920000
282.486511	146.080000
282.579590	146.540000
282.672668	146.900000
282.765747	146.240000
282.858856	145.960000
282.951904	146.100000
283.045013	146.140000
283.138062	146.260000
283.231171	146.660000
283.324249	147.080000
283.417328	147.180000
283.510406	146.900000
283.603485	146.800000
283.696564	146.840000
283.789642	146.880000
283.882751	146.540000
283.975830	147.020000
284.068909	146.560000
284.161987	146.880000
284.255066	146.240000
284.348175	146.420000
284.441254	146.040000
284.534332	146.600000
284.627441	146.140000
284.720520	146.140000
284.813599	145.940000
284.906708	146.120000
284.999786	145.560000
285.092896	145.360000
285.185974	146.500000
285.279053	146.220000
285.372192	146.040000
285.465240	147.160000
285.558380	147.300000
285.651459	146.460000
285.744568	147.240000
285.837677	147.020000
285.930756	146.400000
286.023865	146.400000
286.116943	146.040000
286.210052	145.940000
286.303162	145.940000
286.396240	145.900000
286.489349	145.860000
286.582458	146.420000
286.675568	146.080000
286.768646	145.960000
286.861755	146.440000
286.954865	147.120000
287.047974	146.700000
287.141083	146.780000
287.234161	146.600000
287.327271	146.080000
287.420380	145.900000
287.513519	145.660000
287.606598	145.520000
287.699738	146.200000
287.792816	146.140000
287.885956	145.980000
287.979034	146.520000
288.072174	146.560000
288.165283	146.180000
288.258392	146.420000
288.351501	145.880000
288.444611	146.160000
288.537720	146.680000
288.630859	146.620000
288.723969	146.800000
288.817078	147.280000
288.910187	146.960000
289.003296	146.540000
289.096436	146.540000
289.189545	146.180000
289.282654	145.700000
289.375763	146.320000
289.468903	146.620000
289.562012	147.020000
289.655121	147.120000
289.748260	147.480000
289.841400	147.240000
289.934509	147.100000
290.027649	146.820000
290.120728	146.800000
290.213898	146.780000
290.306976	146.220000
290.400146	146.180000
290.493256	146.220000
290.586395	146.140000
290.679535	146.200000
290.772644	146.260000
290.865784	145.580000
290.958893	145.400000
291.052032	145.380000
291.145172	145.500000
291.238281	145.300000
291.331421	145.740000
291.424561	146.380000
291.517670	146.180000
291.610809	146.420000
291.703949	146.480000
291.797089	146.660000
291.890228	146.000000
291.983337	146.020000
292.076477	145.640000
292.169617	146.080000
292.262756	145.940000
292.355927	145.720000
292.449036	145.800000
292.542206	146.120000
292.635315	146.080000
292.728485	146.280000
292.821625	146.260000
292.914764	147.360000
293.007904	147.160000
293.101044	146.860000
293.194183	146.520000
293.287323	146.800000
293.380463	146.000000
293.473602	145.700000
293.566742	146.340000
293.659882	147.080000
293.753021	147.260000
293.846191	147.320000
293.939331	146.980000
294.032471	146.580000
294.125610	145.860000
294.218781	146.220000
294.311920	146.240000
294.405060	146.480000
294.498230	146.360000
294.591370	146.560000
294.684540	145.760000
294.777679	145.240000
294.870850	145.680000
294.963959	145.260000
295.057159	145.120000
295.150299	145.440000
295.243469	145.460000
295.336609	144.880000
295.429779	145.180000
295.522919	145.640000
295.616089	145.780000
295.709229	146.560000
295.802399	146.660000
295.895569	146.620000
295.988708	146.260000
296.081879	146.220000
296.175018	145.540000
296.268188	145.640000
296.361359	146.260000
296.454529	146.320000
296.547668	146.220000
296.640839	146.700000
296.734009	146.680000
296.827179	146.640000
296.920319	147.060000
297.013519	146.660000
297.106659	146.440000
297.199860	146.340000
297.292999	145.900000
297.386200	145.180000
297.479309	145.420000
297.572510	145.160000
297.665680	144.940000
297.758850	145.100000
297.852020	145.100000
297.945190	144.780000
298.038361	144.580000
298.131531	145.460000
298.224701	145.180000
298.317871	145.080000
298.411072	145.040000
298.504242	145.000000
298.597412	144.260000
298.690582	144.860000
298.783752	144.980000
298.876923	145.640000
298.970093	145.900000
299.063293	146.500000
299.156464	146.720000
299.249634	146.860000
299.342834	146.760000
299.436005	147.240000
299.529205	147.000000
299.622345	146.580000
299.715576	146.300000
299.808716	146.040000
299.901917	145.780000
299.995117	145.960000
300.088287	146.080000
300.181488	146.020000
300.274658	146.060000
300.367828	145.800000
300.461029	145.540000
300.554199	145.580000
300.647400	145.900000
300.740601	146.400000
300.833771	146.860000
300.926971	147.140000
301.020142	146.640000
301.113342	146.560000
301.206512	146.380000
301.299713	146.360000
301.392914	146.560000
301.486084	147.120000
301.579285	147.280000
301.672516	147.760000
301.765686	147.540000
301.858887	147.180000
301.952057	146.760000
302.045288	146.480000
302.138458	145.980000
302.231659	145.800000
302.324860	145.400000
302.418060	145.520000
302.511261	145.740000
302.604462	145.920000
302.697662	146.020000
302.790863	146.300000
302.884064	145.720000
302.977264	145.600000
303.070465	145.560000
303.163666	146.180000
303.256866	146.440000
303.350067	146.940000
303.443268	146.860000
303.536469	146.920000
303.629669	146.320000
303.722870	146.420000
303.816071	146.080000
303.909271	146.380000
304.002472	145.580000
304.095673	145.480000
304.188934	144.740000
304.282104	145.920000
304.375336	145.560000
304.468506	145.880000
304.561768	145.620000
304.654968	146.260000
304.748169	145.360000
304.841370	145.320000
304.934601	145.880000
305.027802	145.800000
305.121002	145.720000
305.214233	145.900000
305.307434	146.240000
305.400665	146.640000
305.493866	146.640000
