Model Number: SPM-002-B   
Serial Number: 70087108
Firmware Version: 004.15.4
Exposure Time: 100000.000000us
Data Taken on: 11-12-2020 19:28:11.065
Wavelength	Amplitude
221.570786	0.000000
221.663406	0.000000
221.756027	0.000000
221.848648	0.000000
221.941269	0.000000
222.033905	0.000000
222.126526	0.000000
222.219162	0.000000
222.311798	0.000000
222.404419	0.000000
222.497055	0.000000
222.589676	0.000000
222.682312	0.000000
222.774933	0.000000
222.867569	0.000000
222.960205	0.000000
223.052841	0.000000
223.145462	0.000000
223.238098	0.000000
223.330734	0.000000
223.423386	0.000000
223.516022	0.000000
223.608658	0.000000
223.701309	0.000000
223.793945	0.000000
223.886581	0.000000
223.979218	0.000000
224.071869	0.000000
224.164505	0.000000
224.257156	0.000000
224.349792	0.000000
224.442444	0.000000
224.535095	0.000000
224.627747	0.000000
224.720398	0.000000
224.813034	0.000000
224.905685	0.000000
224.998337	146.220000
225.090988	145.900000
225.183640	146.020000
225.276291	145.900000
225.368942	146.100000
225.461594	146.640000
225.554245	146.820000
225.646912	146.780000
225.739578	147.220000
225.832230	147.480000
225.924896	146.360000
226.017548	146.460000
226.110199	147.020000
226.202866	146.440000
226.295532	146.220000
226.388184	146.720000
226.480850	146.340000
226.573517	145.940000
226.666168	146.220000
226.758835	146.740000
226.851501	147.500000
226.944183	147.480000
227.036850	146.920000
227.129517	146.900000
227.222183	146.640000
227.314850	146.060000
227.407516	146.700000
227.500198	147.640000
227.592865	147.420000
227.685532	147.060000
227.778214	146.980000
227.870880	146.920000
227.963562	147.000000
228.056229	147.320000
228.148926	147.340000
228.241592	148.060000
228.334274	148.060000
228.426956	147.700000
228.519638	147.960000
228.612305	147.500000
228.704987	147.180000
228.797668	146.800000
228.890350	146.420000
228.983032	145.680000
229.075714	146.840000
229.168396	146.480000
229.261108	146.320000
229.353790	146.700000
229.446472	147.060000
229.539169	146.360000
229.631851	146.140000
229.724533	146.540000
229.817230	146.740000
229.909912	147.700000
230.002609	147.800000
230.095306	147.820000
230.187988	147.900000
230.280685	147.780000
230.373383	146.620000
230.466095	146.660000
230.558792	147.200000
230.651474	146.980000
230.744171	146.900000
230.836868	146.440000
230.929581	146.420000
231.022278	146.420000
231.114975	146.420000
231.207672	146.080000
231.300369	146.760000
231.393082	146.900000
231.485779	146.440000
231.578506	146.340000
231.671204	146.640000
231.763916	146.660000
231.856613	146.560000
231.949326	146.900000
232.042023	147.080000
232.134735	146.780000
232.227448	146.480000
232.320160	146.900000
232.412872	146.660000
232.505585	147.200000
232.598297	147.880000
232.691010	147.860000
232.783722	147.120000
232.876450	147.780000
232.969162	147.220000
233.061874	146.720000
233.154587	146.540000
233.247314	146.980000
233.340027	146.040000
233.432739	146.120000
233.525467	145.960000
233.618179	146.400000
233.710907	145.900000
233.803635	146.600000
233.896347	146.560000
233.989090	147.240000
234.081818	147.320000
234.174545	147.780000
234.267258	147.220000
234.359985	147.240000
234.452713	146.940000
234.545441	146.640000
234.638168	146.600000
234.730896	147.360000
234.823639	147.500000
234.916367	148.000000
235.009094	148.240000
235.101822	148.200000
235.194580	147.760000
235.287308	147.480000
235.380051	146.680000
235.472778	146.940000
235.565521	146.980000
235.658249	146.580000
235.750992	146.880000
235.843719	147.040000
235.936462	146.960000
236.029205	146.680000
236.121948	146.680000
236.214691	146.700000
236.307449	147.240000
236.400192	146.740000
236.492935	146.440000
236.585678	146.960000
236.678421	146.900000
236.771164	146.580000
236.863907	147.240000
236.956665	147.840000
237.049408	149.100000
237.142151	148.720000
237.234909	149.240000
237.327652	149.040000
237.420410	148.660000
237.513153	147.660000
237.605927	147.440000
237.698669	146.960000
237.791428	146.280000
237.884186	146.880000
237.976944	146.300000
238.069702	146.880000
238.162445	146.280000
238.255203	146.560000
238.347961	146.720000
238.440720	146.560000
238.533478	146.440000
238.626266	146.340000
238.719025	146.720000
238.811783	146.400000
238.904541	146.560000
238.997314	146.280000
239.090073	146.460000
239.182831	146.480000
239.275604	147.140000
239.368362	146.900000
239.461136	147.000000
239.553909	147.040000
239.646667	146.700000
239.739441	146.040000
239.832214	146.660000
239.925003	146.820000
240.017761	147.400000
240.110535	148.060000
240.203308	147.800000
240.296082	147.780000
240.388855	147.720000
240.481628	147.720000
240.574417	147.500000
240.667191	147.680000
240.759964	147.300000
240.852737	147.220000
240.945526	146.780000
241.038315	146.560000
241.131088	146.620000
241.223877	146.840000
241.316650	146.600000
241.409439	146.740000
241.502228	146.480000
241.595001	146.760000
241.687790	146.460000
241.780579	146.720000
241.873367	146.940000
241.966141	147.260000
242.058929	146.720000
242.151718	147.120000
242.244507	147.420000
242.337311	146.760000
242.430099	147.060000
242.522903	147.420000
242.615692	146.840000
242.708481	146.980000
242.801270	147.340000
242.894073	146.740000
242.986862	146.960000
243.079651	147.580000
243.172455	146.980000
243.265244	147.460000
243.358063	147.260000
243.450867	147.200000
243.543655	147.100000
243.636459	147.360000
243.729263	147.120000
243.822067	147.880000
243.914856	147.920000
244.007660	147.980000
244.100464	147.720000
244.193268	147.420000
244.286072	146.900000
244.378876	146.480000
244.471680	146.040000
244.564499	146.340000
244.657318	147.040000
244.750122	147.640000
244.842926	147.180000
244.935745	147.760000
245.028549	147.460000
245.121368	147.040000
245.214172	146.560000
245.306992	147.160000
245.399796	146.640000
245.492615	146.680000
245.585434	146.480000
245.678253	146.440000
245.771072	146.440000
245.863892	147.020000
245.956711	147.480000
246.049530	147.540000
246.142349	147.600000
246.235168	147.680000
246.327988	148.020000
246.420807	147.760000
246.513626	147.760000
246.606445	147.600000
246.699280	147.300000
246.792099	146.740000
246.884918	146.260000
246.977753	145.820000
247.070587	145.940000
247.163422	146.300000
247.256241	146.260000
247.349075	146.700000
247.441895	147.140000
247.534729	147.180000
247.627563	146.700000
247.720383	147.360000
247.813217	147.060000
247.906052	146.780000
247.998886	147.120000
248.091736	147.280000
248.184570	146.840000
248.277405	147.200000
248.370239	148.360000
248.463074	148.900000
248.555908	149.180000
248.648743	148.680000
248.741592	148.820000
248.834427	147.760000
248.927261	146.760000
249.020111	146.960000
249.112946	147.880000
249.205795	147.180000
249.298630	147.520000
249.391495	147.600000
249.484344	147.200000
249.577179	146.940000
249.670029	147.560000
249.762878	147.840000
249.855728	147.860000
249.948563	147.960000
250.041412	147.420000
250.134262	147.400000
250.227112	147.360000
250.319962	147.420000
250.412827	147.520000
250.505692	147.340000
250.598541	147.400000
250.691391	146.820000
250.784241	147.160000
250.877106	147.220000
250.969955	147.380000
251.062805	147.860000
251.155670	148.400000
251.248520	147.660000
251.341385	147.580000
251.434235	147.500000
251.527100	146.940000
251.619965	146.620000
251.712814	147.640000
251.805695	147.400000
251.898560	147.800000
251.991425	147.700000
252.084290	147.940000
252.177155	147.220000
252.270020	147.240000
252.362885	147.120000
252.455750	147.260000
252.548615	146.720000
252.641479	146.440000
252.734360	146.400000
252.827240	146.320000
252.920105	146.540000
253.012970	146.740000
253.105850	146.920000
253.198715	146.700000
253.291595	146.580000
253.384460	146.160000
253.477341	146.020000
253.570221	146.500000
253.663086	146.580000
253.755966	147.280000
253.848846	147.500000
253.941727	147.940000
254.034592	147.740000
254.127472	147.540000
254.220367	147.240000
254.313248	147.240000
254.406128	146.640000
254.499008	146.880000
254.591904	147.560000
254.684784	148.000000
254.777664	148.000000
254.870544	148.240000
254.963440	147.980000
255.056335	147.720000
255.149216	147.340000
255.242111	147.540000
255.334991	148.020000
255.427887	148.040000
255.520767	148.300000
255.613663	148.260000
255.706558	147.400000
255.799438	147.080000
255.892334	146.600000
255.985229	146.500000
256.078125	146.560000
256.171021	147.140000
256.263916	147.300000
256.356812	148.140000
256.449707	148.140000
256.542603	147.800000
256.635498	148.240000
256.728394	148.140000
256.821289	147.340000
256.914215	147.380000
257.007080	147.520000
257.100006	147.480000
257.192932	147.960000
257.285828	148.260000
257.378723	147.960000
257.471619	147.800000
257.564545	147.260000
257.657440	146.860000
257.750336	147.540000
257.843262	147.420000
257.936157	148.340000
258.029053	149.000000
258.121979	149.000000
258.214874	148.260000
258.307800	148.340000
258.400696	147.220000
258.493622	146.540000
258.586517	145.880000
258.679443	146.340000
258.772339	146.040000
258.865265	146.040000
258.958160	145.780000
259.051086	146.600000
259.144012	146.200000
259.236938	146.960000
259.329834	147.320000
259.422791	147.600000
259.515717	147.020000
259.608612	146.720000
259.701538	146.720000
259.794464	146.600000
259.887390	146.600000
259.980316	146.840000
260.073212	146.900000
260.166138	145.560000
260.259064	145.760000
260.351990	146.260000
260.444916	146.160000
260.537842	146.760000
260.630768	148.000000
260.723694	147.620000
260.816620	147.320000
260.909546	147.360000
261.002472	146.680000
261.095398	146.020000
261.188354	146.240000
261.281281	145.720000
261.374207	145.740000
261.467133	146.560000
261.560089	146.900000
261.653015	146.560000
261.745972	147.520000
261.838867	147.820000
261.931824	147.900000
262.024780	147.480000
262.117706	147.800000
262.210663	147.820000
262.303589	147.660000
262.396515	147.240000
262.489471	148.320000
262.582397	148.180000
262.675354	147.440000
262.768280	147.300000
262.861237	147.460000
262.954163	147.140000
263.047119	147.340000
263.140045	147.400000
263.233002	147.520000
263.325958	147.520000
263.418884	146.860000
263.511841	146.820000
263.604797	147.040000
263.697723	147.140000
263.790680	146.840000
263.883636	147.360000
263.976593	146.840000
264.069550	146.820000
264.162476	146.140000
264.255463	146.060000
264.348419	145.740000
264.441376	146.580000
264.534332	146.260000
264.627289	146.880000
264.720245	147.300000
264.813202	147.120000
264.906158	147.040000
264.999115	147.400000
265.092072	146.960000
265.185028	147.240000
265.277985	147.520000
265.370941	146.980000
265.463898	146.640000
265.556854	146.680000
265.649811	145.820000
265.742798	145.820000
265.835754	146.260000
265.928711	146.820000
266.021667	146.920000
266.114655	147.280000
266.207611	147.640000
266.300568	147.060000
266.393585	146.620000
266.486511	146.980000
266.579498	146.320000
266.672485	146.000000
266.765442	145.920000
266.858429	146.300000
266.951385	145.600000
267.044342	146.040000
267.137329	145.780000
267.230316	146.440000
267.323273	145.740000
267.416260	146.480000
267.509216	146.360000
267.602203	146.300000
267.695160	146.600000
267.788147	146.840000
267.881134	146.340000
267.974091	146.680000
268.067078	146.740000
268.160065	146.260000
268.253052	146.280000
268.346008	146.540000
268.438995	146.280000
268.531982	146.500000
268.624969	146.280000
268.717987	146.360000
268.810944	146.220000
268.903961	146.240000
268.996948	145.860000
269.089905	146.380000
269.182892	146.620000
269.275879	146.960000
269.368866	146.740000
269.461853	147.200000
269.554871	146.980000
269.647858	146.820000
269.740845	147.320000
269.833832	147.780000
269.926819	147.280000
270.019806	147.180000
270.112793	146.760000
270.205811	146.360000
270.298798	146.000000
270.391785	146.880000
270.484772	146.540000
270.577789	146.860000
270.670776	146.120000
270.763763	146.180000
270.856750	145.800000
270.949768	145.800000
271.042786	145.940000
271.135773	146.520000
271.228790	147.160000
271.321808	146.540000
271.414795	146.460000
271.507782	146.040000
271.600800	145.540000
271.693817	145.380000
271.786804	146.340000
271.879822	146.440000
271.972809	146.760000
272.065826	147.220000
272.158844	146.320000
272.251831	146.560000
272.344849	146.780000
272.437866	146.180000
272.530853	146.300000
272.623871	146.980000
272.716888	145.980000
272.809906	146.420000
272.902893	146.760000
272.995911	146.280000
273.088928	146.340000
273.181946	146.860000
273.274963	146.420000
273.367981	146.620000
273.460999	146.940000
273.554047	147.040000
273.647003	147.420000
273.740051	147.460000
273.833069	147.840000
273.926086	147.900000
274.019135	147.680000
274.112152	147.180000
274.205170	147.280000
274.298187	147.060000
274.391205	146.580000
274.484222	146.600000
274.577240	146.480000
274.670258	146.220000
274.763306	146.080000
274.856323	146.380000
274.949341	146.500000
275.042358	147.020000
275.135406	147.100000
275.228424	147.040000
275.321442	147.100000
275.414490	146.680000
275.507507	146.780000
275.600525	147.280000
275.693573	147.180000
275.786591	146.920000
275.879669	147.380000
275.972656	146.800000
276.065735	146.240000
276.158752	146.680000
276.251801	147.380000
276.344818	147.280000
276.437866	147.200000
276.530884	147.160000
276.623932	146.300000
276.716980	146.280000
276.809998	145.960000
276.903046	146.180000
276.996094	146.980000
277.089111	147.840000
277.182159	147.980000
277.275208	148.280000
277.368256	148.540000
277.461304	147.940000
277.554321	147.260000
277.647369	146.900000
277.740417	146.560000
277.833466	146.260000
277.926514	146.220000
278.019562	146.900000
278.112610	146.480000
278.205688	146.900000
278.298706	146.780000
278.391785	146.760000
278.484833	146.160000
278.577881	146.080000
278.670929	146.100000
278.763977	146.320000
278.857025	146.740000
278.950073	147.100000
279.043121	146.920000
279.136169	146.800000
279.229248	146.800000
279.322296	146.540000
279.415344	146.160000
279.508392	146.560000
279.601440	146.380000
279.694519	146.020000
279.787567	145.880000
279.880615	146.000000
279.973694	145.540000
280.066742	145.620000
280.159790	146.120000
280.252869	145.880000
280.345917	145.900000
280.438995	146.260000
280.532074	146.360000
280.625122	146.460000
280.718201	147.200000
280.811279	147.380000
280.904327	147.580000
280.997406	147.600000
281.090454	147.100000
281.183533	146.720000
281.276581	146.720000
281.369659	145.940000
281.462738	146.080000
281.555786	146.520000
281.648865	146.420000
281.741943	146.260000
281.835022	147.280000
281.928070	146.820000
282.021149	146.900000
282.114227	146.940000
282.207306	147.100000
282.300385	146.960000
282.393433	147.180000
282.486511	146.980000
282.579590	147.300000
282.672668	147.320000
282.765747	146.920000
282.858856	146.620000
282.951904	146.540000
283.045013	146.480000
283.138062	146.940000
283.231171	147.400000
283.324249	148.280000
283.417328	148.620000
283.510406	148.260000
283.603485	147.940000
283.696564	147.740000
283.789642	147.200000
283.882751	146.760000
283.975830	147.180000
284.068909	146.840000
284.161987	147.280000
284.255066	147.160000
284.348175	147.200000
284.441254	146.980000
284.534332	147.580000
284.627441	146.920000
284.720520	146.740000
284.813599	146.960000
284.906708	147.120000
284.999786	146.360000
285.092896	146.380000
285.185974	147.440000
285.279053	146.720000
285.372192	146.580000
285.465240	147.300000
285.558380	147.380000
285.651459	146.820000
285.744568	147.960000
285.837677	147.680000
285.930756	147.400000
286.023865	147.260000
286.116943	146.800000
286.210052	146.540000
286.303162	146.860000
286.396240	147.020000
286.489349	146.920000
286.582458	147.480000
286.675568	147.440000
286.768646	147.360000
286.861755	147.440000
286.954865	148.100000
287.047974	147.540000
287.141083	146.940000
287.234161	146.660000
287.327271	146.640000
287.420380	147.080000
287.513519	147.080000
287.606598	147.300000
287.699738	147.580000
287.792816	147.380000
287.885956	146.700000
287.979034	146.700000
288.072174	146.640000
288.165283	146.680000
288.258392	146.740000
288.351501	146.080000
288.444611	146.300000
288.537720	146.820000
288.630859	146.640000
288.723969	146.620000
288.817078	147.340000
288.910187	147.660000
289.003296	147.200000
289.096436	146.940000
289.189545	146.520000
289.282654	146.080000
289.375763	146.080000
289.468903	146.560000
289.562012	146.940000
289.655121	147.380000
289.748260	147.580000
289.841400	147.820000
289.934509	147.520000
290.027649	147.540000
290.120728	147.600000
290.213898	147.760000
290.306976	147.180000
290.400146	147.380000
290.493256	147.000000
290.586395	146.880000
290.679535	147.140000
290.772644	147.340000
290.865784	146.280000
290.958893	146.220000
291.052032	146.200000
291.145172	145.820000
291.238281	145.580000
291.331421	146.320000
291.424561	147.060000
291.517670	146.800000
291.610809	146.980000
291.703949	146.780000
291.797089	146.880000
291.890228	146.260000
291.983337	146.480000
292.076477	146.600000
292.169617	147.080000
292.262756	147.020000
292.355927	147.160000
292.449036	146.980000
292.542206	146.860000
292.635315	146.660000
292.728485	146.580000
292.821625	146.180000
292.914764	147.140000
293.007904	147.240000
293.101044	147.200000
293.194183	147.160000
293.287323	147.560000
293.380463	146.960000
293.473602	146.840000
293.566742	146.940000
293.659882	147.500000
293.753021	147.640000
293.846191	147.280000
293.939331	146.860000
294.032471	146.920000
294.125610	146.480000
294.218781	146.780000
294.311920	147.160000
294.405060	147.360000
294.498230	147.200000
294.591370	147.600000
294.684540	146.980000
294.777679	146.380000
294.870850	146.680000
294.963959	146.680000
295.057159	146.080000
295.150299	146.440000
295.243469	146.300000
295.336609	145.560000
295.429779	145.540000
295.522919	146.040000
295.616089	145.820000
295.709229	146.620000
295.802399	147.220000
295.895569	146.720000
295.988708	146.240000
296.081879	146.480000
296.175018	146.180000
296.268188	146.080000
296.361359	146.580000
296.454529	146.780000
296.547668	146.760000
296.640839	146.980000
296.734009	146.800000
296.827179	147.140000
296.920319	147.560000
297.013519	147.160000
297.106659	147.280000
297.199860	147.380000
297.292999	147.020000
297.386200	146.420000
297.479309	146.460000
297.572510	146.500000
297.665680	146.500000
297.758850	146.600000
297.852020	146.520000
297.945190	146.360000
298.038361	145.480000
298.131531	146.360000
298.224701	146.240000
298.317871	146.020000
298.411072	145.760000
298.504242	146.000000
298.597412	145.100000
298.690582	145.380000
298.783752	145.640000
298.876923	146.200000
298.970093	146.300000
299.063293	146.600000
299.156464	146.580000
299.249634	147.060000
299.342834	147.400000
299.436005	147.440000
299.529205	147.180000
299.622345	147.400000
299.715576	146.800000
299.808716	146.320000
299.901917	146.600000
299.995117	146.780000
300.088287	146.680000
300.181488	146.520000
300.274658	146.340000
300.367828	146.340000
300.461029	146.260000
300.554199	146.520000
300.647400	146.700000
300.740601	147.400000
300.833771	147.060000
300.926971	147.220000
301.020142	146.440000
301.113342	146.420000
301.206512	146.180000
301.299713	146.560000
301.392914	146.600000
301.486084	147.160000
301.579285	147.380000
301.672516	147.520000
301.765686	147.300000
301.858887	147.220000
301.952057	147.100000
302.045288	146.800000
302.138458	146.940000
302.231659	146.840000
302.324860	146.420000
302.418060	146.340000
302.511261	146.580000
302.604462	146.460000
302.697662	146.380000
302.790863	146.640000
302.884064	146.360000
302.977264	146.300000
303.070465	146.280000
303.163666	146.900000
303.256866	147.440000
303.350067	147.680000
303.443268	147.760000
303.536469	147.960000
303.629669	147.680000
303.722870	147.240000
303.816071	147.000000
303.909271	146.840000
304.002472	146.180000
304.095673	145.940000
304.188934	145.160000
304.282104	146.180000
304.375336	146.080000
304.468506	146.200000
304.561768	145.860000
304.654968	147.000000
304.748169	146.160000
304.841370	146.280000
304.934601	146.720000
305.027802	146.640000
305.121002	146.300000
305.214233	146.520000
305.307434	146.560000
305.400665	146.880000
305.493866	147.000000
