Model Number: SPM-002-B   
Serial Number: 70087108
Firmware Version: 004.15.4
Exposure Time: 100000.000000us
Data Taken on: 11-12-2020 19:28:43.817
Wavelength	Amplitude
221.570786	0.000000
221.663406	0.000000
221.756027	0.000000
221.848648	0.000000
221.941269	0.000000
222.033905	0.000000
222.126526	0.000000
222.219162	0.000000
222.311798	0.000000
222.404419	0.000000
222.497055	0.000000
222.589676	0.000000
222.682312	0.000000
222.774933	0.000000
222.867569	0.000000
222.960205	0.000000
223.052841	0.000000
223.145462	0.000000
223.238098	0.000000
223.330734	0.000000
223.423386	0.000000
223.516022	0.000000
223.608658	0.000000
223.701309	0.000000
223.793945	0.000000
223.886581	0.000000
223.979218	0.000000
224.071869	0.000000
224.164505	0.000000
224.257156	0.000000
224.349792	0.000000
224.442444	0.000000
224.535095	0.000000
224.627747	0.000000
224.720398	0.000000
224.813034	0.000000
224.905685	0.000000
224.998337	144.980000
225.090988	144.620000
225.183640	144.680000
225.276291	144.420000
225.368942	144.860000
225.461594	145.480000
225.554245	145.540000
225.646912	145.680000
225.739578	146.560000
225.832230	146.860000
225.924896	146.020000
226.017548	146.700000
226.110199	147.140000
226.202866	145.940000
226.295532	145.820000
226.388184	145.640000
226.480850	144.560000
226.573517	144.080000
226.666168	144.960000
226.758835	145.300000
226.851501	145.980000
226.944183	146.440000
227.036850	146.140000
227.129517	145.720000
227.222183	145.900000
227.314850	145.620000
227.407516	146.020000
227.500198	146.880000
227.592865	146.760000
227.685532	146.100000
227.778214	146.060000
227.870880	146.220000
227.963562	146.260000
228.056229	146.860000
228.148926	146.860000
228.241592	147.500000
228.334274	147.140000
228.426956	146.660000
228.519638	146.340000
228.612305	146.220000
228.704987	146.060000
228.797668	145.900000
228.890350	145.580000
228.983032	145.280000
229.075714	146.080000
229.168396	145.680000
229.261108	145.400000
229.353790	145.740000
229.446472	145.920000
229.539169	145.400000
229.631851	145.000000
229.724533	145.380000
229.817230	145.480000
229.909912	146.440000
230.002609	146.440000
230.095306	146.820000
230.187988	146.940000
230.280685	146.920000
230.373383	145.760000
230.466095	145.580000
230.558792	145.940000
230.651474	145.880000
230.744171	145.620000
230.836868	145.800000
230.929581	146.080000
231.022278	146.280000
231.114975	146.040000
231.207672	146.200000
231.300369	146.700000
231.393082	146.660000
231.485779	146.140000
231.578506	146.180000
231.671204	146.000000
231.763916	145.700000
231.856613	145.460000
231.949326	145.700000
232.042023	145.760000
232.134735	145.720000
232.227448	145.620000
232.320160	146.020000
232.412872	145.880000
232.505585	146.500000
232.598297	147.120000
232.691010	146.760000
232.783722	146.600000
232.876450	147.120000
232.969162	146.800000
233.061874	145.880000
233.154587	145.700000
233.247314	145.960000
233.340027	145.240000
233.432739	145.360000
233.525467	145.700000
233.618179	146.220000
233.710907	145.740000
233.803635	146.020000
233.896347	145.760000
233.989090	146.600000
234.081818	146.460000
234.174545	146.560000
234.267258	146.300000
234.359985	146.580000
234.452713	145.720000
234.545441	145.460000
234.638168	145.480000
234.730896	145.760000
234.823639	145.340000
234.916367	145.960000
235.009094	146.380000
235.101822	146.380000
235.194580	146.420000
235.287308	146.260000
235.380051	145.420000
235.472778	145.540000
235.565521	145.900000
235.658249	145.560000
235.750992	146.020000
235.843719	146.100000
235.936462	146.100000
236.029205	145.700000
236.121948	145.540000
236.214691	145.520000
236.307449	146.260000
236.400192	145.920000
236.492935	145.640000
236.585678	145.940000
236.678421	145.880000
236.771164	145.720000
236.863907	146.140000
236.956665	146.680000
237.049408	148.180000
237.142151	147.640000
237.234909	148.060000
237.327652	148.040000
237.420410	147.720000
237.513153	146.540000
237.605927	146.700000
237.698669	146.280000
237.791428	145.680000
237.884186	146.160000
237.976944	145.680000
238.069702	146.180000
238.162445	145.560000
238.255203	145.700000
238.347961	145.720000
238.440720	145.740000
238.533478	145.520000
238.626266	145.380000
238.719025	145.700000
238.811783	145.740000
238.904541	145.340000
238.997314	145.020000
239.090073	145.020000
239.182831	145.000000
239.275604	145.480000
239.368362	146.000000
239.461136	146.300000
239.553909	146.240000
239.646667	146.240000
239.739441	145.540000
239.832214	145.760000
239.925003	145.880000
240.017761	146.800000
240.110535	146.960000
240.203308	146.440000
240.296082	146.320000
240.388855	146.000000
240.481628	145.740000
240.574417	145.860000
240.667191	146.240000
240.759964	145.780000
240.852737	145.800000
240.945526	145.620000
241.038315	145.440000
241.131088	145.520000
241.223877	145.900000
241.316650	145.660000
241.409439	145.900000
241.502228	145.440000
241.595001	145.860000
241.687790	145.840000
241.780579	145.880000
241.873367	146.180000
241.966141	146.540000
242.058929	145.960000
242.151718	146.300000
242.244507	147.080000
242.337311	146.000000
242.430099	146.220000
242.522903	146.400000
242.615692	145.800000
242.708481	145.480000
242.801270	146.280000
242.894073	146.260000
242.986862	146.280000
243.079651	147.080000
243.172455	146.960000
243.265244	147.040000
243.358063	146.640000
243.450867	146.800000
243.543655	146.460000
243.636459	146.240000
243.729263	146.260000
243.822067	146.520000
243.914856	146.760000
244.007660	146.520000
244.100464	146.820000
244.193268	146.060000
244.286072	145.580000
244.378876	145.120000
244.471680	145.060000
244.564499	145.380000
244.657318	146.400000
244.750122	146.780000
244.842926	146.160000
244.935745	146.640000
245.028549	145.820000
245.121368	145.340000
245.214172	145.740000
245.306992	146.480000
245.399796	145.940000
245.492615	146.480000
245.585434	146.400000
245.678253	146.020000
245.771072	145.920000
245.863892	146.780000
245.956711	146.960000
246.049530	146.780000
246.142349	146.720000
246.235168	146.700000
246.327988	146.460000
246.420807	145.940000
246.513626	146.100000
246.606445	146.140000
246.699280	146.080000
246.792099	145.760000
246.884918	145.700000
246.977753	145.300000
247.070587	145.060000
247.163422	144.920000
247.256241	144.740000
247.349075	145.180000
247.441895	145.540000
247.534729	145.660000
247.627563	145.740000
247.720383	146.660000
247.813217	146.420000
247.906052	146.500000
247.998886	146.540000
248.091736	146.520000
248.184570	146.100000
248.277405	146.200000
248.370239	146.900000
248.463074	147.660000
248.555908	147.880000
248.648743	147.420000
248.741592	147.420000
248.834427	146.460000
248.927261	145.320000
249.020111	145.560000
249.112946	146.320000
249.205795	145.740000
249.298630	146.140000
249.391495	146.200000
249.484344	145.800000
249.577179	145.460000
249.670029	146.000000
249.762878	146.300000
249.855728	146.780000
249.948563	146.620000
250.041412	145.960000
250.134262	145.980000
250.227112	145.820000
250.319962	145.720000
250.412827	145.860000
250.505692	145.940000
250.598541	145.620000
250.691391	145.120000
250.784241	145.200000
250.877106	145.520000
250.969955	145.540000
251.062805	146.340000
251.155670	146.900000
251.248520	146.540000
251.341385	146.620000
251.434235	146.540000
251.527100	146.260000
251.619965	145.640000
251.712814	146.360000
251.805695	146.200000
251.898560	146.280000
251.991425	146.500000
252.084290	146.940000
252.177155	146.200000
252.270020	145.740000
252.362885	145.820000
252.455750	145.580000
252.548615	145.000000
252.641479	144.900000
252.734360	144.880000
252.827240	144.880000
252.920105	144.920000
253.012970	145.040000
253.105850	145.240000
253.198715	145.180000
253.291595	145.480000
253.384460	144.840000
253.477341	144.800000
253.570221	144.960000
253.663086	144.580000
253.755966	145.020000
253.848846	145.480000
253.941727	146.040000
254.034592	146.200000
254.127472	146.400000
254.220367	146.020000
254.313248	146.340000
254.406128	145.740000
254.499008	145.980000
254.591904	147.020000
254.684784	147.620000
254.777664	147.120000
254.870544	147.300000
254.963440	147.060000
255.056335	146.540000
255.149216	145.700000
255.242111	146.120000
255.334991	146.220000
255.427887	146.220000
255.520767	146.460000
255.613663	146.440000
255.706558	145.900000
255.799438	145.880000
255.892334	145.780000
255.985229	145.580000
256.078125	145.780000
256.171021	145.960000
256.263916	146.060000
256.356812	146.180000
256.449707	146.300000
256.542603	146.040000
256.635498	146.620000
256.728394	146.280000
256.821289	146.080000
256.914215	146.440000
257.007080	146.660000
257.100006	146.340000
257.192932	147.040000
257.285828	147.100000
257.378723	146.680000
257.471619	146.580000
257.564545	146.180000
257.657440	145.760000
257.750336	146.420000
257.843262	146.140000
257.936157	147.100000
258.029053	147.700000
258.121979	147.860000
258.214874	147.180000
258.307800	147.040000
258.400696	146.020000
258.493622	145.640000
258.586517	145.060000
258.679443	145.540000
258.772339	145.460000
258.865265	145.480000
258.958160	145.140000
259.051086	146.060000
259.144012	145.660000
259.236938	146.420000
259.329834	146.520000
259.422791	146.640000
259.515717	146.000000
259.608612	145.760000
259.701538	145.640000
259.794464	145.220000
259.887390	145.360000
259.980316	145.340000
260.073212	145.060000
260.166138	144.140000
260.259064	144.760000
260.351990	145.160000
260.444916	145.060000
260.537842	145.680000
260.630768	146.560000
260.723694	146.260000
260.816620	146.240000
260.909546	146.220000
261.002472	145.780000
261.095398	145.320000
261.188354	145.200000
261.281281	144.460000
261.374207	144.800000
261.467133	145.500000
261.560089	145.860000
261.653015	145.620000
261.745972	146.500000
261.838867	146.700000
261.931824	146.740000
262.024780	146.180000
262.117706	146.640000
262.210663	146.500000
262.303589	146.120000
262.396515	146.340000
262.489471	147.400000
262.582397	147.180000
262.675354	146.840000
262.768280	147.020000
262.861237	146.520000
262.954163	146.100000
263.047119	146.060000
263.140045	145.720000
263.233002	145.620000
263.325958	145.780000
263.418884	145.280000
263.511841	145.600000
263.604797	146.240000
263.697723	146.040000
263.790680	145.800000
263.883636	146.400000
263.976593	146.080000
264.069550	145.940000
264.162476	146.100000
264.255463	146.220000
264.348419	145.700000
264.441376	146.360000
264.534332	145.940000
264.627289	146.140000
264.720245	146.480000
264.813202	146.380000
264.906158	146.320000
264.999115	146.920000
265.092072	146.680000
265.185028	146.760000
265.277985	146.980000
265.370941	146.620000
265.463898	146.340000
265.556854	146.200000
265.649811	145.460000
265.742798	145.460000
265.835754	145.580000
265.928711	145.640000
266.021667	145.600000
266.114655	145.900000
266.207611	146.180000
266.300568	145.680000
266.393585	145.240000
266.486511	145.680000
266.579498	144.860000
266.672485	144.700000
266.765442	145.120000
266.858429	145.940000
266.951385	145.540000
267.044342	146.100000
267.137329	146.180000
267.230316	146.160000
267.323273	145.360000
267.416260	145.960000
267.509216	145.920000
267.602203	145.840000
267.695160	146.180000
267.788147	146.580000
267.881134	145.900000
267.974091	146.280000
268.067078	146.160000
268.160065	145.920000
268.253052	145.560000
268.346008	145.940000
268.438995	145.520000
268.531982	145.520000
268.624969	145.140000
268.717987	145.620000
268.810944	145.620000
268.903961	145.740000
268.996948	145.560000
269.089905	146.340000
269.182892	146.340000
269.275879	146.400000
269.368866	146.100000
269.461853	146.540000
269.554871	146.160000
269.647858	146.020000
269.740845	146.420000
269.833832	147.020000
269.926819	146.460000
270.019806	146.580000
270.112793	146.220000
270.205811	146.420000
270.298798	146.000000
270.391785	146.700000
270.484772	146.200000
270.577789	146.360000
270.670776	145.460000
270.763763	145.560000
270.856750	145.480000
270.949768	145.260000
271.042786	145.420000
271.135773	145.580000
271.228790	145.760000
271.321808	145.180000
271.414795	145.340000
271.507782	144.960000
271.600800	144.740000
271.693817	144.800000
271.786804	145.320000
271.879822	145.580000
271.972809	145.840000
272.065826	146.300000
272.158844	145.720000
272.251831	146.100000
272.344849	145.960000
272.437866	145.740000
272.530853	145.920000
272.623871	146.080000
272.716888	145.080000
272.809906	145.400000
272.902893	145.820000
272.995911	144.940000
273.088928	144.900000
273.181946	145.420000
273.274963	144.900000
273.367981	144.680000
273.460999	145.080000
273.554047	145.680000
273.647003	146.180000
273.740051	146.400000
273.833069	146.700000
273.926086	146.880000
274.019135	146.300000
274.112152	145.760000
274.205170	146.040000
274.298187	146.220000
274.391205	146.120000
274.484222	146.440000
274.577240	146.580000
274.670258	146.000000
274.763306	145.760000
274.856323	145.840000
274.949341	145.800000
275.042358	146.140000
275.135406	146.340000
275.228424	145.880000
275.321442	146.000000
275.414490	145.640000
275.507507	145.800000
275.600525	146.300000
275.693573	146.400000
275.786591	146.240000
275.879669	146.600000
275.972656	146.180000
276.065735	145.980000
276.158752	146.680000
276.251801	147.200000
276.344818	147.240000
276.437866	147.160000
276.530884	146.780000
276.623932	146.220000
276.716980	146.220000
276.809998	146.240000
276.903046	146.120000
276.996094	147.160000
277.089111	147.560000
277.182159	147.980000
277.275208	147.740000
277.368256	147.640000
277.461304	147.020000
277.554321	146.000000
277.647369	145.400000
277.740417	145.700000
277.833466	145.960000
277.926514	145.940000
278.019562	146.760000
278.112610	146.220000
278.205688	146.140000
278.298706	146.240000
278.391785	145.980000
278.484833	145.720000
278.577881	145.740000
278.670929	145.940000
278.763977	145.800000
278.857025	146.060000
278.950073	146.180000
279.043121	146.140000
279.136169	145.980000
279.229248	145.720000
279.322296	145.500000
279.415344	145.360000
279.508392	145.260000
279.601440	144.900000
279.694519	144.720000
279.787567	144.920000
279.880615	144.760000
279.973694	144.980000
280.066742	145.200000
280.159790	145.560000
280.252869	145.240000
280.345917	145.620000
280.438995	145.360000
280.532074	145.300000
280.625122	145.560000
280.718201	146.320000
280.811279	146.020000
280.904327	146.000000
280.997406	146.420000
281.090454	146.200000
281.183533	145.680000
281.276581	145.660000
281.369659	145.740000
281.462738	145.400000
281.555786	145.520000
281.648865	145.340000
281.741943	145.400000
281.835022	146.000000
281.928070	145.800000
282.021149	145.700000
282.114227	145.920000
282.207306	145.640000
282.300385	145.700000
282.393433	146.120000
282.486511	145.940000
282.579590	146.460000
282.672668	146.780000
282.765747	146.020000
282.858856	145.700000
282.951904	145.800000
283.045013	145.720000
283.138062	146.260000
283.231171	146.920000
283.324249	147.080000
283.417328	147.180000
283.510406	146.880000
283.603485	146.360000
283.696564	146.220000
283.789642	146.380000
283.882751	146.380000
283.975830	146.700000
284.068909	146.600000
284.161987	146.960000
284.255066	146.700000
284.348175	146.460000
284.441254	146.020000
284.534332	146.320000
284.627441	145.940000
284.720520	145.620000
284.813599	146.000000
284.906708	146.200000
284.999786	145.380000
285.092896	145.240000
285.185974	146.360000
285.279053	145.700000
285.372192	145.760000
285.465240	146.840000
285.558380	146.580000
285.651459	145.680000
285.744568	146.800000
285.837677	146.260000
285.930756	146.120000
286.023865	146.360000
286.116943	146.080000
286.210052	145.840000
286.303162	146.160000
286.396240	146.040000
286.489349	145.900000
286.582458	146.720000
286.675568	146.220000
286.768646	146.440000
286.861755	146.720000
286.954865	147.380000
287.047974	146.580000
287.141083	146.560000
287.234161	146.020000
287.327271	145.680000
287.420380	145.960000
287.513519	146.040000
287.606598	145.700000
287.699738	146.000000
287.792816	145.840000
287.885956	145.220000
287.979034	145.320000
288.072174	145.960000
288.165283	145.940000
288.258392	146.300000
288.351501	145.760000
288.444611	146.260000
288.537720	146.400000
288.630859	146.300000
288.723969	146.320000
288.817078	146.800000
288.910187	146.580000
289.003296	146.420000
289.096436	146.320000
289.189545	146.140000
289.282654	145.700000
289.375763	145.860000
289.468903	146.100000
289.562012	146.420000
289.655121	146.400000
289.748260	146.600000
289.841400	146.700000
289.934509	146.340000
290.027649	146.400000
290.120728	146.440000
290.213898	146.620000
290.306976	146.300000
290.400146	146.500000
290.493256	145.940000
290.586395	145.980000
290.679535	146.360000
290.772644	146.160000
290.865784	145.460000
290.958893	145.580000
291.052032	145.400000
291.145172	145.060000
291.238281	144.960000
291.331421	145.240000
291.424561	145.720000
291.517670	145.380000
291.610809	145.500000
291.703949	145.600000
291.797089	145.900000
291.890228	145.520000
291.983337	145.620000
292.076477	145.560000
292.169617	145.820000
292.262756	145.640000
292.355927	145.460000
292.449036	145.220000
292.542206	145.220000
292.635315	145.480000
292.728485	145.760000
292.821625	145.700000
292.914764	146.820000
293.007904	147.140000
293.101044	146.940000
293.194183	146.720000
293.287323	147.080000
293.380463	146.460000
293.473602	145.900000
293.566742	145.960000
293.659882	146.300000
293.753021	146.300000
293.846191	146.180000
293.939331	146.140000
294.032471	145.860000
294.125610	145.640000
294.218781	145.900000
294.311920	146.400000
294.405060	146.720000
294.498230	146.820000
294.591370	146.660000
294.684540	145.980000
294.777679	145.400000
294.870850	145.680000
294.963959	145.600000
295.057159	145.280000
295.150299	145.960000
295.243469	145.900000
295.336609	145.300000
295.429779	145.500000
295.522919	146.520000
295.616089	146.240000
295.709229	147.060000
295.802399	147.200000
295.895569	146.960000
295.988708	146.480000
296.081879	146.380000
296.175018	145.480000
296.268188	145.180000
296.361359	145.840000
296.454529	145.720000
296.547668	145.780000
296.640839	146.300000
296.734009	146.300000
296.827179	145.780000
296.920319	145.760000
297.013519	145.560000
297.106659	145.380000
297.199860	145.620000
297.292999	145.660000
297.386200	145.900000
297.479309	146.060000
297.572510	146.140000
297.665680	146.120000
297.758850	145.960000
297.852020	145.380000
297.945190	145.020000
298.038361	144.880000
298.131531	145.860000
298.224701	145.840000
298.317871	145.740000
298.411072	145.560000
298.504242	145.740000
298.597412	144.640000
298.690582	145.200000
298.783752	145.420000
298.876923	146.020000
298.970093	145.800000
299.063293	146.380000
299.156464	146.380000
299.249634	146.600000
299.342834	146.520000
299.436005	146.920000
299.529205	146.640000
299.622345	146.540000
299.715576	146.040000
299.808716	146.020000
299.901917	145.840000
299.995117	145.960000
300.088287	145.880000
300.181488	145.960000
300.274658	145.560000
300.367828	145.440000
300.461029	145.220000
300.554199	145.360000
300.647400	145.640000
300.740601	146.400000
300.833771	146.520000
300.926971	146.640000
301.020142	145.960000
301.113342	146.020000
301.206512	145.880000
301.299713	145.860000
301.392914	145.820000
301.486084	146.200000
301.579285	146.180000
301.672516	146.360000
301.765686	146.240000
301.858887	146.160000
301.952057	146.160000
302.045288	145.840000
302.138458	145.420000
302.231659	145.200000
302.324860	145.200000
302.418060	145.160000
302.511261	145.180000
302.604462	145.620000
302.697662	145.940000
302.790863	145.960000
302.884064	145.640000
302.977264	146.140000
303.070465	146.140000
303.163666	146.440000
303.256866	146.540000
303.350067	146.720000
303.443268	146.400000
303.536469	146.200000
303.629669	145.660000
303.722870	145.800000
303.816071	145.540000
303.909271	145.420000
304.002472	145.000000
304.095673	145.040000
304.188934	144.360000
304.282104	145.520000
304.375336	145.600000
304.468506	145.820000
304.561768	145.840000
304.654968	146.760000
304.748169	145.920000
304.841370	145.860000
304.934601	146.040000
305.027802	145.820000
305.121002	145.180000
305.214233	145.300000
305.307434	145.280000
305.400665	146.020000
305.493866	146.140000
