Model Number: SPM-002-B   
Serial Number: 70087108
Firmware Version: 004.15.4
Exposure Time: 100000.000000us
Data Taken on: 11-12-2020 19:28:31.692
Wavelength	Amplitude
221.570786	0.000000
221.663406	0.000000
221.756027	0.000000
221.848648	0.000000
221.941269	0.000000
222.033905	0.000000
222.126526	0.000000
222.219162	0.000000
222.311798	0.000000
222.404419	0.000000
222.497055	0.000000
222.589676	0.000000
222.682312	0.000000
222.774933	0.000000
222.867569	0.000000
222.960205	0.000000
223.052841	0.000000
223.145462	0.000000
223.238098	0.000000
223.330734	0.000000
223.423386	0.000000
223.516022	0.000000
223.608658	0.000000
223.701309	0.000000
223.793945	0.000000
223.886581	0.000000
223.979218	0.000000
224.071869	0.000000
224.164505	0.000000
224.257156	0.000000
224.349792	0.000000
224.442444	0.000000
224.535095	0.000000
224.627747	0.000000
224.720398	0.000000
224.813034	0.000000
224.905685	0.000000
224.998337	145.700000
225.090988	145.220000
225.183640	144.980000
225.276291	144.700000
225.368942	144.800000
225.461594	145.560000
225.554245	146.080000
225.646912	146.260000
225.739578	146.820000
225.832230	147.420000
225.924896	146.560000
226.017548	146.680000
226.110199	146.960000
226.202866	146.220000
226.295532	145.980000
226.388184	145.820000
226.480850	145.260000
226.573517	144.960000
226.666168	145.360000
226.758835	145.480000
226.851501	146.320000
226.944183	146.440000
227.036850	146.300000
227.129517	146.320000
227.222183	146.120000
227.314850	145.760000
227.407516	146.220000
227.500198	146.740000
227.592865	146.400000
227.685532	146.420000
227.778214	146.200000
227.870880	146.100000
227.963562	146.440000
228.056229	146.960000
228.148926	146.920000
228.241592	147.720000
228.334274	147.300000
228.426956	146.940000
228.519638	146.860000
228.612305	146.380000
228.704987	146.260000
228.797668	146.340000
228.890350	146.160000
228.983032	145.620000
229.075714	146.280000
229.168396	146.120000
229.261108	146.000000
229.353790	145.900000
229.446472	146.080000
229.539169	145.800000
229.631851	145.540000
229.724533	145.620000
229.817230	145.900000
229.909912	146.860000
230.002609	147.000000
230.095306	146.920000
230.187988	146.760000
230.280685	146.480000
230.373383	145.420000
230.466095	145.500000
230.558792	145.760000
230.651474	146.000000
230.744171	145.700000
230.836868	145.620000
230.929581	145.540000
231.022278	145.420000
231.114975	145.320000
231.207672	145.460000
231.300369	146.040000
231.393082	146.060000
231.485779	145.840000
231.578506	145.880000
231.671204	145.980000
231.763916	145.820000
231.856613	145.820000
231.949326	146.080000
232.042023	145.880000
232.134735	145.960000
232.227448	145.680000
232.320160	145.980000
232.412872	146.060000
232.505585	146.860000
232.598297	147.500000
232.691010	147.460000
232.783722	146.800000
232.876450	147.360000
232.969162	146.880000
233.061874	146.000000
233.154587	145.840000
233.247314	146.520000
233.340027	145.600000
233.432739	146.000000
233.525467	145.840000
233.618179	146.340000
233.710907	145.940000
233.803635	146.600000
233.896347	146.280000
233.989090	147.300000
234.081818	147.120000
234.174545	147.460000
234.267258	146.760000
234.359985	147.080000
234.452713	146.560000
234.545441	146.420000
234.638168	146.040000
234.730896	146.680000
234.823639	146.200000
234.916367	146.380000
235.009094	146.580000
235.101822	146.820000
235.194580	146.700000
235.287308	147.000000
235.380051	146.480000
235.472778	146.740000
235.565521	146.860000
235.658249	146.600000
235.750992	146.400000
235.843719	146.340000
235.936462	146.340000
236.029205	145.940000
236.121948	145.580000
236.214691	145.760000
236.307449	146.640000
236.400192	146.180000
236.492935	146.060000
236.585678	146.360000
236.678421	146.340000
236.771164	145.820000
236.863907	146.560000
236.956665	146.560000
237.049408	148.000000
237.142151	147.720000
237.234909	148.340000
237.327652	148.100000
237.420410	148.080000
237.513153	147.200000
237.605927	147.060000
237.698669	146.500000
237.791428	145.680000
237.884186	146.320000
237.976944	145.760000
238.069702	146.240000
238.162445	146.020000
238.255203	146.540000
238.347961	146.580000
238.440720	146.820000
238.533478	146.760000
238.626266	146.440000
238.719025	146.840000
238.811783	146.660000
238.904541	146.160000
238.997314	146.040000
239.090073	145.960000
239.182831	146.040000
239.275604	146.760000
239.368362	147.000000
239.461136	146.980000
239.553909	147.340000
239.646667	146.900000
239.739441	145.720000
239.832214	145.840000
239.925003	146.160000
240.017761	146.800000
240.110535	146.880000
240.203308	146.660000
240.296082	146.760000
240.388855	146.520000
240.481628	146.120000
240.574417	146.340000
240.667191	146.920000
240.759964	146.440000
240.852737	146.380000
240.945526	146.220000
241.038315	146.120000
241.131088	146.100000
241.223877	146.700000
241.316650	146.320000
241.409439	146.340000
241.502228	145.660000
241.595001	146.080000
241.687790	145.700000
241.780579	145.880000
241.873367	146.120000
241.966141	146.780000
242.058929	146.220000
242.151718	146.500000
242.244507	146.900000
242.337311	146.200000
242.430099	146.500000
242.522903	146.580000
242.615692	145.880000
242.708481	145.860000
242.801270	146.380000
242.894073	146.300000
242.986862	146.580000
243.079651	147.300000
243.172455	146.740000
243.265244	147.080000
243.358063	146.440000
243.450867	146.460000
243.543655	146.540000
243.636459	146.760000
243.729263	146.720000
243.822067	146.940000
243.914856	147.220000
244.007660	147.180000
244.100464	147.360000
244.193268	146.560000
244.286072	146.520000
244.378876	145.820000
244.471680	145.360000
244.564499	145.360000
244.657318	146.420000
244.750122	146.760000
244.842926	146.420000
244.935745	147.160000
245.028549	146.880000
245.121368	146.140000
245.214172	146.020000
245.306992	146.400000
245.399796	145.900000
245.492615	146.160000
245.585434	146.260000
245.678253	146.260000
245.771072	146.420000
245.863892	146.840000
245.956711	146.940000
246.049530	147.020000
246.142349	146.620000
246.235168	146.640000
246.327988	146.860000
246.420807	146.680000
246.513626	146.640000
246.606445	146.740000
246.699280	146.560000
246.792099	146.240000
246.884918	146.000000
246.977753	145.800000
247.070587	145.560000
247.163422	145.520000
247.256241	145.320000
247.349075	145.640000
247.441895	145.720000
247.534729	145.980000
247.627563	145.800000
247.720383	146.320000
247.813217	146.200000
247.906052	146.300000
247.998886	146.580000
248.091736	146.540000
248.184570	145.900000
248.277405	146.040000
248.370239	146.780000
248.463074	147.580000
248.555908	148.060000
248.648743	148.260000
248.741592	148.280000
248.834427	147.320000
248.927261	145.680000
249.020111	146.160000
249.112946	146.500000
249.205795	145.960000
249.298630	146.520000
249.391495	147.220000
249.484344	146.500000
249.577179	146.380000
249.670029	146.780000
249.762878	146.820000
249.855728	146.860000
249.948563	147.060000
250.041412	146.620000
250.134262	147.120000
250.227112	147.160000
250.319962	147.160000
250.412827	147.020000
250.505692	146.720000
250.598541	146.160000
250.691391	145.980000
250.784241	145.740000
250.877106	146.080000
250.969955	145.860000
251.062805	146.280000
251.155670	146.880000
251.248520	146.780000
251.341385	146.560000
251.434235	146.940000
251.527100	146.440000
251.619965	145.660000
251.712814	146.340000
251.805695	146.340000
251.898560	146.440000
251.991425	146.780000
252.084290	147.160000
252.177155	146.640000
252.270020	146.400000
252.362885	146.420000
252.455750	146.420000
252.548615	145.840000
252.641479	145.980000
252.734360	146.200000
252.827240	146.000000
252.920105	146.040000
253.012970	146.020000
253.105850	145.820000
253.198715	145.280000
253.291595	145.540000
253.384460	145.180000
253.477341	145.220000
253.570221	145.440000
253.663086	145.700000
253.755966	146.280000
253.848846	146.240000
253.941727	146.600000
254.034592	146.360000
254.127472	145.960000
254.220367	145.660000
254.313248	145.920000
254.406128	145.280000
254.499008	145.580000
254.591904	146.480000
254.684784	147.080000
254.777664	147.060000
254.870544	147.120000
254.963440	147.200000
255.056335	147.240000
255.149216	146.500000
255.242111	147.080000
255.334991	147.520000
255.427887	147.640000
255.520767	147.520000
255.613663	147.720000
255.706558	146.820000
255.799438	146.820000
255.892334	146.300000
255.985229	146.060000
256.078125	145.900000
256.171021	146.200000
256.263916	146.440000
256.356812	147.000000
256.449707	147.280000
256.542603	146.980000
256.635498	147.380000
256.728394	147.360000
256.821289	146.960000
256.914215	147.240000
257.007080	147.760000
257.100006	147.660000
257.192932	148.000000
257.285828	148.220000
257.378723	147.960000
257.471619	147.700000
257.564545	147.360000
257.657440	147.200000
257.750336	147.740000
257.843262	147.340000
257.936157	148.380000
258.029053	148.760000
258.121979	148.320000
258.214874	147.280000
258.307800	147.200000
258.400696	146.020000
258.493622	145.900000
258.586517	145.540000
258.679443	146.280000
258.772339	146.160000
258.865265	146.340000
258.958160	145.580000
259.051086	146.380000
259.144012	146.060000
259.236938	146.660000
259.329834	146.440000
259.422791	146.500000
259.515717	145.660000
259.608612	145.220000
259.701538	145.340000
259.794464	145.520000
259.887390	145.900000
259.980316	146.380000
260.073212	146.520000
260.166138	145.520000
260.259064	145.820000
260.351990	146.320000
260.444916	146.180000
260.537842	146.660000
260.630768	147.680000
260.723694	147.360000
260.816620	147.080000
260.909546	147.140000
261.002472	146.780000
261.095398	145.880000
261.188354	145.800000
261.281281	145.380000
261.374207	145.420000
261.467133	146.020000
261.560089	146.540000
261.653015	146.360000
261.745972	147.060000
261.838867	147.480000
261.931824	147.240000
262.024780	146.800000
262.117706	147.020000
262.210663	146.980000
262.303589	146.440000
262.396515	146.740000
262.489471	147.640000
262.582397	147.660000
262.675354	146.900000
262.768280	146.960000
262.861237	146.340000
262.954163	145.920000
263.047119	145.800000
263.140045	145.900000
263.233002	146.000000
263.325958	145.980000
263.418884	145.740000
263.511841	145.760000
263.604797	145.900000
263.697723	145.580000
263.790680	145.540000
263.883636	145.960000
263.976593	145.800000
264.069550	145.840000
264.162476	145.940000
264.255463	146.140000
264.348419	145.840000
264.441376	146.480000
264.534332	146.240000
264.627289	146.620000
264.720245	147.140000
264.813202	147.080000
264.906158	146.940000
264.999115	147.500000
265.092072	147.340000
265.185028	147.640000
265.277985	147.780000
265.370941	147.400000
265.463898	147.000000
265.556854	147.040000
265.649811	145.700000
265.742798	145.500000
265.835754	145.760000
265.928711	146.120000
266.021667	146.100000
266.114655	146.500000
266.207611	146.860000
266.300568	146.300000
266.393585	145.980000
266.486511	145.940000
266.579498	145.260000
266.672485	145.240000
266.765442	145.380000
266.858429	145.960000
266.951385	145.440000
267.044342	145.740000
267.137329	145.600000
267.230316	145.960000
267.323273	145.520000
267.416260	146.500000
267.509216	147.060000
267.602203	146.920000
267.695160	146.980000
267.788147	147.040000
267.881134	146.400000
267.974091	146.400000
268.067078	146.200000
268.160065	146.080000
268.253052	146.100000
268.346008	146.240000
268.438995	146.140000
268.531982	146.640000
268.624969	146.580000
268.717987	146.740000
268.810944	146.760000
268.903961	146.580000
268.996948	146.160000
269.089905	146.520000
269.182892	146.440000
269.275879	146.540000
269.368866	146.460000
269.461853	146.960000
269.554871	146.640000
269.647858	146.580000
269.740845	146.940000
269.833832	147.360000
269.926819	146.540000
270.019806	146.680000
270.112793	146.240000
270.205811	146.240000
270.298798	145.960000
270.391785	146.740000
270.484772	146.500000
270.577789	146.680000
270.670776	146.360000
270.763763	146.560000
270.856750	146.520000
270.949768	146.340000
271.042786	146.500000
271.135773	146.060000
271.228790	146.220000
271.321808	145.620000
271.414795	145.540000
271.507782	145.540000
271.600800	145.420000
271.693817	145.120000
271.786804	145.840000
271.879822	146.320000
271.972809	146.300000
272.065826	147.000000
272.158844	146.960000
272.251831	147.300000
272.344849	147.220000
272.437866	147.000000
272.530853	146.960000
272.623871	147.100000
272.716888	145.900000
272.809906	146.520000
272.902893	146.340000
272.995911	145.780000
273.088928	145.620000
273.181946	146.180000
273.274963	145.420000
273.367981	145.880000
273.460999	146.040000
273.554047	146.520000
273.647003	147.020000
273.740051	146.740000
273.833069	146.840000
273.926086	147.260000
274.019135	146.760000
274.112152	146.160000
274.205170	146.740000
274.298187	147.040000
274.391205	146.360000
274.484222	146.420000
274.577240	146.260000
274.670258	146.020000
274.763306	145.700000
274.856323	146.460000
274.949341	146.640000
275.042358	147.200000
275.135406	146.720000
275.228424	146.520000
275.321442	146.140000
275.414490	146.000000
275.507507	146.200000
275.600525	147.140000
275.693573	146.860000
275.786591	146.460000
275.879669	146.520000
275.972656	146.000000
276.065735	145.520000
276.158752	146.100000
276.251801	146.980000
276.344818	146.940000
276.437866	147.000000
276.530884	146.980000
276.623932	146.280000
276.716980	146.380000
276.809998	146.440000
276.903046	146.660000
276.996094	147.360000
277.089111	148.200000
277.182159	148.460000
277.275208	148.060000
277.368256	147.920000
277.461304	147.360000
277.554321	146.420000
277.647369	145.980000
277.740417	146.120000
277.833466	146.140000
277.926514	145.860000
278.019562	146.820000
278.112610	146.320000
278.205688	146.780000
278.298706	146.820000
278.391785	146.740000
278.484833	146.020000
278.577881	145.820000
278.670929	145.880000
278.763977	145.880000
278.857025	146.780000
278.950073	147.280000
279.043121	147.320000
279.136169	147.040000
279.229248	146.720000
279.322296	146.220000
279.415344	145.980000
279.508392	145.900000
279.601440	145.820000
279.694519	145.760000
279.787567	145.820000
279.880615	145.600000
279.973694	146.160000
280.066742	146.440000
280.159790	146.760000
280.252869	146.140000
280.345917	146.360000
280.438995	146.120000
280.532074	145.960000
280.625122	146.320000
280.718201	147.540000
280.811279	147.600000
280.904327	147.520000
280.997406	147.460000
281.090454	147.220000
281.183533	146.600000
281.276581	146.440000
281.369659	146.380000
281.462738	146.540000
281.555786	146.600000
281.648865	146.600000
281.741943	146.480000
281.835022	146.980000
281.928070	146.900000
282.021149	146.580000
282.114227	146.480000
282.207306	146.520000
282.300385	146.580000
282.393433	146.520000
282.486511	146.640000
282.579590	147.180000
282.672668	147.360000
282.765747	146.840000
282.858856	146.720000
282.951904	146.840000
283.045013	146.580000
283.138062	146.960000
283.231171	147.200000
283.324249	147.700000
283.417328	147.420000
283.510406	146.960000
283.603485	146.640000
283.696564	146.520000
283.789642	146.260000
283.882751	146.280000
283.975830	147.120000
284.068909	147.060000
284.161987	147.480000
284.255066	147.160000
284.348175	147.180000
284.441254	146.760000
284.534332	146.980000
284.627441	146.480000
284.720520	146.420000
284.813599	146.640000
284.906708	146.520000
284.999786	145.960000
285.092896	146.060000
285.185974	147.060000
285.279053	146.460000
285.372192	146.720000
285.465240	147.320000
285.558380	147.320000
285.651459	146.800000
285.744568	148.180000
285.837677	147.920000
285.930756	147.580000
286.023865	147.560000
286.116943	147.120000
286.210052	146.580000
286.303162	146.200000
286.396240	146.400000
286.489349	146.140000
286.582458	146.380000
286.675568	146.100000
286.768646	146.380000
286.861755	146.720000
286.954865	147.600000
287.047974	147.320000
287.141083	147.440000
287.234161	147.120000
287.327271	146.840000
287.420380	146.800000
287.513519	146.880000
287.606598	146.640000
287.699738	146.960000
287.792816	146.680000
287.885956	146.400000
287.979034	146.440000
288.072174	146.700000
288.165283	146.760000
288.258392	147.220000
288.351501	146.540000
288.444611	146.640000
288.537720	146.940000
288.630859	147.080000
288.723969	147.060000
288.817078	147.660000
288.910187	147.540000
289.003296	146.900000
289.096436	146.540000
289.189545	146.100000
289.282654	145.860000
289.375763	146.520000
289.468903	147.020000
289.562012	147.580000
289.655121	147.660000
289.748260	147.600000
289.841400	147.540000
289.934509	147.220000
290.027649	146.840000
290.120728	146.900000
290.213898	146.980000
290.306976	146.580000
290.400146	146.720000
290.493256	146.440000
290.586395	146.680000
290.679535	147.000000
290.772644	146.840000
290.865784	146.080000
290.958893	146.180000
291.052032	145.980000
291.145172	145.760000
291.238281	145.700000
291.331421	146.100000
291.424561	146.780000
291.517670	146.620000
291.610809	147.040000
291.703949	146.680000
291.797089	146.980000
291.890228	145.860000
291.983337	145.880000
292.076477	145.540000
292.169617	146.200000
292.262756	145.980000
292.355927	146.440000
292.449036	146.280000
292.542206	146.380000
292.635315	146.420000
292.728485	146.780000
292.821625	146.620000
292.914764	147.720000
293.007904	147.760000
293.101044	147.640000
293.194183	147.460000
293.287323	147.580000
293.380463	146.880000
293.473602	146.580000
293.566742	146.720000
293.659882	147.020000
293.753021	147.200000
293.846191	146.920000
293.939331	146.640000
294.032471	146.120000
294.125610	145.660000
294.218781	146.120000
294.311920	146.620000
294.405060	147.160000
294.498230	147.260000
294.591370	147.080000
294.684540	145.940000
294.777679	145.300000
294.870850	145.040000
294.963959	145.020000
295.057159	145.040000
295.150299	145.940000
295.243469	146.280000
295.336609	145.900000
295.429779	146.060000
295.522919	146.480000
295.616089	146.460000
295.709229	146.800000
295.802399	147.180000
295.895569	147.060000
295.988708	146.740000
296.081879	146.640000
296.175018	146.060000
296.268188	145.960000
296.361359	146.240000
296.454529	146.540000
296.547668	146.320000
296.640839	146.720000
296.734009	146.400000
296.827179	146.700000
296.920319	146.840000
297.013519	146.900000
297.106659	147.120000
297.199860	147.500000
297.292999	146.900000
297.386200	146.440000
297.479309	146.160000
297.572510	145.760000
297.665680	145.300000
297.758850	145.420000
297.852020	145.520000
297.945190	145.500000
298.038361	145.160000
298.131531	146.080000
298.224701	146.220000
298.317871	146.040000
298.411072	145.840000
298.504242	145.900000
298.597412	145.400000
298.690582	145.620000
298.783752	145.660000
298.876923	146.220000
298.970093	146.420000
299.063293	146.600000
299.156464	146.680000
299.249634	147.120000
299.342834	147.380000
299.436005	147.800000
299.529205	147.740000
299.622345	147.560000
299.715576	146.720000
299.808716	146.060000
299.901917	145.820000
299.995117	146.340000
300.088287	146.620000
300.181488	146.900000
300.274658	147.020000
300.367828	146.800000
300.461029	146.240000
300.554199	146.180000
300.647400	146.260000
300.740601	146.660000
300.833771	146.640000
300.926971	147.080000
301.020142	146.360000
301.113342	146.400000
301.206512	146.280000
301.299713	146.600000
301.392914	146.340000
301.486084	146.780000
301.579285	146.900000
301.672516	147.160000
301.765686	146.720000
301.858887	146.640000
301.952057	146.680000
302.045288	146.640000
302.138458	146.520000
302.231659	146.260000
302.324860	146.180000
302.418060	145.900000
302.511261	146.080000
302.604462	146.140000
302.697662	146.720000
302.790863	146.660000
302.884064	146.780000
302.977264	146.760000
303.070465	146.680000
303.163666	147.420000
303.256866	147.660000
303.350067	147.500000
303.443268	147.260000
303.536469	147.520000
303.629669	146.480000
303.722870	146.520000
303.816071	146.400000
303.909271	146.300000
304.002472	145.640000
304.095673	145.520000
304.188934	144.720000
304.282104	145.600000
304.375336	145.680000
304.468506	145.780000
304.561768	145.740000
304.654968	146.500000
304.748169	145.840000
304.841370	145.580000
304.934601	146.000000
305.027802	146.100000
305.121002	145.760000
305.214233	145.720000
305.307434	146.140000
305.400665	146.520000
305.493866	146.340000
