Model Number: SPM-002-B   
Serial Number: 70087108
Firmware Version: 004.15.4
Exposure Time: 100000.000000us
Data Taken on: 11-12-2020 19:28:48.701
Wavelength	Amplitude
221.570786	0.000000
221.663406	0.000000
221.756027	0.000000
221.848648	0.000000
221.941269	0.000000
222.033905	0.000000
222.126526	0.000000
222.219162	0.000000
222.311798	0.000000
222.404419	0.000000
222.497055	0.000000
222.589676	0.000000
222.682312	0.000000
222.774933	0.000000
222.867569	0.000000
222.960205	0.000000
223.052841	0.000000
223.145462	0.000000
223.238098	0.000000
223.330734	0.000000
223.423386	0.000000
223.516022	0.000000
223.608658	0.000000
223.701309	0.000000
223.793945	0.000000
223.886581	0.000000
223.979218	0.000000
224.071869	0.000000
224.164505	0.000000
224.257156	0.000000
224.349792	0.000000
224.442444	0.000000
224.535095	0.000000
224.627747	0.000000
224.720398	0.000000
224.813034	0.000000
224.905685	0.000000
224.998337	145.440000
225.090988	145.200000
225.183640	145.700000
225.276291	145.340000
225.368942	145.600000
225.461594	146.340000
225.554245	146.440000
225.646912	145.920000
225.739578	146.660000
225.832230	146.700000
225.924896	145.480000
226.017548	145.660000
226.110199	146.240000
226.202866	145.560000
226.295532	145.160000
226.388184	145.400000
226.480850	145.000000
226.573517	144.520000
226.666168	144.840000
226.758835	145.260000
226.851501	145.880000
226.944183	146.180000
227.036850	146.020000
227.129517	145.960000
227.222183	145.920000
227.314850	145.960000
227.407516	146.180000
227.500198	146.940000
227.592865	146.480000
227.685532	146.220000
227.778214	145.700000
227.870880	145.900000
227.963562	146.120000
228.056229	146.780000
228.148926	146.900000
228.241592	147.580000
228.334274	146.900000
228.426956	146.440000
228.519638	146.220000
228.612305	145.920000
228.704987	145.700000
228.797668	145.840000
228.890350	145.560000
228.983032	144.820000
229.075714	145.500000
229.168396	145.480000
229.261108	145.500000
229.353790	145.600000
229.446472	146.260000
229.539169	145.920000
229.631851	145.460000
229.724533	145.480000
229.817230	145.640000
229.909912	146.240000
230.002609	146.380000
230.095306	146.420000
230.187988	146.520000
230.280685	146.320000
230.373383	145.380000
230.466095	144.880000
230.558792	145.200000
230.651474	145.280000
230.744171	145.480000
230.836868	145.580000
230.929581	146.300000
231.022278	146.360000
231.114975	146.400000
231.207672	146.280000
231.300369	146.960000
231.393082	146.800000
231.485779	146.440000
231.578506	146.040000
231.671204	146.160000
231.763916	146.020000
231.856613	145.940000
231.949326	146.280000
232.042023	146.460000
232.134735	146.140000
232.227448	145.500000
232.320160	145.700000
232.412872	145.460000
232.505585	146.220000
232.598297	147.060000
232.691010	147.200000
232.783722	146.620000
232.876450	147.420000
232.969162	146.820000
233.061874	145.820000
233.154587	145.560000
233.247314	145.780000
233.340027	144.840000
233.432739	145.240000
233.525467	145.280000
233.618179	145.780000
233.710907	145.860000
233.803635	146.700000
233.896347	146.220000
233.989090	147.160000
234.081818	147.080000
234.174545	146.900000
234.267258	146.180000
234.359985	146.400000
234.452713	145.900000
234.545441	145.660000
234.638168	145.420000
234.730896	145.940000
234.823639	145.760000
234.916367	146.120000
235.009094	146.060000
235.101822	146.520000
235.194580	146.320000
235.287308	146.200000
235.380051	145.660000
235.472778	146.100000
235.565521	146.460000
235.658249	146.120000
235.750992	146.580000
235.843719	146.580000
235.936462	146.760000
236.029205	146.160000
236.121948	145.900000
236.214691	145.840000
236.307449	146.660000
236.400192	146.140000
236.492935	145.900000
236.585678	146.620000
236.678421	146.840000
236.771164	146.540000
236.863907	147.160000
236.956665	147.480000
237.049408	148.580000
237.142151	148.040000
237.234909	148.620000
237.327652	148.380000
237.420410	148.140000
237.513153	147.200000
237.605927	146.880000
237.698669	145.960000
237.791428	145.380000
237.884186	145.960000
237.976944	145.320000
238.069702	145.900000
238.162445	145.840000
238.255203	146.240000
238.347961	146.320000
238.440720	146.480000
238.533478	146.300000
238.626266	146.080000
238.719025	146.220000
238.811783	145.920000
238.904541	145.740000
238.997314	145.460000
239.090073	145.480000
239.182831	145.580000
239.275604	146.580000
239.368362	146.640000
239.461136	147.020000
239.553909	146.920000
239.646667	146.720000
239.739441	145.960000
239.832214	146.360000
239.925003	146.520000
240.017761	147.500000
240.110535	148.200000
240.203308	147.980000
240.296082	147.760000
240.388855	147.540000
240.481628	146.960000
240.574417	146.800000
240.667191	146.740000
240.759964	146.340000
240.852737	146.260000
240.945526	146.140000
241.038315	145.480000
241.131088	145.400000
241.223877	145.840000
241.316650	145.300000
241.409439	145.680000
241.502228	145.720000
241.595001	146.420000
241.687790	146.060000
241.780579	146.560000
241.873367	146.360000
241.966141	146.480000
242.058929	146.060000
242.151718	146.660000
242.244507	147.140000
242.337311	146.480000
242.430099	146.920000
242.522903	146.940000
242.615692	146.420000
242.708481	146.140000
242.801270	146.420000
242.894073	146.240000
242.986862	146.200000
243.079651	146.640000
243.172455	146.240000
243.265244	146.680000
243.358063	146.000000
243.450867	146.200000
243.543655	146.260000
243.636459	146.500000
243.729263	146.560000
243.822067	147.040000
243.914856	147.400000
244.007660	147.260000
244.100464	147.180000
244.193268	146.600000
244.286072	146.520000
244.378876	145.600000
244.471680	145.360000
244.564499	145.760000
244.657318	146.680000
244.750122	147.180000
244.842926	146.680000
244.935745	147.000000
245.028549	146.320000
245.121368	145.860000
245.214172	145.400000
245.306992	146.140000
245.399796	145.740000
245.492615	146.240000
245.585434	146.040000
245.678253	146.060000
245.771072	146.160000
245.863892	146.780000
245.956711	146.980000
246.049530	146.980000
246.142349	146.720000
246.235168	146.860000
246.327988	146.920000
246.420807	146.420000
246.513626	146.680000
246.606445	146.700000
246.699280	146.440000
246.792099	146.140000
246.884918	146.020000
246.977753	145.360000
247.070587	145.340000
247.163422	145.600000
247.256241	145.500000
247.349075	146.160000
247.441895	146.540000
247.534729	146.680000
247.627563	146.220000
247.720383	146.860000
247.813217	146.080000
247.906052	145.980000
247.998886	146.000000
248.091736	145.880000
248.184570	145.360000
248.277405	145.540000
248.370239	146.180000
248.463074	147.020000
248.555908	147.520000
248.648743	147.300000
248.741592	147.620000
248.834427	147.160000
248.927261	146.200000
249.020111	146.760000
249.112946	147.280000
249.205795	146.840000
249.298630	146.820000
249.391495	146.680000
249.484344	145.920000
249.577179	145.700000
249.670029	146.040000
249.762878	146.460000
249.855728	146.840000
249.948563	147.140000
250.041412	146.500000
250.134262	146.520000
250.227112	146.520000
250.319962	146.140000
250.412827	145.860000
250.505692	145.780000
250.598541	145.860000
250.691391	145.380000
250.784241	145.880000
250.877106	145.940000
250.969955	146.000000
251.062805	146.480000
251.155670	147.240000
251.248520	146.780000
251.341385	147.180000
251.434235	147.520000
251.527100	147.040000
251.619965	146.460000
251.712814	147.320000
251.805695	146.960000
251.898560	147.120000
251.991425	147.260000
252.084290	147.340000
252.177155	146.740000
252.270020	146.560000
252.362885	146.380000
252.455750	146.440000
252.548615	146.140000
252.641479	145.920000
252.734360	146.140000
252.827240	145.680000
252.920105	145.340000
253.012970	145.340000
253.105850	145.420000
253.198715	145.020000
253.291595	145.420000
253.384460	145.040000
253.477341	144.940000
253.570221	145.400000
253.663086	145.440000
253.755966	146.160000
253.848846	146.440000
253.941727	146.660000
254.034592	146.180000
254.127472	145.640000
254.220367	145.200000
254.313248	145.380000
254.406128	145.080000
254.499008	145.400000
254.591904	146.700000
254.684784	147.160000
254.777664	147.160000
254.870544	146.980000
254.963440	146.960000
255.056335	146.640000
255.149216	146.000000
255.242111	146.220000
255.334991	146.680000
255.427887	146.580000
255.520767	146.780000
255.613663	147.060000
255.706558	146.520000
255.799438	146.260000
255.892334	145.900000
255.985229	145.480000
256.078125	145.280000
256.171021	145.340000
256.263916	145.920000
256.356812	146.660000
256.449707	146.680000
256.542603	146.540000
256.635498	147.420000
256.728394	147.020000
256.821289	146.320000
256.914215	146.600000
257.007080	146.780000
257.100006	146.700000
257.192932	147.180000
257.285828	147.320000
257.378723	146.820000
257.471619	146.760000
257.564545	145.820000
257.657440	145.560000
257.750336	146.260000
257.843262	146.220000
257.936157	147.400000
258.029053	147.960000
258.121979	147.980000
258.214874	147.480000
258.307800	147.680000
258.400696	146.260000
258.493622	146.120000
258.586517	145.460000
258.679443	145.700000
258.772339	145.180000
258.865265	145.260000
258.958160	144.820000
259.051086	145.820000
259.144012	145.580000
259.236938	146.660000
259.329834	146.960000
259.422791	147.120000
259.515717	146.240000
259.608612	145.940000
259.701538	145.620000
259.794464	145.280000
259.887390	145.300000
259.980316	145.600000
260.073212	145.580000
260.166138	144.820000
260.259064	145.340000
260.351990	146.060000
260.444916	146.100000
260.537842	146.720000
260.630768	147.720000
260.723694	147.540000
260.816620	146.860000
260.909546	146.880000
261.002472	146.260000
261.095398	145.580000
261.188354	145.600000
261.281281	145.560000
261.374207	145.700000
261.467133	146.420000
261.560089	146.980000
261.653015	146.580000
261.745972	147.220000
261.838867	147.460000
261.931824	147.700000
262.024780	147.040000
262.117706	147.440000
262.210663	147.560000
262.303589	147.220000
262.396515	146.820000
262.489471	147.780000
262.582397	147.480000
262.675354	146.900000
262.768280	146.920000
262.861237	146.860000
262.954163	146.400000
263.047119	146.540000
263.140045	146.140000
263.233002	146.020000
263.325958	145.660000
263.418884	145.200000
263.511841	145.540000
263.604797	145.980000
263.697723	146.200000
263.790680	146.360000
263.883636	146.920000
263.976593	146.440000
264.069550	146.440000
264.162476	145.880000
264.255463	145.760000
264.348419	145.100000
264.441376	145.740000
264.534332	145.300000
264.627289	145.580000
264.720245	146.180000
264.813202	146.040000
264.906158	145.860000
264.999115	146.480000
265.092072	146.660000
265.185028	146.680000
265.277985	147.320000
265.370941	147.220000
265.463898	146.880000
265.556854	146.420000
265.649811	146.040000
265.742798	146.040000
265.835754	145.980000
265.928711	146.560000
266.021667	146.840000
266.114655	146.700000
266.207611	146.540000
266.300568	145.940000
266.393585	145.400000
266.486511	145.780000
266.579498	145.140000
266.672485	145.320000
266.765442	145.500000
266.858429	146.020000
266.951385	145.680000
267.044342	146.280000
267.137329	146.280000
267.230316	146.660000
267.323273	146.000000
267.416260	146.440000
267.509216	146.440000
267.602203	146.340000
267.695160	146.700000
267.788147	146.620000
267.881134	146.060000
267.974091	146.180000
268.067078	146.240000
268.160065	145.680000
268.253052	145.840000
268.346008	145.940000
268.438995	145.640000
268.531982	145.540000
268.624969	145.400000
268.717987	145.680000
268.810944	145.960000
268.903961	146.060000
268.996948	145.560000
269.089905	146.140000
269.182892	146.180000
269.275879	146.160000
269.368866	145.640000
269.461853	146.360000
269.554871	146.100000
269.647858	145.780000
269.740845	146.260000
269.833832	147.040000
269.926819	146.600000
270.019806	146.720000
270.112793	146.440000
270.205811	146.200000
270.298798	145.900000
270.391785	146.520000
270.484772	146.300000
270.577789	146.740000
270.670776	145.840000
270.763763	145.880000
270.856750	145.940000
270.949768	145.620000
271.042786	145.520000
271.135773	146.220000
271.228790	146.560000
271.321808	145.920000
271.414795	145.560000
271.507782	145.560000
271.600800	145.020000
271.693817	145.040000
271.786804	145.660000
271.879822	146.240000
271.972809	146.100000
272.065826	146.660000
272.158844	146.300000
272.251831	146.320000
272.344849	146.400000
272.437866	146.400000
272.530853	146.520000
272.623871	146.500000
272.716888	145.440000
272.809906	146.080000
272.902893	145.780000
272.995911	144.800000
273.088928	144.800000
273.181946	145.380000
273.274963	144.520000
273.367981	144.860000
273.460999	145.580000
273.554047	146.080000
273.647003	146.540000
273.740051	146.360000
273.833069	146.880000
273.926086	147.180000
274.019135	146.540000
274.112152	146.240000
274.205170	146.720000
274.298187	146.660000
274.391205	146.020000
274.484222	146.200000
274.577240	146.060000
274.670258	146.000000
274.763306	145.880000
274.856323	146.280000
274.949341	146.460000
275.042358	146.860000
275.135406	146.620000
275.228424	146.420000
275.321442	146.340000
275.414490	146.020000
275.507507	146.000000
275.600525	146.500000
275.693573	146.200000
275.786591	145.900000
275.879669	145.880000
275.972656	145.740000
276.065735	145.400000
276.158752	146.060000
276.251801	146.960000
276.344818	147.080000
276.437866	146.900000
276.530884	146.860000
276.623932	146.060000
276.716980	146.040000
276.809998	146.200000
276.903046	146.420000
276.996094	147.320000
277.089111	148.060000
277.182159	148.040000
277.275208	147.740000
277.368256	147.420000
277.461304	146.780000
277.554321	146.160000
277.647369	145.880000
277.740417	146.140000
277.833466	146.280000
277.926514	145.960000
278.019562	146.580000
278.112610	145.760000
278.205688	145.780000
278.298706	145.740000
278.391785	145.680000
278.484833	145.160000
278.577881	145.320000
278.670929	145.700000
278.763977	145.680000
278.857025	146.080000
278.950073	146.280000
279.043121	146.180000
279.136169	145.760000
279.229248	145.580000
279.322296	145.600000
279.415344	145.400000
279.508392	145.580000
279.601440	145.560000
279.694519	145.460000
279.787567	145.120000
279.880615	144.920000
279.973694	144.880000
280.066742	144.840000
280.159790	145.000000
280.252869	144.940000
280.345917	145.360000
280.438995	145.200000
280.532074	145.280000
280.625122	145.680000
280.718201	146.340000
280.811279	146.280000
280.904327	146.580000
280.997406	146.660000
281.090454	146.360000
281.183533	145.900000
281.276581	145.800000
281.369659	145.380000
281.462738	145.420000
281.555786	145.800000
281.648865	145.920000
281.741943	146.160000
281.835022	147.300000
281.928070	147.060000
282.021149	146.860000
282.114227	146.760000
282.207306	146.620000
282.300385	146.560000
282.393433	146.860000
282.486511	146.740000
282.579590	147.180000
282.672668	147.340000
282.765747	146.600000
282.858856	146.260000
282.951904	146.420000
283.045013	146.300000
283.138062	146.660000
283.231171	146.880000
283.324249	147.140000
283.417328	147.260000
283.510406	146.780000
283.603485	146.300000
283.696564	146.200000
283.789642	146.260000
283.882751	145.920000
283.975830	146.500000
284.068909	146.380000
284.161987	147.040000
284.255066	146.540000
284.348175	146.720000
284.441254	146.520000
284.534332	147.080000
284.627441	146.560000
284.720520	146.400000
284.813599	146.280000
284.906708	146.140000
284.999786	145.020000
285.092896	144.880000
285.185974	145.880000
285.279053	145.360000
285.372192	145.760000
285.465240	146.920000
285.558380	146.980000
285.651459	146.460000
285.744568	147.560000
285.837677	147.300000
285.930756	146.960000
286.023865	147.100000
286.116943	147.040000
286.210052	146.760000
286.303162	146.500000
286.396240	146.240000
286.489349	145.840000
286.582458	145.980000
286.675568	145.680000
286.768646	146.000000
286.861755	146.580000
286.954865	147.300000
287.047974	146.860000
287.141083	146.940000
287.234161	146.460000
287.327271	146.020000
287.420380	146.040000
287.513519	146.300000
287.606598	146.420000
287.699738	146.700000
287.792816	146.720000
287.885956	146.520000
287.979034	146.520000
288.072174	146.520000
288.165283	146.520000
288.258392	146.480000
288.351501	146.000000
288.444611	146.260000
288.537720	146.520000
288.630859	146.380000
288.723969	146.640000
288.817078	147.180000
288.910187	147.020000
289.003296	146.480000
289.096436	146.280000
289.189545	145.880000
289.282654	145.160000
289.375763	145.420000
289.468903	145.640000
289.562012	146.060000
289.655121	146.320000
289.748260	146.800000
289.841400	146.900000
289.934509	146.760000
290.027649	146.900000
290.120728	146.880000
290.213898	146.680000
290.306976	146.440000
290.400146	146.600000
290.493256	146.080000
290.586395	146.000000
290.679535	146.300000
290.772644	145.960000
290.865784	145.080000
290.958893	145.240000
291.052032	144.780000
291.145172	144.820000
291.238281	144.720000
291.331421	145.400000
291.424561	145.740000
291.517670	145.920000
291.610809	145.780000
291.703949	145.940000
291.797089	146.180000
291.890228	145.660000
291.983337	145.900000
292.076477	145.760000
292.169617	145.760000
292.262756	145.680000
292.355927	145.740000
292.449036	145.460000
292.542206	145.700000
292.635315	146.240000
292.728485	146.280000
292.821625	146.260000
292.914764	147.600000
293.007904	147.640000
293.101044	147.380000
293.194183	147.120000
293.287323	147.500000
293.380463	146.620000
293.473602	146.540000
293.566742	146.640000
293.659882	147.340000
293.753021	147.360000
293.846191	147.300000
293.939331	146.680000
294.032471	146.560000
294.125610	145.680000
294.218781	145.880000
294.311920	146.260000
294.405060	146.840000
294.498230	146.740000
294.591370	147.280000
294.684540	146.640000
294.777679	146.120000
294.870850	146.460000
294.963959	146.200000
295.057159	145.920000
295.150299	146.460000
295.243469	146.320000
295.336609	145.580000
295.429779	145.860000
295.522919	146.000000
295.616089	145.940000
295.709229	146.500000
295.802399	146.600000
295.895569	146.280000
295.988708	146.240000
296.081879	146.060000
296.175018	145.400000
296.268188	145.740000
296.361359	146.220000
296.454529	146.480000
296.547668	146.120000
296.640839	146.520000
296.734009	146.060000
296.827179	146.080000
296.920319	145.940000
297.013519	146.220000
297.106659	146.400000
297.199860	146.540000
297.292999	146.360000
297.386200	146.160000
297.479309	146.020000
297.572510	145.900000
297.665680	145.680000
297.758850	145.760000
297.852020	145.760000
297.945190	145.760000
298.038361	145.120000
298.131531	146.020000
298.224701	145.800000
298.317871	145.640000
298.411072	145.160000
298.504242	145.480000
298.597412	144.880000
298.690582	145.380000
298.783752	145.720000
298.876923	146.720000
298.970093	146.640000
299.063293	147.180000
299.156464	147.260000
299.249634	147.240000
299.342834	147.040000
299.436005	147.460000
299.529205	147.200000
299.622345	147.060000
299.715576	146.660000
299.808716	146.240000
299.901917	146.060000
299.995117	146.120000
300.088287	146.420000
300.181488	146.580000
300.274658	146.780000
300.367828	146.680000
300.461029	146.500000
300.554199	146.220000
300.647400	146.080000
300.740601	146.480000
300.833771	146.400000
300.926971	146.660000
301.020142	146.040000
301.113342	146.040000
301.206512	145.980000
301.299713	146.460000
301.392914	146.320000
301.486084	146.720000
301.579285	146.860000
301.672516	147.060000
301.765686	146.840000
301.858887	146.980000
301.952057	147.080000
302.045288	147.040000
302.138458	146.680000
302.231659	146.300000
302.324860	146.020000
302.418060	145.460000
302.511261	145.420000
302.604462	145.840000
302.697662	145.900000
302.790863	145.720000
302.884064	146.000000
302.977264	146.200000
303.070465	145.820000
303.163666	146.500000
303.256866	147.000000
303.350067	147.020000
303.443268	147.080000
303.536469	147.520000
303.629669	147.040000
303.722870	146.800000
303.816071	146.800000
303.909271	146.800000
304.002472	145.820000
304.095673	145.820000
304.188934	145.100000
304.282104	145.900000
304.375336	145.900000
304.468506	146.060000
304.561768	145.940000
304.654968	146.720000
304.748169	145.960000
304.841370	145.760000
304.934601	146.120000
305.027802	146.020000
305.121002	145.580000
305.214233	145.960000
305.307434	146.000000
305.400665	146.520000
305.493866	146.300000
