Model Number: SPM-002-B   
Serial Number: 70087108
Firmware Version: 004.15.4
Exposure Time: 100000.000000us
Data Taken on: 11-12-2020 19:29:11.503
Wavelength	Amplitude
221.570786	0.000000
221.663406	0.000000
221.756027	0.000000
221.848648	0.000000
221.941269	0.000000
222.033905	0.000000
222.126526	0.000000
222.219162	0.000000
222.311798	0.000000
222.404419	0.000000
222.497055	0.000000
222.589676	0.000000
222.682312	0.000000
222.774933	0.000000
222.867569	0.000000
222.960205	0.000000
223.052841	0.000000
223.145462	0.000000
223.238098	0.000000
223.330734	0.000000
223.423386	0.000000
223.516022	0.000000
223.608658	0.000000
223.701309	0.000000
223.793945	0.000000
223.886581	0.000000
223.979218	0.000000
224.071869	0.000000
224.164505	0.000000
224.257156	0.000000
224.349792	0.000000
224.442444	0.000000
224.535095	0.000000
224.627747	0.000000
224.720398	0.000000
224.813034	0.000000
224.905685	0.000000
224.998337	144.680000
225.090988	144.480000
225.183640	144.540000
225.276291	144.380000
225.368942	145.080000
225.461594	145.840000
225.554245	146.140000
225.646912	146.200000
225.739578	146.800000
225.832230	146.980000
225.924896	146.120000
226.017548	146.160000
226.110199	146.760000
226.202866	146.180000
226.295532	145.880000
226.388184	145.780000
226.480850	145.340000
226.573517	144.880000
226.666168	145.260000
226.758835	145.600000
226.851501	146.400000
226.944183	146.520000
227.036850	146.140000
227.129517	146.140000
227.222183	146.220000
227.314850	145.760000
227.407516	146.020000
227.500198	146.640000
227.592865	146.120000
227.685532	145.560000
227.778214	145.500000
227.870880	145.680000
227.963562	146.080000
228.056229	146.520000
228.148926	146.560000
228.241592	147.260000
228.334274	147.100000
228.426956	146.760000
228.519638	146.700000
228.612305	146.500000
228.704987	146.340000
228.797668	146.080000
228.890350	145.720000
228.983032	145.460000
229.075714	146.100000
229.168396	145.560000
229.261108	145.540000
229.353790	145.660000
229.446472	145.740000
229.539169	145.540000
229.631851	145.300000
229.724533	145.540000
229.817230	145.480000
229.909912	146.320000
230.002609	146.380000
230.095306	146.760000
230.187988	146.780000
230.280685	146.640000
230.373383	145.840000
230.466095	145.820000
230.558792	145.980000
230.651474	146.020000
230.744171	146.160000
230.836868	146.120000
230.929581	146.060000
231.022278	146.060000
231.114975	145.860000
231.207672	145.600000
231.300369	145.780000
231.393082	145.780000
231.485779	145.240000
231.578506	145.320000
231.671204	145.680000
231.763916	145.580000
231.856613	145.520000
231.949326	145.960000
232.042023	146.040000
232.134735	146.000000
232.227448	145.640000
232.320160	146.060000
232.412872	145.960000
232.505585	146.060000
232.598297	146.300000
232.691010	146.620000
232.783722	146.020000
232.876450	146.520000
232.969162	146.400000
233.061874	146.140000
233.154587	145.680000
233.247314	146.120000
233.340027	145.480000
233.432739	145.860000
233.525467	145.560000
233.618179	145.820000
233.710907	145.500000
233.803635	146.180000
233.896347	145.780000
233.989090	146.640000
234.081818	146.380000
234.174545	146.420000
234.267258	145.660000
234.359985	145.960000
234.452713	145.440000
234.545441	145.600000
234.638168	145.540000
234.730896	146.100000
234.823639	145.760000
234.916367	146.060000
235.009094	146.100000
235.101822	146.300000
235.194580	146.060000
235.287308	145.980000
235.380051	145.620000
235.472778	146.120000
235.565521	146.280000
235.658249	146.060000
235.750992	146.300000
235.843719	146.100000
235.936462	146.060000
236.029205	145.800000
236.121948	145.840000
236.214691	145.860000
236.307449	146.620000
236.400192	146.240000
236.492935	145.860000
236.585678	145.740000
236.678421	145.660000
236.771164	145.260000
236.863907	145.760000
236.956665	146.140000
237.049408	147.780000
237.142151	147.620000
237.234909	148.360000
237.327652	148.280000
237.420410	147.880000
237.513153	146.780000
237.605927	146.820000
237.698669	146.100000
237.791428	145.420000
237.884186	146.040000
237.976944	145.440000
238.069702	145.360000
238.162445	144.600000
238.255203	144.920000
238.347961	144.800000
238.440720	145.040000
238.533478	145.080000
238.626266	145.180000
238.719025	145.260000
238.811783	145.200000
238.904541	145.340000
238.997314	145.340000
239.090073	145.280000
239.182831	145.500000
239.275604	146.240000
239.368362	146.220000
239.461136	146.240000
239.553909	146.540000
239.646667	146.320000
239.739441	145.720000
239.832214	145.960000
239.925003	146.160000
240.017761	146.540000
240.110535	147.120000
240.203308	146.520000
240.296082	146.300000
240.388855	146.400000
240.481628	146.740000
240.574417	146.340000
240.667191	146.800000
240.759964	146.320000
240.852737	146.020000
240.945526	145.460000
241.038315	145.320000
241.131088	145.320000
241.223877	145.800000
241.316650	145.440000
241.409439	145.680000
241.502228	145.580000
241.595001	146.260000
241.687790	146.320000
241.780579	146.660000
241.873367	146.640000
241.966141	146.820000
242.058929	145.940000
242.151718	145.880000
242.244507	146.320000
242.337311	145.520000
242.430099	145.840000
242.522903	146.400000
242.615692	145.840000
242.708481	145.660000
242.801270	146.400000
242.894073	146.420000
242.986862	146.300000
243.079651	147.160000
243.172455	146.860000
243.265244	146.920000
243.358063	146.200000
243.450867	146.160000
243.543655	145.920000
243.636459	145.960000
243.729263	146.120000
243.822067	146.460000
243.914856	146.840000
244.007660	147.000000
244.100464	147.140000
244.193268	146.680000
244.286072	146.720000
244.378876	146.120000
244.471680	145.660000
244.564499	146.020000
244.657318	146.640000
244.750122	146.760000
244.842926	146.200000
244.935745	146.600000
245.028549	145.880000
245.121368	145.700000
245.214172	145.680000
245.306992	146.320000
245.399796	146.100000
245.492615	146.680000
245.585434	146.300000
245.678253	146.300000
245.771072	146.100000
245.863892	146.380000
245.956711	146.320000
246.049530	146.420000
246.142349	146.120000
246.235168	146.200000
246.327988	146.520000
246.420807	146.160000
246.513626	146.220000
246.606445	146.100000
246.699280	146.300000
246.792099	146.000000
246.884918	145.800000
246.977753	145.660000
247.070587	145.820000
247.163422	145.540000
247.256241	145.460000
247.349075	145.860000
247.441895	145.760000
247.534729	145.320000
247.627563	145.540000
247.720383	146.040000
247.813217	145.960000
247.906052	145.800000
247.998886	146.340000
248.091736	146.220000
248.184570	145.860000
248.277405	145.840000
248.370239	146.880000
248.463074	147.640000
248.555908	147.980000
248.648743	147.460000
248.741592	147.660000
248.834427	146.940000
248.927261	145.800000
249.020111	146.000000
249.112946	146.560000
249.205795	145.760000
249.298630	145.920000
249.391495	146.320000
249.484344	145.540000
249.577179	145.420000
249.670029	146.020000
249.762878	146.300000
249.855728	146.020000
249.948563	146.460000
250.041412	145.880000
250.134262	146.280000
250.227112	146.260000
250.319962	146.280000
250.412827	146.280000
250.505692	146.260000
250.598541	145.840000
250.691391	145.200000
250.784241	145.280000
250.877106	145.260000
250.969955	145.340000
251.062805	145.960000
251.155670	146.520000
251.248520	146.560000
251.341385	146.700000
251.434235	146.680000
251.527100	146.180000
251.619965	145.740000
251.712814	146.620000
251.805695	146.740000
251.898560	146.900000
251.991425	146.980000
252.084290	147.300000
252.177155	146.240000
252.270020	145.760000
252.362885	145.860000
252.455750	145.840000
252.548615	145.660000
252.641479	145.940000
252.734360	145.580000
252.827240	145.380000
252.920105	145.300000
253.012970	145.380000
253.105850	145.240000
253.198715	145.400000
253.291595	145.460000
253.384460	145.060000
253.477341	144.860000
253.570221	145.140000
253.663086	145.000000
253.755966	145.940000
253.848846	146.160000
253.941727	146.320000
254.034592	146.100000
254.127472	146.140000
254.220367	145.880000
254.313248	146.140000
254.406128	145.820000
254.499008	145.840000
254.591904	146.780000
254.684784	146.800000
254.777664	146.860000
254.870544	146.620000
254.963440	146.640000
255.056335	146.200000
255.149216	145.640000
255.242111	145.920000
255.334991	146.640000
255.427887	146.720000
255.520767	146.820000
255.613663	147.100000
255.706558	146.160000
255.799438	145.960000
255.892334	145.860000
255.985229	145.820000
256.078125	145.740000
256.171021	146.200000
256.263916	146.700000
256.356812	147.040000
256.449707	146.940000
256.542603	146.700000
256.635498	147.060000
256.728394	146.520000
256.821289	146.180000
256.914215	146.380000
257.007080	146.660000
257.100006	146.480000
257.192932	147.080000
257.285828	147.460000
257.378723	147.220000
257.471619	146.880000
257.564545	146.240000
257.657440	145.720000
257.750336	145.940000
257.843262	145.640000
257.936157	146.900000
258.029053	147.620000
258.121979	148.040000
258.214874	147.600000
258.307800	147.740000
258.400696	146.460000
258.493622	146.200000
258.586517	145.040000
258.679443	145.340000
258.772339	145.140000
258.865265	145.120000
258.958160	144.680000
259.051086	145.840000
259.144012	145.420000
259.236938	146.100000
259.329834	146.580000
259.422791	147.040000
259.515717	146.240000
259.608612	146.200000
259.701538	145.960000
259.794464	145.560000
259.887390	145.500000
259.980316	145.380000
260.073212	145.100000
260.166138	144.400000
260.259064	144.780000
260.351990	145.420000
260.444916	145.800000
260.537842	146.180000
260.630768	146.880000
260.723694	146.660000
260.816620	146.200000
260.909546	146.180000
261.002472	146.180000
261.095398	146.020000
261.188354	146.080000
261.281281	145.760000
261.374207	145.820000
261.467133	146.460000
261.560089	146.720000
261.653015	146.540000
261.745972	147.100000
261.838867	147.780000
261.931824	147.520000
262.024780	146.660000
262.117706	146.920000
262.210663	146.900000
262.303589	146.080000
262.396515	145.900000
262.489471	147.080000
262.582397	146.960000
262.675354	146.580000
262.768280	146.900000
262.861237	147.080000
262.954163	146.620000
263.047119	146.720000
263.140045	146.500000
263.233002	146.320000
263.325958	146.060000
263.418884	145.540000
263.511841	145.400000
263.604797	145.620000
263.697723	145.480000
263.790680	145.300000
263.883636	146.260000
263.976593	146.240000
264.069550	146.180000
264.162476	145.980000
264.255463	145.900000
264.348419	145.420000
264.441376	145.560000
264.534332	145.080000
264.627289	145.240000
264.720245	145.660000
264.813202	144.980000
264.906158	145.100000
264.999115	145.980000
265.092072	146.300000
265.185028	146.720000
265.277985	147.400000
265.370941	147.460000
265.463898	147.140000
265.556854	147.000000
265.649811	146.060000
265.742798	145.780000
265.835754	145.520000
265.928711	145.800000
266.021667	145.740000
266.114655	146.200000
266.207611	146.600000
266.300568	146.120000
266.393585	145.400000
266.486511	145.560000
266.579498	144.760000
266.672485	144.740000
266.765442	145.060000
266.858429	145.900000
266.951385	145.320000
267.044342	145.700000
267.137329	145.540000
267.230316	145.840000
267.323273	145.000000
267.416260	145.960000
267.509216	146.020000
267.602203	145.740000
267.695160	145.960000
267.788147	146.300000
267.881134	145.420000
267.974091	145.460000
268.067078	145.700000
268.160065	145.300000
268.253052	145.180000
268.346008	145.360000
268.438995	145.180000
268.531982	145.280000
268.624969	145.160000
268.717987	145.540000
268.810944	145.720000
268.903961	145.920000
268.996948	145.260000
269.089905	145.660000
269.182892	145.540000
269.275879	145.840000
269.368866	145.460000
269.461853	146.300000
269.554871	146.260000
269.647858	146.420000
269.740845	146.560000
269.833832	147.200000
269.926819	146.540000
270.019806	146.320000
270.112793	145.620000
270.205811	145.580000
270.298798	145.100000
270.391785	145.840000
270.484772	145.760000
270.577789	146.360000
270.670776	145.780000
270.763763	146.020000
270.856750	145.980000
270.949768	145.440000
271.042786	145.640000
271.135773	145.860000
271.228790	146.100000
271.321808	145.500000
271.414795	145.580000
271.507782	145.060000
271.600800	144.840000
271.693817	144.820000
271.786804	145.300000
271.879822	145.620000
271.972809	145.240000
272.065826	145.780000
272.158844	145.180000
272.251831	145.620000
272.344849	145.880000
272.437866	146.260000
272.530853	145.980000
272.623871	146.220000
272.716888	145.240000
272.809906	145.340000
272.902893	145.400000
272.995911	144.940000
273.088928	145.020000
273.181946	145.540000
273.274963	145.100000
273.367981	144.960000
273.460999	145.440000
273.554047	145.800000
273.647003	146.200000
273.740051	146.380000
273.833069	146.780000
273.926086	147.120000
274.019135	146.700000
274.112152	146.140000
274.205170	146.100000
274.298187	146.180000
274.391205	145.460000
274.484222	145.540000
274.577240	145.560000
274.670258	145.580000
274.763306	145.340000
274.856323	145.660000
274.949341	145.820000
275.042358	146.180000
275.135406	146.380000
275.228424	146.420000
275.321442	146.260000
275.414490	145.980000
275.507507	146.160000
275.600525	146.640000
275.693573	146.380000
275.786591	146.280000
275.879669	146.280000
275.972656	145.600000
276.065735	145.120000
276.158752	145.720000
276.251801	146.460000
276.344818	146.880000
276.437866	147.200000
276.530884	146.760000
276.623932	145.800000
276.716980	145.460000
276.809998	145.560000
276.903046	145.540000
276.996094	146.560000
277.089111	147.500000
277.182159	148.060000
277.275208	147.640000
277.368256	147.400000
277.461304	146.680000
277.554321	146.060000
277.647369	146.100000
277.740417	146.280000
277.833466	146.240000
277.926514	146.220000
278.019562	147.260000
278.112610	146.400000
278.205688	146.240000
278.298706	146.540000
278.391785	146.500000
278.484833	145.800000
278.577881	145.800000
278.670929	146.200000
278.763977	146.280000
278.857025	146.540000
278.950073	146.440000
279.043121	146.220000
279.136169	145.960000
279.229248	145.720000
279.322296	145.760000
279.415344	145.580000
279.508392	145.660000
279.601440	145.600000
279.694519	145.480000
279.787567	145.300000
279.880615	145.300000
279.973694	145.260000
280.066742	145.200000
280.159790	145.400000
280.252869	145.140000
280.345917	144.900000
280.438995	145.060000
280.532074	145.020000
280.625122	145.060000
280.718201	146.320000
280.811279	146.900000
280.904327	147.000000
280.997406	147.260000
281.090454	147.400000
281.183533	146.280000
281.276581	145.900000
281.369659	145.920000
281.462738	145.700000
281.555786	145.400000
281.648865	145.360000
281.741943	145.320000
281.835022	145.760000
281.928070	145.700000
282.021149	145.600000
282.114227	145.480000
282.207306	145.700000
282.300385	145.580000
282.393433	145.840000
282.486511	145.880000
282.579590	146.540000
282.672668	146.540000
282.765747	145.860000
282.858856	145.560000
282.951904	145.920000
283.045013	145.760000
283.138062	146.260000
283.231171	146.760000
283.324249	147.280000
283.417328	147.060000
283.510406	146.440000
283.603485	145.940000
283.696564	145.580000
283.789642	145.260000
283.882751	145.120000
283.975830	145.860000
284.068909	145.600000
284.161987	146.460000
284.255066	146.080000
284.348175	146.140000
284.441254	145.740000
284.534332	146.420000
284.627441	145.680000
284.720520	145.560000
284.813599	145.680000
284.906708	145.680000
284.999786	144.840000
285.092896	144.660000
285.185974	145.820000
285.279053	145.420000
285.372192	145.420000
285.465240	146.340000
285.558380	146.520000
285.651459	145.840000
285.744568	146.700000
285.837677	146.460000
285.930756	146.080000
286.023865	146.020000
286.116943	145.720000
286.210052	145.640000
286.303162	145.800000
286.396240	145.920000
286.489349	145.860000
286.582458	146.320000
286.675568	146.220000
286.768646	146.200000
286.861755	146.360000
286.954865	147.120000
287.047974	146.480000
287.141083	146.080000
287.234161	146.140000
287.327271	146.020000
287.420380	145.920000
287.513519	146.060000
287.606598	146.300000
287.699738	146.420000
287.792816	146.160000
287.885956	146.020000
287.979034	146.000000
288.072174	146.100000
288.165283	145.940000
288.258392	145.920000
288.351501	145.260000
288.444611	145.660000
288.537720	145.700000
288.630859	145.500000
288.723969	145.660000
288.817078	145.980000
288.910187	145.740000
289.003296	145.340000
289.096436	145.420000
289.189545	145.520000
289.282654	145.320000
289.375763	145.960000
289.468903	146.540000
289.562012	146.900000
289.655121	146.780000
289.748260	147.000000
289.841400	146.900000
289.934509	146.260000
290.027649	146.460000
290.120728	146.200000
290.213898	146.160000
290.306976	145.720000
290.400146	146.140000
290.493256	145.540000
290.586395	145.860000
290.679535	146.220000
290.772644	146.140000
290.865784	145.400000
290.958893	145.640000
291.052032	145.420000
291.145172	145.180000
291.238281	144.900000
291.331421	145.280000
291.424561	145.740000
291.517670	145.440000
291.610809	145.680000
291.703949	146.040000
291.797089	146.320000
291.890228	145.560000
291.983337	145.680000
292.076477	145.440000
292.169617	145.660000
292.262756	145.420000
292.355927	145.460000
292.449036	145.400000
292.542206	145.440000
292.635315	145.520000
292.728485	145.720000
292.821625	145.520000
292.914764	146.900000
293.007904	146.760000
293.101044	146.680000
293.194183	146.460000
293.287323	146.700000
293.380463	145.760000
293.473602	145.820000
293.566742	146.140000
293.659882	146.700000
293.753021	146.860000
293.846191	146.660000
293.939331	146.480000
294.032471	145.900000
294.125610	145.460000
294.218781	146.040000
294.311920	146.500000
294.405060	146.700000
294.498230	147.040000
294.591370	147.380000
294.684540	146.500000
294.777679	145.740000
294.870850	145.880000
294.963959	145.480000
295.057159	145.000000
295.150299	145.520000
295.243469	145.820000
295.336609	145.460000
295.429779	145.900000
295.522919	146.300000
295.616089	146.200000
295.709229	146.480000
295.802399	146.660000
295.895569	146.040000
295.988708	145.860000
296.081879	146.160000
296.175018	145.860000
296.268188	145.820000
296.361359	146.400000
296.454529	146.560000
296.547668	146.360000
296.640839	146.680000
296.734009	146.420000
296.827179	146.740000
296.920319	146.840000
297.013519	146.620000
297.106659	146.320000
297.199860	146.500000
297.292999	146.000000
297.386200	145.940000
297.479309	145.660000
297.572510	146.000000
297.665680	145.780000
297.758850	145.740000
297.852020	145.600000
297.945190	145.860000
298.038361	145.400000
298.131531	146.440000
298.224701	146.340000
298.317871	145.740000
298.411072	145.380000
298.504242	145.360000
298.597412	144.460000
298.690582	144.720000
298.783752	145.120000
298.876923	145.720000
298.970093	146.120000
299.063293	146.740000
299.156464	146.940000
299.249634	147.200000
299.342834	147.220000
299.436005	147.360000
299.529205	147.040000
299.622345	147.060000
299.715576	146.260000
299.808716	146.080000
299.901917	145.940000
299.995117	146.200000
300.088287	146.220000
300.181488	146.280000
300.274658	146.160000
300.367828	146.100000
300.461029	145.900000
300.554199	145.920000
300.647400	146.300000
300.740601	146.660000
300.833771	146.500000
300.926971	147.060000
301.020142	146.480000
301.113342	146.280000
301.206512	146.440000
301.299713	146.840000
301.392914	146.360000
301.486084	146.960000
301.579285	147.160000
301.672516	147.140000
301.765686	146.720000
301.858887	146.680000
301.952057	146.280000
302.045288	146.540000
302.138458	146.100000
302.231659	145.960000
302.324860	145.760000
302.418060	145.740000
302.511261	145.560000
302.604462	145.900000
302.697662	145.760000
302.790863	145.680000
302.884064	145.680000
302.977264	145.560000
303.070465	145.660000
303.163666	146.660000
303.256866	147.120000
303.350067	146.820000
303.443268	146.620000
303.536469	146.720000
303.629669	146.000000
303.722870	145.980000
303.816071	146.040000
303.909271	146.200000
304.002472	145.380000
304.095673	145.320000
304.188934	144.620000
304.282104	145.700000
304.375336	146.000000
304.468506	146.080000
304.561768	145.940000
304.654968	146.600000
304.748169	145.820000
304.841370	145.720000
304.934601	146.320000
305.027802	146.160000
305.121002	145.800000
305.214233	145.760000
305.307434	145.740000
305.400665	145.840000
305.493866	145.820000
