Model Number: SPM-002-B   
Serial Number: 70087108
Firmware Version: 004.15.4
Exposure Time: 100000.000000us
Data Taken on: 11-12-2020 19:28:53.201
Wavelength	Amplitude
221.570786	0.000000
221.663406	0.000000
221.756027	0.000000
221.848648	0.000000
221.941269	0.000000
222.033905	0.000000
222.126526	0.000000
222.219162	0.000000
222.311798	0.000000
222.404419	0.000000
222.497055	0.000000
222.589676	0.000000
222.682312	0.000000
222.774933	0.000000
222.867569	0.000000
222.960205	0.000000
223.052841	0.000000
223.145462	0.000000
223.238098	0.000000
223.330734	0.000000
223.423386	0.000000
223.516022	0.000000
223.608658	0.000000
223.701309	0.000000
223.793945	0.000000
223.886581	0.000000
223.979218	0.000000
224.071869	0.000000
224.164505	0.000000
224.257156	0.000000
224.349792	0.000000
224.442444	0.000000
224.535095	0.000000
224.627747	0.000000
224.720398	0.000000
224.813034	0.000000
224.905685	0.000000
224.998337	145.260000
225.090988	144.640000
225.183640	144.700000
225.276291	144.380000
225.368942	144.620000
225.461594	145.400000
225.554245	145.880000
225.646912	145.880000
225.739578	146.660000
225.832230	146.880000
225.924896	145.880000
226.017548	146.100000
226.110199	146.480000
226.202866	146.000000
226.295532	145.720000
226.388184	145.740000
226.480850	145.100000
226.573517	144.820000
226.666168	145.200000
226.758835	145.300000
226.851501	145.880000
226.944183	146.120000
227.036850	145.740000
227.129517	145.460000
227.222183	145.540000
227.314850	145.580000
227.407516	145.720000
227.500198	146.800000
227.592865	146.560000
227.685532	146.220000
227.778214	145.780000
227.870880	146.040000
227.963562	146.140000
228.056229	146.780000
228.148926	146.840000
228.241592	147.740000
228.334274	147.080000
228.426956	146.500000
228.519638	146.360000
228.612305	146.160000
228.704987	145.940000
228.797668	146.300000
228.890350	146.080000
228.983032	145.360000
229.075714	146.240000
229.168396	145.680000
229.261108	145.600000
229.353790	145.820000
229.446472	145.940000
229.539169	145.460000
229.631851	145.360000
229.724533	145.320000
229.817230	145.160000
229.909912	146.160000
230.002609	146.040000
230.095306	145.980000
230.187988	146.060000
230.280685	146.180000
230.373383	145.140000
230.466095	145.300000
230.558792	145.500000
230.651474	145.340000
230.744171	145.140000
230.836868	145.120000
230.929581	144.880000
231.022278	145.160000
231.114975	145.440000
231.207672	145.160000
231.300369	145.700000
231.393082	145.940000
231.485779	145.440000
231.578506	145.160000
231.671204	145.440000
231.763916	145.580000
231.856613	145.320000
231.949326	145.740000
232.042023	145.840000
232.134735	145.800000
232.227448	145.140000
232.320160	145.500000
232.412872	145.480000
232.505585	145.920000
232.598297	146.420000
232.691010	146.560000
232.783722	146.400000
232.876450	147.040000
232.969162	146.640000
233.061874	145.740000
233.154587	145.680000
233.247314	145.760000
233.340027	144.760000
233.432739	145.160000
233.525467	145.520000
233.618179	145.800000
233.710907	145.520000
233.803635	146.040000
233.896347	145.580000
233.989090	146.360000
234.081818	146.440000
234.174545	146.480000
234.267258	145.860000
234.359985	146.080000
234.452713	145.380000
234.545441	144.900000
234.638168	145.000000
234.730896	145.620000
234.823639	145.220000
234.916367	145.640000
235.009094	146.120000
235.101822	146.100000
235.194580	146.200000
235.287308	146.780000
235.380051	146.340000
235.472778	146.480000
235.565521	146.680000
235.658249	146.080000
235.750992	145.800000
235.843719	145.920000
235.936462	146.020000
236.029205	145.700000
236.121948	145.780000
236.214691	146.140000
236.307449	146.500000
236.400192	146.000000
236.492935	145.820000
236.585678	145.940000
236.678421	145.720000
236.771164	145.280000
236.863907	146.020000
236.956665	146.360000
237.049408	148.240000
237.142151	147.720000
237.234909	148.680000
237.327652	148.460000
237.420410	148.160000
237.513153	146.620000
237.605927	146.820000
237.698669	145.820000
237.791428	145.300000
237.884186	145.900000
237.976944	145.420000
238.069702	145.740000
238.162445	145.480000
238.255203	145.720000
238.347961	145.580000
238.440720	145.820000
238.533478	145.300000
238.626266	145.580000
238.719025	145.600000
238.811783	145.460000
238.904541	145.140000
238.997314	145.760000
239.090073	145.660000
239.182831	145.840000
239.275604	146.700000
239.368362	146.680000
239.461136	146.500000
239.553909	146.600000
239.646667	146.540000
239.739441	145.800000
239.832214	146.340000
239.925003	146.260000
240.017761	146.680000
240.110535	146.860000
240.203308	146.640000
240.296082	146.320000
240.388855	146.000000
240.481628	145.860000
240.574417	145.680000
240.667191	145.640000
240.759964	145.460000
240.852737	145.360000
240.945526	144.840000
241.038315	144.900000
241.131088	145.080000
241.223877	145.420000
241.316650	145.060000
241.409439	145.960000
241.502228	145.540000
241.595001	145.920000
241.687790	145.760000
241.780579	146.120000
241.873367	145.820000
241.966141	146.220000
242.058929	145.640000
242.151718	145.880000
242.244507	146.400000
242.337311	145.560000
242.430099	145.880000
242.522903	146.140000
242.615692	145.680000
242.708481	145.700000
242.801270	146.540000
242.894073	146.040000
242.986862	146.080000
243.079651	146.560000
243.172455	146.080000
243.265244	145.860000
243.358063	145.340000
243.450867	145.400000
243.543655	145.220000
243.636459	145.640000
243.729263	145.960000
243.822067	146.680000
243.914856	146.960000
244.007660	147.040000
244.100464	146.920000
244.193268	146.420000
244.286072	146.220000
244.378876	145.620000
244.471680	145.200000
244.564499	145.380000
244.657318	146.180000
244.750122	146.280000
244.842926	145.960000
244.935745	146.280000
245.028549	145.860000
245.121368	145.440000
245.214172	145.340000
245.306992	145.900000
245.399796	145.980000
245.492615	146.180000
245.585434	145.800000
245.678253	145.600000
245.771072	145.460000
245.863892	145.780000
245.956711	146.040000
246.049530	145.880000
246.142349	145.740000
246.235168	145.640000
246.327988	145.980000
246.420807	145.520000
246.513626	145.780000
246.606445	145.780000
246.699280	145.800000
246.792099	145.300000
246.884918	145.080000
246.977753	144.520000
247.070587	144.620000
247.163422	144.880000
247.256241	144.700000
247.349075	145.240000
247.441895	145.880000
247.534729	146.040000
247.627563	145.820000
247.720383	146.460000
247.813217	146.300000
247.906052	146.020000
247.998886	146.120000
248.091736	146.220000
248.184570	145.680000
248.277405	145.920000
248.370239	146.880000
248.463074	147.560000
248.555908	147.820000
248.648743	147.780000
248.741592	147.320000
248.834427	146.540000
248.927261	145.260000
249.020111	145.320000
249.112946	145.840000
249.205795	145.540000
249.298630	145.500000
249.391495	145.940000
249.484344	145.580000
249.577179	145.520000
249.670029	146.040000
249.762878	146.480000
249.855728	146.400000
249.948563	146.460000
250.041412	145.920000
250.134262	145.980000
250.227112	146.100000
250.319962	146.260000
250.412827	146.260000
250.505692	146.000000
250.598541	145.900000
250.691391	145.340000
250.784241	145.500000
250.877106	145.700000
250.969955	145.740000
251.062805	146.540000
251.155670	146.980000
251.248520	146.500000
251.341385	146.860000
251.434235	146.620000
251.527100	145.900000
251.619965	145.580000
251.712814	146.420000
251.805695	145.800000
251.898560	146.300000
251.991425	146.700000
252.084290	147.040000
252.177155	146.320000
252.270020	146.280000
252.362885	146.180000
252.455750	146.040000
252.548615	145.600000
252.641479	145.580000
252.734360	145.520000
252.827240	145.300000
252.920105	145.120000
253.012970	145.040000
253.105850	145.240000
253.198715	145.120000
253.291595	145.520000
253.384460	145.320000
253.477341	145.520000
253.570221	145.760000
253.663086	145.780000
253.755966	146.240000
253.848846	146.520000
253.941727	146.700000
254.034592	146.380000
254.127472	146.080000
254.220367	145.980000
254.313248	145.840000
254.406128	145.260000
254.499008	145.540000
254.591904	146.320000
254.684784	146.480000
254.777664	146.620000
254.870544	146.640000
254.963440	146.480000
255.056335	146.540000
255.149216	145.960000
255.242111	146.300000
255.334991	146.920000
255.427887	147.240000
255.520767	146.920000
255.613663	147.180000
255.706558	146.400000
255.799438	145.760000
255.892334	145.320000
255.985229	145.380000
256.078125	145.220000
256.171021	145.760000
256.263916	146.200000
256.356812	146.420000
256.449707	146.340000
256.542603	146.260000
256.635498	146.400000
256.728394	146.240000
256.821289	146.120000
256.914215	146.140000
257.007080	146.280000
257.100006	146.040000
257.192932	146.620000
257.285828	147.040000
257.378723	147.060000
257.471619	146.940000
257.564545	146.320000
257.657440	146.300000
257.750336	146.440000
257.843262	146.240000
257.936157	147.440000
258.029053	148.120000
258.121979	147.900000
258.214874	147.220000
258.307800	147.240000
258.400696	145.880000
258.493622	145.680000
258.586517	145.140000
258.679443	145.660000
258.772339	145.520000
258.865265	145.380000
258.958160	145.080000
259.051086	145.940000
259.144012	145.560000
259.236938	146.140000
259.329834	146.480000
259.422791	146.760000
259.515717	145.820000
259.608612	145.640000
259.701538	145.520000
259.794464	145.280000
259.887390	144.980000
259.980316	145.100000
260.073212	145.280000
260.166138	144.340000
260.259064	144.980000
260.351990	145.680000
260.444916	145.980000
260.537842	146.420000
260.630768	147.340000
260.723694	147.120000
260.816620	146.920000
260.909546	146.820000
261.002472	146.100000
261.095398	145.420000
261.188354	145.220000
261.281281	144.700000
261.374207	144.680000
261.467133	145.460000
261.560089	145.940000
261.653015	145.500000
261.745972	146.420000
261.838867	146.840000
261.931824	146.780000
262.024780	146.460000
262.117706	147.240000
262.210663	147.340000
262.303589	147.020000
262.396515	146.860000
262.489471	147.800000
262.582397	147.400000
262.675354	146.460000
262.768280	146.540000
262.861237	146.520000
262.954163	146.280000
263.047119	146.480000
263.140045	146.320000
263.233002	146.080000
263.325958	146.040000
263.418884	145.320000
263.511841	145.140000
263.604797	145.440000
263.697723	145.540000
263.790680	145.320000
263.883636	146.100000
263.976593	145.700000
264.069550	145.740000
264.162476	145.500000
264.255463	145.660000
264.348419	145.220000
264.441376	145.960000
264.534332	145.560000
264.627289	145.860000
264.720245	146.200000
264.813202	146.020000
264.906158	145.800000
264.999115	146.480000
265.092072	146.260000
265.185028	146.640000
265.277985	146.680000
265.370941	146.600000
265.463898	146.060000
265.556854	145.940000
265.649811	144.760000
265.742798	144.780000
265.835754	144.740000
265.928711	145.460000
266.021667	145.920000
266.114655	146.460000
266.207611	146.980000
266.300568	146.560000
266.393585	146.040000
266.486511	146.020000
266.579498	145.380000
266.672485	144.980000
266.765442	145.100000
266.858429	145.480000
266.951385	145.060000
267.044342	145.360000
267.137329	145.400000
267.230316	145.780000
267.323273	145.140000
267.416260	145.960000
267.509216	145.980000
267.602203	145.780000
267.695160	146.060000
267.788147	146.720000
267.881134	145.720000
267.974091	146.000000
268.067078	145.820000
268.160065	145.340000
268.253052	144.980000
268.346008	145.640000
268.438995	145.180000
268.531982	145.600000
268.624969	145.660000
268.717987	146.080000
268.810944	145.780000
268.903961	146.220000
268.996948	145.780000
269.089905	146.240000
269.182892	146.100000
269.275879	146.340000
269.368866	145.640000
269.461853	146.300000
269.554871	145.940000
269.647858	145.780000
269.740845	145.760000
269.833832	146.460000
269.926819	145.980000
270.019806	145.780000
270.112793	145.740000
270.205811	145.800000
270.298798	145.480000
270.391785	146.140000
270.484772	145.960000
270.577789	145.820000
270.670776	145.520000
270.763763	145.680000
270.856750	145.380000
270.949768	145.620000
271.042786	145.720000
271.135773	146.100000
271.228790	146.140000
271.321808	145.700000
271.414795	145.540000
271.507782	145.320000
271.600800	144.800000
271.693817	145.080000
271.786804	145.520000
271.879822	145.700000
271.972809	145.780000
272.065826	146.520000
272.158844	146.000000
272.251831	146.480000
272.344849	146.660000
272.437866	146.640000
272.530853	146.280000
272.623871	146.460000
272.716888	145.360000
272.809906	145.620000
272.902893	145.500000
272.995911	145.040000
273.088928	144.980000
273.181946	145.560000
273.274963	145.080000
273.367981	145.140000
273.460999	145.420000
273.554047	145.640000
273.647003	146.080000
273.740051	146.100000
273.833069	146.820000
273.926086	147.140000
274.019135	146.920000
274.112152	146.480000
274.205170	146.600000
274.298187	146.340000
274.391205	145.720000
274.484222	145.820000
274.577240	145.840000
274.670258	145.600000
274.763306	145.320000
274.856323	145.640000
274.949341	145.760000
275.042358	145.920000
275.135406	145.880000
275.228424	146.180000
275.321442	146.180000
275.414490	145.900000
275.507507	145.900000
275.600525	146.560000
275.693573	146.160000
275.786591	145.920000
275.879669	146.020000
275.972656	145.680000
276.065735	145.160000
276.158752	145.700000
276.251801	146.420000
276.344818	146.500000
276.437866	146.720000
276.530884	146.580000
276.623932	145.720000
276.716980	145.860000
276.809998	145.740000
276.903046	145.680000
276.996094	146.740000
277.089111	147.420000
277.182159	147.620000
277.275208	147.380000
277.368256	147.420000
277.461304	146.820000
277.554321	146.320000
277.647369	145.940000
277.740417	146.280000
277.833466	146.200000
277.926514	145.960000
278.019562	146.380000
278.112610	145.740000
278.205688	146.080000
278.298706	146.320000
278.391785	146.180000
278.484833	146.120000
278.577881	146.360000
278.670929	146.520000
278.763977	146.180000
278.857025	146.660000
278.950073	146.800000
279.043121	146.440000
279.136169	146.140000
279.229248	145.900000
279.322296	145.740000
279.415344	145.240000
279.508392	145.440000
279.601440	145.200000
279.694519	145.540000
279.787567	145.640000
279.880615	145.620000
279.973694	145.660000
280.066742	145.600000
280.159790	145.960000
280.252869	145.520000
280.345917	145.840000
280.438995	145.540000
280.532074	145.520000
280.625122	145.360000
280.718201	146.220000
280.811279	146.180000
280.904327	146.620000
280.997406	146.860000
281.090454	146.960000
281.183533	146.260000
281.276581	146.320000
281.369659	145.940000
281.462738	146.100000
281.555786	145.780000
281.648865	145.840000
281.741943	145.680000
281.835022	146.340000
281.928070	145.980000
282.021149	145.660000
282.114227	145.740000
282.207306	145.600000
282.300385	145.620000
282.393433	145.680000
282.486511	146.120000
282.579590	146.480000
282.672668	147.060000
282.765747	146.500000
282.858856	146.240000
282.951904	146.240000
283.045013	146.220000
283.138062	146.340000
283.231171	146.780000
283.324249	147.220000
283.417328	147.460000
283.510406	146.860000
283.603485	146.440000
283.696564	146.360000
283.789642	146.360000
283.882751	145.780000
283.975830	146.480000
284.068909	146.180000
284.161987	146.480000
284.255066	145.920000
284.348175	146.200000
284.441254	145.700000
284.534332	146.240000
284.627441	145.760000
284.720520	145.840000
284.813599	145.840000
284.906708	146.080000
284.999786	145.500000
285.092896	145.220000
285.185974	145.880000
285.279053	145.660000
285.372192	145.720000
285.465240	146.360000
285.558380	146.460000
285.651459	146.300000
285.744568	146.940000
285.837677	146.120000
285.930756	145.640000
286.023865	145.980000
286.116943	145.480000
286.210052	145.440000
286.303162	145.820000
286.396240	146.240000
286.489349	145.720000
286.582458	146.080000
286.675568	145.660000
286.768646	145.800000
286.861755	145.720000
286.954865	146.580000
287.047974	146.140000
287.141083	146.180000
287.234161	145.980000
287.327271	145.860000
287.420380	145.980000
287.513519	145.980000
287.606598	145.600000
287.699738	145.800000
287.792816	145.520000
287.885956	145.180000
287.979034	145.420000
288.072174	145.800000
288.165283	146.000000
288.258392	146.300000
288.351501	145.920000
288.444611	146.360000
288.537720	146.580000
288.630859	146.280000
288.723969	146.340000
288.817078	146.780000
288.910187	146.320000
289.003296	146.020000
289.096436	145.840000
289.189545	145.700000
289.282654	145.120000
289.375763	145.800000
289.468903	146.180000
289.562012	146.580000
289.655121	146.580000
289.748260	147.060000
289.841400	147.180000
289.934509	147.200000
290.027649	147.160000
290.120728	147.140000
290.213898	147.000000
290.306976	146.480000
290.400146	146.300000
290.493256	145.900000
290.586395	146.380000
290.679535	146.400000
290.772644	146.120000
290.865784	145.720000
290.958893	145.940000
291.052032	145.380000
291.145172	145.440000
291.238281	145.540000
291.331421	145.440000
291.424561	145.740000
291.517670	145.820000
291.610809	146.080000
291.703949	145.880000
291.797089	146.480000
291.890228	146.000000
291.983337	145.980000
292.076477	145.460000
292.169617	145.900000
292.262756	145.300000
292.355927	145.640000
292.449036	145.380000
292.542206	145.740000
292.635315	145.860000
292.728485	146.600000
292.821625	146.100000
292.914764	147.360000
293.007904	147.280000
293.101044	147.120000
293.194183	146.640000
293.287323	146.840000
293.380463	145.800000
293.473602	145.480000
293.566742	145.700000
293.659882	146.060000
293.753021	146.540000
293.846191	146.540000
293.939331	146.340000
294.032471	145.960000
294.125610	145.640000
294.218781	145.600000
294.311920	146.120000
294.405060	146.680000
294.498230	146.760000
294.591370	147.000000
294.684540	146.380000
294.777679	145.680000
294.870850	146.140000
294.963959	146.040000
295.057159	145.600000
295.150299	146.100000
295.243469	146.220000
295.336609	145.280000
295.429779	145.380000
295.522919	146.040000
295.616089	145.980000
295.709229	146.560000
295.802399	147.040000
295.895569	146.800000
295.988708	146.560000
296.081879	146.720000
296.175018	146.000000
296.268188	145.740000
296.361359	146.100000
296.454529	146.040000
296.547668	145.720000
296.640839	146.360000
296.734009	146.220000
296.827179	146.400000
296.920319	146.300000
297.013519	145.940000
297.106659	146.020000
297.199860	146.220000
297.292999	145.820000
297.386200	145.540000
297.479309	145.600000
297.572510	145.560000
297.665680	145.080000
297.758850	145.020000
297.852020	145.160000
297.945190	145.400000
298.038361	144.800000
298.131531	145.940000
298.224701	145.900000
298.317871	145.780000
298.411072	145.200000
298.504242	145.320000
298.597412	144.460000
298.690582	144.820000
298.783752	144.940000
298.876923	145.700000
298.970093	145.580000
299.063293	146.200000
299.156464	146.200000
299.249634	146.520000
299.342834	146.620000
299.436005	147.000000
299.529205	146.740000
299.622345	146.560000
299.715576	145.880000
299.808716	145.600000
299.901917	145.660000
299.995117	145.800000
300.088287	146.040000
300.181488	146.280000
300.274658	146.420000
300.367828	146.320000
300.461029	146.080000
300.554199	146.400000
300.647400	146.240000
300.740601	146.580000
300.833771	146.300000
300.926971	146.440000
301.020142	145.740000
301.113342	145.760000
301.206512	145.520000
301.299713	145.900000
301.392914	146.080000
301.486084	146.700000
301.579285	146.620000
301.672516	146.960000
301.765686	146.900000
301.858887	146.680000
301.952057	146.140000
302.045288	146.660000
302.138458	146.160000
302.231659	145.740000
302.324860	145.620000
302.418060	145.600000
302.511261	145.280000
302.604462	145.660000
302.697662	145.460000
302.790863	145.220000
302.884064	144.960000
302.977264	144.880000
303.070465	144.880000
303.163666	145.620000
303.256866	146.060000
303.350067	146.260000
303.443268	146.300000
303.536469	146.160000
303.629669	145.680000
303.722870	145.560000
303.816071	145.540000
303.909271	145.500000
304.002472	145.000000
304.095673	145.000000
304.188934	144.460000
304.282104	145.240000
304.375336	145.400000
304.468506	145.500000
304.561768	145.160000
304.654968	146.120000
304.748169	145.360000
304.841370	144.780000
304.934601	145.040000
305.027802	145.300000
305.121002	144.520000
305.214233	144.520000
305.307434	145.120000
305.400665	145.440000
305.493866	145.420000
