Model Number: SPM-002-B   
Serial Number: 70087108
Firmware Version: 004.15.4
Exposure Time: 100000.000000us
Data Taken on: 11-12-2020 19:28:58.705
Wavelength	Amplitude
221.570786	0.000000
221.663406	0.000000
221.756027	0.000000
221.848648	0.000000
221.941269	0.000000
222.033905	0.000000
222.126526	0.000000
222.219162	0.000000
222.311798	0.000000
222.404419	0.000000
222.497055	0.000000
222.589676	0.000000
222.682312	0.000000
222.774933	0.000000
222.867569	0.000000
222.960205	0.000000
223.052841	0.000000
223.145462	0.000000
223.238098	0.000000
223.330734	0.000000
223.423386	0.000000
223.516022	0.000000
223.608658	0.000000
223.701309	0.000000
223.793945	0.000000
223.886581	0.000000
223.979218	0.000000
224.071869	0.000000
224.164505	0.000000
224.257156	0.000000
224.349792	0.000000
224.442444	0.000000
224.535095	0.000000
224.627747	0.000000
224.720398	0.000000
224.813034	0.000000
224.905685	0.000000
224.998337	145.760000
225.090988	145.780000
225.183640	146.080000
225.276291	146.080000
225.368942	146.300000
225.461594	146.480000
225.554245	146.720000
225.646912	146.640000
225.739578	147.260000
225.832230	147.520000
225.924896	146.720000
226.017548	146.820000
226.110199	147.400000
226.202866	146.600000
226.295532	146.500000
226.388184	146.720000
226.480850	145.780000
226.573517	145.260000
226.666168	145.500000
226.758835	145.860000
226.851501	146.640000
226.944183	147.300000
227.036850	146.900000
227.129517	147.100000
227.222183	146.860000
227.314850	146.460000
227.407516	146.480000
227.500198	147.440000
227.592865	146.900000
227.685532	146.880000
227.778214	146.580000
227.870880	146.940000
227.963562	147.040000
228.056229	147.600000
228.148926	147.340000
228.241592	148.260000
228.334274	147.900000
228.426956	147.520000
228.519638	147.560000
228.612305	147.300000
228.704987	147.040000
228.797668	147.120000
228.890350	146.840000
228.983032	146.320000
229.075714	147.020000
229.168396	146.460000
229.261108	145.860000
229.353790	146.120000
229.446472	146.220000
229.539169	145.840000
229.631851	145.720000
229.724533	146.080000
229.817230	146.060000
229.909912	146.920000
230.002609	147.040000
230.095306	147.080000
230.187988	147.200000
230.280685	147.100000
230.373383	145.900000
230.466095	145.820000
230.558792	146.120000
230.651474	146.100000
230.744171	145.860000
230.836868	146.040000
230.929581	146.660000
231.022278	146.340000
231.114975	146.320000
231.207672	146.240000
231.300369	146.880000
231.393082	146.820000
231.485779	147.020000
231.578506	146.820000
231.671204	147.020000
231.763916	146.820000
231.856613	146.560000
231.949326	146.740000
232.042023	146.620000
232.134735	146.340000
232.227448	146.000000
232.320160	146.140000
232.412872	146.080000
232.505585	147.320000
232.598297	148.020000
232.691010	148.000000
232.783722	147.500000
232.876450	147.900000
232.969162	147.120000
233.061874	146.460000
233.154587	146.200000
233.247314	146.480000
233.340027	145.880000
233.432739	146.020000
233.525467	146.000000
233.618179	146.640000
233.710907	146.360000
233.803635	146.920000
233.896347	146.760000
233.989090	147.780000
234.081818	147.380000
234.174545	147.420000
234.267258	146.620000
234.359985	146.920000
234.452713	146.580000
234.545441	146.580000
234.638168	146.580000
234.730896	147.460000
234.823639	147.100000
234.916367	147.120000
235.009094	147.300000
235.101822	147.240000
235.194580	146.740000
235.287308	146.620000
235.380051	146.120000
235.472778	146.240000
235.565521	146.720000
235.658249	146.460000
235.750992	146.800000
235.843719	146.740000
235.936462	146.900000
236.029205	146.620000
236.121948	146.620000
236.214691	146.640000
236.307449	147.400000
236.400192	146.860000
236.492935	146.740000
236.585678	146.860000
236.678421	146.820000
236.771164	146.400000
236.863907	147.200000
236.956665	147.220000
237.049408	148.860000
237.142151	148.240000
237.234909	148.780000
237.327652	148.080000
237.420410	147.720000
237.513153	146.700000
237.605927	147.100000
237.698669	146.740000
237.791428	146.500000
237.884186	147.080000
237.976944	146.400000
238.069702	146.580000
238.162445	146.200000
238.255203	146.400000
238.347961	146.820000
238.440720	146.880000
238.533478	146.740000
238.626266	146.440000
238.719025	146.540000
238.811783	146.260000
238.904541	146.260000
238.997314	146.100000
239.090073	145.900000
239.182831	146.180000
239.275604	146.820000
239.368362	146.660000
239.461136	147.080000
239.553909	147.440000
239.646667	147.240000
239.739441	146.520000
239.832214	146.980000
239.925003	146.840000
240.017761	147.300000
240.110535	147.820000
240.203308	147.560000
240.296082	147.240000
240.388855	146.940000
240.481628	147.000000
240.574417	146.880000
240.667191	147.080000
240.759964	146.840000
240.852737	146.980000
240.945526	146.380000
241.038315	146.320000
241.131088	146.040000
241.223877	146.360000
241.316650	146.020000
241.409439	146.520000
241.502228	145.880000
241.595001	146.460000
241.687790	146.480000
241.780579	146.720000
241.873367	146.700000
241.966141	147.120000
242.058929	146.480000
242.151718	146.300000
242.244507	146.580000
242.337311	145.880000
242.430099	146.380000
242.522903	146.480000
242.615692	146.420000
242.708481	146.460000
242.801270	147.440000
242.894073	147.240000
242.986862	147.300000
243.079651	147.920000
243.172455	147.680000
243.265244	147.340000
243.358063	146.580000
243.450867	146.860000
243.543655	146.340000
243.636459	146.340000
243.729263	146.380000
243.822067	147.180000
243.914856	147.540000
244.007660	147.880000
244.100464	147.860000
244.193268	147.260000
244.286072	146.840000
244.378876	145.880000
244.471680	145.520000
244.564499	145.740000
244.657318	146.820000
244.750122	146.880000
244.842926	146.560000
244.935745	147.120000
245.028549	146.860000
245.121368	146.160000
245.214172	146.200000
245.306992	146.900000
245.399796	146.400000
245.492615	146.420000
245.585434	146.300000
245.678253	146.440000
245.771072	146.400000
245.863892	146.680000
245.956711	146.800000
246.049530	146.540000
246.142349	146.100000
246.235168	146.340000
246.327988	146.840000
246.420807	146.720000
246.513626	147.160000
246.606445	147.060000
246.699280	146.860000
246.792099	146.420000
246.884918	146.260000
246.977753	145.940000
247.070587	145.920000
247.163422	145.900000
247.256241	146.020000
247.349075	146.600000
247.441895	146.860000
247.534729	147.200000
247.627563	147.100000
247.720383	147.380000
247.813217	147.140000
247.906052	147.020000
247.998886	146.920000
248.091736	147.040000
248.184570	146.500000
248.277405	146.600000
248.370239	147.460000
248.463074	148.180000
248.555908	148.420000
248.648743	148.400000
248.741592	148.280000
248.834427	147.480000
248.927261	146.600000
249.020111	146.720000
249.112946	147.180000
249.205795	146.680000
249.298630	146.700000
249.391495	146.800000
249.484344	146.380000
249.577179	146.220000
249.670029	146.740000
249.762878	147.180000
249.855728	147.320000
249.948563	147.240000
250.041412	146.640000
250.134262	146.820000
250.227112	146.540000
250.319962	146.700000
250.412827	146.760000
250.505692	146.580000
250.598541	146.180000
250.691391	146.120000
250.784241	146.140000
250.877106	146.520000
250.969955	146.480000
251.062805	147.080000
251.155670	147.720000
251.248520	147.040000
251.341385	147.180000
251.434235	147.540000
251.527100	146.960000
251.619965	146.560000
251.712814	147.800000
251.805695	147.380000
251.898560	147.500000
251.991425	147.900000
252.084290	147.780000
252.177155	146.780000
252.270020	146.580000
252.362885	146.800000
252.455750	146.840000
252.548615	146.460000
252.641479	146.560000
252.734360	146.680000
252.827240	146.460000
252.920105	146.340000
253.012970	146.540000
253.105850	146.700000
253.198715	146.340000
253.291595	146.460000
253.384460	146.060000
253.477341	145.980000
253.570221	145.940000
253.663086	145.960000
253.755966	146.000000
253.848846	146.160000
253.941727	146.440000
254.034592	146.600000
254.127472	146.340000
254.220367	146.460000
254.313248	146.800000
254.406128	146.300000
254.499008	146.300000
254.591904	147.520000
254.684784	148.180000
254.777664	147.860000
254.870544	147.560000
254.963440	147.380000
255.056335	146.680000
255.149216	145.700000
255.242111	146.200000
255.334991	147.080000
255.427887	147.220000
255.520767	147.480000
255.613663	147.640000
255.706558	146.820000
255.799438	146.500000
255.892334	145.960000
255.985229	145.720000
256.078125	145.800000
256.171021	146.300000
256.263916	146.720000
256.356812	147.400000
256.449707	147.520000
256.542603	147.280000
256.635498	147.480000
256.728394	147.220000
256.821289	146.780000
256.914215	146.860000
257.007080	147.100000
257.100006	146.600000
257.192932	146.800000
257.285828	147.040000
257.378723	146.820000
257.471619	146.460000
257.564545	146.520000
257.657440	146.460000
257.750336	146.820000
257.843262	146.720000
257.936157	147.820000
258.029053	148.360000
258.121979	148.020000
258.214874	147.460000
258.307800	147.400000
258.400696	146.140000
258.493622	145.740000
258.586517	145.360000
258.679443	145.720000
258.772339	145.600000
258.865265	145.760000
258.958160	145.640000
259.051086	146.500000
259.144012	146.220000
259.236938	146.960000
259.329834	147.260000
259.422791	146.800000
259.515717	146.380000
259.608612	146.340000
259.701538	146.320000
259.794464	146.120000
259.887390	146.240000
259.980316	145.840000
260.073212	145.600000
260.166138	144.580000
260.259064	144.960000
260.351990	145.700000
260.444916	146.100000
260.537842	146.440000
260.630768	147.460000
260.723694	147.080000
260.816620	146.680000
260.909546	146.800000
261.002472	146.420000
261.095398	145.760000
261.188354	145.620000
261.281281	145.280000
261.374207	145.000000
261.467133	146.060000
261.560089	146.240000
261.653015	146.140000
261.745972	146.940000
261.838867	147.480000
261.931824	147.080000
262.024780	146.680000
262.117706	147.180000
262.210663	147.260000
262.303589	146.960000
262.396515	146.860000
262.489471	147.920000
262.582397	147.480000
262.675354	146.600000
262.768280	146.480000
262.861237	146.440000
262.954163	145.940000
263.047119	146.180000
263.140045	146.520000
263.233002	146.640000
263.325958	146.620000
263.418884	146.500000
263.511841	146.760000
263.604797	146.620000
263.697723	146.400000
263.790680	146.280000
263.883636	146.840000
263.976593	146.360000
264.069550	146.540000
264.162476	146.520000
264.255463	146.440000
264.348419	145.660000
264.441376	146.080000
264.534332	145.640000
264.627289	146.040000
264.720245	146.840000
264.813202	146.920000
264.906158	147.000000
264.999115	147.800000
265.092072	147.520000
265.185028	147.600000
265.277985	147.660000
265.370941	147.300000
265.463898	146.600000
265.556854	146.360000
265.649811	145.380000
265.742798	145.540000
265.835754	145.500000
265.928711	146.180000
266.021667	146.420000
266.114655	146.760000
266.207611	146.540000
266.300568	146.260000
266.393585	145.600000
266.486511	145.860000
266.579498	145.560000
266.672485	145.940000
266.765442	146.120000
266.858429	146.680000
266.951385	146.420000
267.044342	146.420000
267.137329	146.060000
267.230316	146.180000
267.323273	145.660000
267.416260	146.020000
267.509216	146.000000
267.602203	146.000000
267.695160	146.580000
267.788147	146.720000
267.881134	145.920000
267.974091	146.280000
268.067078	146.200000
268.160065	145.920000
268.253052	145.740000
268.346008	146.060000
268.438995	145.660000
268.531982	145.940000
268.624969	145.520000
268.717987	146.100000
268.810944	146.240000
268.903961	146.320000
268.996948	145.900000
269.089905	146.660000
269.182892	146.620000
269.275879	146.640000
269.368866	146.460000
269.461853	146.620000
269.554871	146.400000
269.647858	146.300000
269.740845	146.540000
269.833832	147.060000
269.926819	146.980000
270.019806	146.400000
270.112793	145.980000
270.205811	145.820000
270.298798	145.240000
270.391785	146.000000
270.484772	145.820000
270.577789	146.020000
270.670776	145.760000
270.763763	145.940000
270.856750	145.680000
270.949768	145.840000
271.042786	145.880000
271.135773	145.760000
271.228790	146.080000
271.321808	145.520000
271.414795	145.360000
271.507782	145.260000
271.600800	145.000000
271.693817	144.920000
271.786804	145.560000
271.879822	145.700000
271.972809	145.840000
272.065826	146.680000
272.158844	146.080000
272.251831	146.440000
272.344849	146.760000
272.437866	146.540000
272.530853	146.480000
272.623871	147.040000
272.716888	145.680000
272.809906	145.820000
272.902893	145.800000
272.995911	145.340000
273.088928	145.340000
273.181946	146.220000
273.274963	146.000000
273.367981	145.820000
273.460999	146.040000
273.554047	146.300000
273.647003	146.540000
273.740051	146.340000
273.833069	146.800000
273.926086	146.720000
274.019135	146.320000
274.112152	145.880000
274.205170	146.120000
274.298187	146.100000
274.391205	145.660000
274.484222	145.700000
274.577240	145.540000
274.670258	145.360000
274.763306	144.940000
274.856323	145.540000
274.949341	145.740000
275.042358	146.380000
275.135406	146.440000
275.228424	146.780000
275.321442	146.840000
275.414490	146.340000
275.507507	146.520000
275.600525	147.040000
275.693573	146.780000
275.786591	146.260000
275.879669	146.820000
275.972656	145.900000
276.065735	145.600000
276.158752	146.320000
276.251801	147.020000
276.344818	146.780000
276.437866	147.380000
276.530884	146.900000
276.623932	145.900000
276.716980	145.740000
276.809998	145.800000
276.903046	145.440000
276.996094	146.260000
277.089111	147.140000
277.182159	147.700000
277.275208	147.380000
277.368256	147.640000
277.461304	147.220000
277.554321	146.120000
277.647369	145.580000
277.740417	145.580000
277.833466	145.460000
277.926514	145.240000
278.019562	146.220000
278.112610	145.860000
278.205688	146.240000
278.298706	146.240000
278.391785	145.980000
278.484833	145.520000
278.577881	145.480000
278.670929	145.800000
278.763977	146.020000
278.857025	146.700000
278.950073	146.880000
279.043121	146.900000
279.136169	146.560000
279.229248	146.000000
279.322296	145.940000
279.415344	145.580000
279.508392	145.480000
279.601440	145.360000
279.694519	145.640000
279.787567	145.540000
279.880615	145.800000
279.973694	145.880000
280.066742	145.980000
280.159790	146.080000
280.252869	145.720000
280.345917	145.800000
280.438995	145.740000
280.532074	145.480000
280.625122	145.660000
280.718201	146.420000
280.811279	146.440000
280.904327	146.800000
280.997406	147.140000
281.090454	146.820000
281.183533	146.000000
281.276581	145.900000
281.369659	145.100000
281.462738	145.000000
281.555786	145.480000
281.648865	145.940000
281.741943	145.740000
281.835022	146.820000
281.928070	146.640000
282.021149	146.140000
282.114227	145.820000
282.207306	146.000000
282.300385	146.020000
282.393433	146.260000
282.486511	146.380000
282.579590	146.980000
282.672668	147.180000
282.765747	146.640000
282.858856	146.280000
282.951904	146.480000
283.045013	146.600000
283.138062	146.860000
283.231171	147.100000
283.324249	147.600000
283.417328	147.480000
283.510406	146.740000
283.603485	146.480000
283.696564	146.140000
283.789642	146.160000
283.882751	145.920000
283.975830	146.840000
284.068909	146.640000
284.161987	147.300000
284.255066	146.580000
284.348175	146.800000
284.441254	146.220000
284.534332	146.540000
284.627441	146.020000
284.720520	146.120000
284.813599	146.080000
284.906708	146.280000
284.999786	145.620000
285.092896	145.400000
285.185974	146.420000
285.279053	146.160000
285.372192	146.140000
285.465240	146.820000
285.558380	146.780000
285.651459	146.100000
285.744568	146.980000
285.837677	146.620000
285.930756	146.500000
286.023865	146.700000
286.116943	146.740000
286.210052	146.260000
286.303162	146.520000
286.396240	146.420000
286.489349	146.520000
286.582458	146.580000
286.675568	146.360000
286.768646	146.080000
286.861755	146.500000
286.954865	147.220000
287.047974	146.700000
287.141083	146.660000
287.234161	146.680000
287.327271	146.240000
287.420380	146.140000
287.513519	146.180000
287.606598	146.320000
287.699738	146.880000
287.792816	146.700000
287.885956	146.220000
287.979034	146.440000
288.072174	146.500000
288.165283	145.820000
288.258392	146.180000
288.351501	145.740000
288.444611	146.060000
288.537720	146.160000
288.630859	146.340000
288.723969	146.360000
288.817078	147.040000
288.910187	147.100000
289.003296	146.680000
289.096436	146.180000
289.189545	145.980000
289.282654	145.620000
289.375763	145.800000
289.468903	146.220000
289.562012	146.920000
289.655121	147.000000
289.748260	146.960000
289.841400	146.940000
289.934509	146.840000
290.027649	146.880000
290.120728	146.920000
290.213898	147.120000
290.306976	146.720000
290.400146	146.860000
290.493256	146.500000
290.586395	146.340000
290.679535	146.440000
290.772644	146.420000
290.865784	145.960000
290.958893	145.880000
291.052032	145.820000
291.145172	145.700000
291.238281	145.300000
291.331421	145.260000
291.424561	145.780000
291.517670	145.440000
291.610809	145.580000
291.703949	145.700000
291.797089	145.840000
291.890228	145.300000
291.983337	145.560000
292.076477	145.340000
292.169617	145.800000
292.262756	145.900000
292.355927	145.940000
292.449036	145.740000
292.542206	146.060000
292.635315	146.260000
292.728485	146.560000
292.821625	146.460000
292.914764	147.520000
293.007904	147.560000
293.101044	147.200000
293.194183	146.920000
293.287323	147.200000
293.380463	146.680000
293.473602	146.320000
293.566742	146.640000
293.659882	146.920000
293.753021	147.040000
293.846191	147.140000
293.939331	146.680000
294.032471	146.460000
294.125610	146.000000
294.218781	146.460000
294.311920	146.660000
294.405060	147.060000
294.498230	147.140000
294.591370	147.480000
294.684540	146.660000
294.777679	145.920000
294.870850	146.100000
294.963959	145.860000
295.057159	145.480000
295.150299	145.760000
295.243469	145.940000
295.336609	145.740000
295.429779	145.740000
295.522919	146.100000
295.616089	146.200000
295.709229	146.820000
295.802399	146.680000
295.895569	146.500000
295.988708	146.260000
296.081879	146.380000
296.175018	145.480000
296.268188	145.300000
296.361359	145.860000
296.454529	145.920000
296.547668	145.600000
296.640839	146.280000
296.734009	146.420000
296.827179	146.040000
296.920319	146.360000
297.013519	146.260000
297.106659	146.320000
297.199860	146.240000
297.292999	146.160000
297.386200	145.780000
297.479309	145.520000
297.572510	145.220000
297.665680	145.180000
297.758850	145.340000
297.852020	145.460000
297.945190	145.460000
298.038361	144.940000
298.131531	145.900000
298.224701	145.660000
298.317871	145.280000
298.411072	144.980000
298.504242	145.100000
298.597412	144.620000
298.690582	144.960000
298.783752	145.380000
298.876923	146.260000
298.970093	146.620000
299.063293	146.860000
299.156464	147.120000
299.249634	147.300000
299.342834	147.100000
299.436005	147.120000
299.529205	146.860000
299.622345	146.700000
299.715576	146.020000
299.808716	146.140000
299.901917	146.120000
299.995117	146.220000
300.088287	146.460000
300.181488	146.400000
300.274658	146.140000
300.367828	145.980000
300.461029	145.940000
300.554199	146.180000
300.647400	146.580000
300.740601	147.060000
300.833771	147.180000
300.926971	147.320000
301.020142	146.680000
301.113342	146.620000
301.206512	146.300000
301.299713	146.540000
301.392914	146.300000
301.486084	146.580000
301.579285	146.520000
301.672516	146.920000
301.765686	146.740000
301.858887	146.980000
301.952057	146.760000
302.045288	146.660000
302.138458	146.240000
302.231659	146.020000
302.324860	145.660000
302.418060	145.440000
302.511261	145.500000
302.604462	145.700000
302.697662	145.520000
302.790863	145.540000
302.884064	145.460000
302.977264	145.440000
303.070465	145.500000
303.163666	146.260000
303.256866	146.400000
303.350067	146.780000
303.443268	147.060000
303.536469	147.280000
303.629669	146.580000
303.722870	146.900000
303.816071	146.300000
303.909271	146.320000
304.002472	145.480000
304.095673	145.420000
304.188934	144.460000
304.282104	145.500000
304.375336	145.360000
304.468506	145.420000
304.561768	145.700000
304.654968	146.380000
304.748169	145.880000
304.841370	145.580000
304.934601	146.160000
305.027802	145.980000
305.121002	145.900000
305.214233	145.820000
305.307434	146.020000
305.400665	146.340000
305.493866	146.320000
