Model Number: SPM-002-B   
Serial Number: 70087108
Firmware Version: 004.15.4
Exposure Time: 100000.000000us
Data Taken on: 11-12-2020 19:29:23.682
Wavelength	Amplitude
221.570786	0.000000
221.663406	0.000000
221.756027	0.000000
221.848648	0.000000
221.941269	0.000000
222.033905	0.000000
222.126526	0.000000
222.219162	0.000000
222.311798	0.000000
222.404419	0.000000
222.497055	0.000000
222.589676	0.000000
222.682312	0.000000
222.774933	0.000000
222.867569	0.000000
222.960205	0.000000
223.052841	0.000000
223.145462	0.000000
223.238098	0.000000
223.330734	0.000000
223.423386	0.000000
223.516022	0.000000
223.608658	0.000000
223.701309	0.000000
223.793945	0.000000
223.886581	0.000000
223.979218	0.000000
224.071869	0.000000
224.164505	0.000000
224.257156	0.000000
224.349792	0.000000
224.442444	0.000000
224.535095	0.000000
224.627747	0.000000
224.720398	0.000000
224.813034	0.000000
224.905685	0.000000
224.998337	145.740000
225.090988	145.380000
225.183640	145.420000
225.276291	144.980000
225.368942	145.620000
225.461594	145.940000
225.554245	146.140000
225.646912	145.980000
225.739578	146.720000
225.832230	147.240000
225.924896	146.260000
226.017548	146.440000
226.110199	147.040000
226.202866	146.340000
226.295532	145.620000
226.388184	146.140000
226.480850	145.420000
226.573517	144.760000
226.666168	145.400000
226.758835	146.080000
226.851501	146.440000
226.944183	147.000000
227.036850	147.060000
227.129517	146.600000
227.222183	146.300000
227.314850	146.220000
227.407516	146.200000
227.500198	146.800000
227.592865	146.680000
227.685532	146.340000
227.778214	146.100000
227.870880	146.440000
227.963562	146.700000
228.056229	147.160000
228.148926	147.380000
228.241592	148.200000
228.334274	147.740000
228.426956	147.140000
228.519638	147.260000
228.612305	146.980000
228.704987	146.500000
228.797668	146.640000
228.890350	146.460000
228.983032	145.820000
229.075714	146.320000
229.168396	146.140000
229.261108	145.800000
229.353790	145.980000
229.446472	146.380000
229.539169	146.120000
229.631851	145.960000
229.724533	146.280000
229.817230	146.520000
229.909912	147.400000
230.002609	147.640000
230.095306	147.740000
230.187988	147.760000
230.280685	147.520000
230.373383	146.160000
230.466095	145.520000
230.558792	145.660000
230.651474	145.620000
230.744171	145.520000
230.836868	145.640000
230.929581	146.300000
231.022278	146.380000
231.114975	146.460000
231.207672	146.460000
231.300369	146.960000
231.393082	147.000000
231.485779	146.860000
231.578506	146.780000
231.671204	146.820000
231.763916	146.760000
231.856613	146.480000
231.949326	146.660000
232.042023	146.820000
232.134735	146.800000
232.227448	146.540000
232.320160	146.780000
232.412872	146.880000
232.505585	147.280000
232.598297	147.840000
232.691010	147.660000
232.783722	147.360000
232.876450	147.640000
232.969162	147.160000
233.061874	146.180000
233.154587	146.000000
233.247314	146.140000
233.340027	145.460000
233.432739	145.700000
233.525467	145.640000
233.618179	146.140000
233.710907	146.020000
233.803635	146.480000
233.896347	146.220000
233.989090	147.300000
234.081818	147.220000
234.174545	147.340000
234.267258	146.940000
234.359985	147.180000
234.452713	147.040000
234.545441	146.840000
234.638168	146.540000
234.730896	147.000000
234.823639	146.800000
234.916367	146.880000
235.009094	147.140000
235.101822	147.320000
235.194580	146.900000
235.287308	146.760000
235.380051	146.360000
235.472778	146.380000
235.565521	146.540000
235.658249	146.300000
235.750992	146.560000
235.843719	146.360000
235.936462	146.440000
236.029205	146.280000
236.121948	146.280000
236.214691	146.760000
236.307449	147.360000
236.400192	147.060000
236.492935	146.720000
236.585678	147.040000
236.678421	146.500000
236.771164	146.420000
236.863907	146.760000
236.956665	147.040000
237.049408	148.320000
237.142151	148.060000
237.234909	148.500000
237.327652	148.380000
237.420410	148.300000
237.513153	147.160000
237.605927	147.020000
237.698669	146.400000
237.791428	145.780000
237.884186	146.120000
237.976944	145.800000
238.069702	145.940000
238.162445	145.520000
238.255203	145.900000
238.347961	146.260000
238.440720	146.440000
238.533478	146.420000
238.626266	146.460000
238.719025	146.660000
238.811783	146.160000
238.904541	146.160000
238.997314	145.920000
239.090073	145.780000
239.182831	146.060000
239.275604	146.820000
239.368362	146.700000
239.461136	147.060000
239.553909	147.160000
239.646667	146.760000
239.739441	146.220000
239.832214	146.320000
239.925003	146.540000
240.017761	146.980000
240.110535	147.580000
240.203308	147.060000
240.296082	147.060000
240.388855	146.860000
240.481628	146.800000
240.574417	146.460000
240.667191	146.780000
240.759964	146.680000
240.852737	146.860000
240.945526	146.680000
241.038315	146.440000
241.131088	146.700000
241.223877	147.020000
241.316650	146.480000
241.409439	146.540000
241.502228	146.560000
241.595001	146.800000
241.687790	146.520000
241.780579	146.800000
241.873367	146.920000
241.966141	147.080000
242.058929	146.360000
242.151718	146.480000
242.244507	146.880000
242.337311	146.360000
242.430099	146.820000
242.522903	147.140000
242.615692	146.880000
242.708481	146.680000
242.801270	147.200000
242.894073	146.720000
242.986862	146.580000
243.079651	147.240000
243.172455	146.920000
243.265244	146.900000
243.358063	146.500000
243.450867	146.640000
243.543655	146.080000
243.636459	146.180000
243.729263	146.460000
243.822067	147.040000
243.914856	147.560000
244.007660	147.780000
244.100464	147.860000
244.193268	147.240000
244.286072	146.760000
244.378876	145.920000
244.471680	145.480000
244.564499	145.460000
244.657318	146.100000
244.750122	146.500000
244.842926	145.980000
244.935745	146.440000
245.028549	146.060000
245.121368	145.700000
245.214172	145.360000
245.306992	146.180000
245.399796	145.900000
245.492615	146.300000
245.585434	146.140000
245.678253	146.440000
245.771072	146.220000
245.863892	146.480000
245.956711	146.680000
246.049530	146.560000
246.142349	146.440000
246.235168	146.900000
246.327988	147.100000
246.420807	146.840000
246.513626	147.100000
246.606445	146.760000
246.699280	146.260000
246.792099	146.000000
246.884918	145.860000
246.977753	145.220000
247.070587	145.420000
247.163422	145.640000
247.256241	145.740000
247.349075	145.980000
247.441895	146.400000
247.534729	146.360000
247.627563	146.100000
247.720383	146.680000
247.813217	146.400000
247.906052	146.360000
247.998886	146.400000
248.091736	146.320000
248.184570	145.720000
248.277405	145.980000
248.370239	146.960000
248.463074	147.920000
248.555908	148.340000
248.648743	148.260000
248.741592	148.480000
248.834427	147.580000
248.927261	146.220000
249.020111	146.540000
249.112946	147.260000
249.205795	146.840000
249.298630	147.240000
249.391495	147.420000
249.484344	146.960000
249.577179	146.460000
249.670029	146.720000
249.762878	147.100000
249.855728	147.280000
249.948563	147.340000
250.041412	146.700000
250.134262	146.760000
250.227112	146.240000
250.319962	146.260000
250.412827	146.240000
250.505692	146.300000
250.598541	146.120000
250.691391	145.860000
250.784241	146.080000
250.877106	146.100000
250.969955	146.180000
251.062805	146.840000
251.155670	147.340000
251.248520	147.140000
251.341385	147.220000
251.434235	147.080000
251.527100	146.380000
251.619965	145.960000
251.712814	146.620000
251.805695	146.800000
251.898560	147.240000
251.991425	147.580000
252.084290	147.920000
252.177155	147.180000
252.270020	146.720000
252.362885	146.460000
252.455750	146.140000
252.548615	145.600000
252.641479	145.240000
252.734360	144.980000
252.827240	144.700000
252.920105	144.980000
253.012970	145.040000
253.105850	145.360000
253.198715	145.520000
253.291595	145.920000
253.384460	145.360000
253.477341	145.500000
253.570221	145.700000
253.663086	145.500000
253.755966	146.220000
253.848846	146.880000
253.941727	147.340000
254.034592	147.420000
254.127472	147.120000
254.220367	146.940000
254.313248	146.900000
254.406128	146.220000
254.499008	146.120000
254.591904	147.240000
254.684784	147.200000
254.777664	146.860000
254.870544	146.660000
254.963440	146.660000
255.056335	146.180000
255.149216	145.860000
255.242111	146.520000
255.334991	147.080000
255.427887	147.080000
255.520767	147.320000
255.613663	147.520000
255.706558	146.900000
255.799438	146.680000
255.892334	146.540000
255.985229	146.520000
256.078125	146.380000
256.171021	146.840000
256.263916	147.220000
256.356812	147.340000
256.449707	147.440000
256.542603	147.060000
256.635498	146.840000
256.728394	146.680000
256.821289	146.660000
256.914215	146.800000
257.007080	147.520000
257.100006	147.660000
257.192932	147.940000
257.285828	148.340000
257.378723	147.800000
257.471619	147.100000
257.564545	146.620000
257.657440	146.340000
257.750336	146.340000
257.843262	146.280000
257.936157	147.440000
258.029053	147.940000
258.121979	148.180000
258.214874	147.640000
258.307800	147.520000
258.400696	146.600000
258.493622	146.380000
258.586517	145.660000
258.679443	146.340000
258.772339	146.180000
258.865265	146.260000
258.958160	145.780000
259.051086	146.840000
259.144012	146.280000
259.236938	147.240000
259.329834	147.260000
259.422791	147.420000
259.515717	146.380000
259.608612	146.180000
259.701538	146.080000
259.794464	145.860000
259.887390	145.740000
259.980316	145.940000
260.073212	145.900000
260.166138	144.900000
260.259064	145.300000
260.351990	146.060000
260.444916	146.160000
260.537842	146.700000
260.630768	147.940000
260.723694	147.720000
260.816620	147.340000
260.909546	147.260000
261.002472	146.900000
261.095398	146.160000
261.188354	146.140000
261.281281	145.960000
261.374207	146.080000
261.467133	146.860000
261.560089	146.900000
261.653015	146.720000
261.745972	147.220000
261.838867	147.800000
261.931824	147.460000
262.024780	147.200000
262.117706	147.600000
262.210663	147.360000
262.303589	146.880000
262.396515	146.720000
262.489471	147.540000
262.582397	147.560000
262.675354	147.320000
262.768280	147.320000
262.861237	147.340000
262.954163	147.040000
263.047119	146.840000
263.140045	146.720000
263.233002	146.460000
263.325958	146.380000
263.418884	145.800000
263.511841	145.780000
263.604797	146.120000
263.697723	146.360000
263.790680	146.320000
263.883636	146.980000
263.976593	146.700000
264.069550	146.420000
264.162476	146.120000
264.255463	146.140000
264.348419	145.860000
264.441376	146.280000
264.534332	146.060000
264.627289	146.260000
264.720245	146.780000
264.813202	146.340000
264.906158	146.400000
264.999115	146.840000
265.092072	146.760000
265.185028	147.140000
265.277985	147.540000
265.370941	147.140000
265.463898	147.080000
265.556854	146.920000
265.649811	145.800000
265.742798	145.580000
265.835754	145.900000
265.928711	146.100000
266.021667	146.280000
266.114655	146.480000
266.207611	147.120000
266.300568	146.460000
266.393585	145.860000
266.486511	146.140000
266.579498	145.700000
266.672485	145.280000
266.765442	145.640000
266.858429	146.500000
266.951385	146.060000
267.044342	146.400000
267.137329	146.400000
267.230316	146.540000
267.323273	145.960000
267.416260	146.820000
267.509216	146.860000
267.602203	146.840000
267.695160	147.200000
267.788147	147.500000
267.881134	146.680000
267.974091	147.000000
268.067078	146.620000
268.160065	146.300000
268.253052	145.760000
268.346008	145.700000
268.438995	145.240000
268.531982	145.880000
268.624969	145.780000
268.717987	146.320000
268.810944	146.440000
268.903961	146.720000
268.996948	146.100000
269.089905	146.740000
269.182892	146.900000
269.275879	147.200000
269.368866	146.740000
269.461853	147.360000
269.554871	147.060000
269.647858	146.680000
269.740845	147.060000
269.833832	147.540000
269.926819	147.300000
270.019806	147.300000
270.112793	147.140000
270.205811	146.940000
270.298798	146.560000
270.391785	147.020000
270.484772	146.600000
270.577789	146.820000
270.670776	146.500000
270.763763	146.580000
270.856750	146.380000
270.949768	146.180000
271.042786	146.320000
271.135773	146.160000
271.228790	146.580000
271.321808	146.000000
271.414795	145.980000
271.507782	145.600000
271.600800	145.580000
271.693817	145.460000
271.786804	146.200000
271.879822	146.520000
271.972809	146.420000
272.065826	146.980000
272.158844	146.420000
272.251831	146.680000
272.344849	147.000000
272.437866	146.960000
272.530853	146.600000
272.623871	147.140000
272.716888	146.060000
272.809906	146.080000
272.902893	146.180000
272.995911	145.860000
273.088928	145.820000
273.181946	146.260000
273.274963	145.680000
273.367981	145.580000
273.460999	145.940000
273.554047	146.400000
273.647003	146.980000
273.740051	147.180000
273.833069	147.660000
273.926086	147.800000
274.019135	147.320000
274.112152	146.920000
274.205170	146.780000
274.298187	146.820000
274.391205	146.220000
274.484222	146.220000
274.577240	146.080000
274.670258	146.340000
274.763306	146.320000
274.856323	146.920000
274.949341	147.080000
275.042358	147.520000
275.135406	147.460000
275.228424	147.460000
275.321442	147.380000
275.414490	146.920000
275.507507	147.060000
275.600525	147.640000
275.693573	147.320000
275.786591	147.060000
275.879669	147.440000
275.972656	146.780000
276.065735	146.100000
276.158752	146.560000
276.251801	147.280000
276.344818	147.340000
276.437866	147.480000
276.530884	147.400000
276.623932	146.880000
276.716980	146.900000
276.809998	146.820000
276.903046	146.880000
276.996094	147.780000
277.089111	148.520000
277.182159	148.720000
277.275208	148.400000
277.368256	148.340000
277.461304	148.260000
277.554321	147.080000
277.647369	146.760000
277.740417	146.980000
277.833466	146.840000
277.926514	146.220000
278.019562	147.400000
278.112610	146.760000
278.205688	146.940000
278.298706	147.080000
278.391785	146.880000
278.484833	146.340000
278.577881	146.340000
278.670929	146.440000
278.763977	146.520000
278.857025	147.000000
278.950073	146.960000
279.043121	147.140000
279.136169	146.880000
279.229248	146.900000
279.322296	146.960000
279.415344	146.740000
279.508392	146.600000
279.601440	146.420000
279.694519	146.000000
279.787567	145.440000
279.880615	145.580000
279.973694	145.580000
280.066742	145.580000
280.159790	146.100000
280.252869	145.860000
280.345917	145.940000
280.438995	145.640000
280.532074	145.520000
280.625122	145.380000
280.718201	146.600000
280.811279	146.440000
280.904327	146.680000
280.997406	146.780000
281.090454	147.080000
281.183533	146.080000
281.276581	145.980000
281.369659	145.840000
281.462738	145.880000
281.555786	145.800000
281.648865	146.300000
281.741943	146.500000
281.835022	147.080000
281.928070	147.060000
282.021149	146.760000
282.114227	146.620000
282.207306	146.520000
282.300385	146.700000
282.393433	147.080000
282.486511	147.300000
282.579590	147.580000
282.672668	148.020000
282.765747	147.480000
282.858856	147.100000
282.951904	146.900000
283.045013	146.940000
283.138062	147.080000
283.231171	147.180000
283.324249	147.380000
283.417328	147.740000
283.510406	147.200000
283.603485	146.860000
283.696564	146.940000
283.789642	147.240000
283.882751	147.080000
283.975830	147.680000
284.068909	147.240000
284.161987	147.860000
284.255066	147.220000
284.348175	147.140000
284.441254	146.900000
284.534332	147.600000
284.627441	147.000000
284.720520	146.660000
284.813599	146.700000
284.906708	146.580000
284.999786	145.800000
285.092896	145.480000
285.185974	146.700000
285.279053	146.040000
285.372192	146.160000
285.465240	147.120000
285.558380	147.260000
285.651459	147.040000
285.744568	148.180000
285.837677	147.680000
285.930756	147.160000
286.023865	147.180000
286.116943	146.860000
286.210052	146.600000
286.303162	146.800000
286.396240	146.900000
286.489349	146.920000
286.582458	147.140000
286.675568	147.000000
286.768646	147.060000
286.861755	147.500000
286.954865	148.080000
287.047974	147.460000
287.141083	147.440000
287.234161	147.480000
287.327271	146.960000
287.420380	146.880000
287.513519	147.300000
287.606598	147.160000
287.699738	147.440000
287.792816	147.260000
287.885956	146.940000
287.979034	146.900000
288.072174	147.080000
288.165283	146.760000
288.258392	147.220000
288.351501	146.760000
288.444611	147.180000
288.537720	147.300000
288.630859	147.300000
288.723969	147.040000
288.817078	147.640000
288.910187	147.060000
289.003296	146.640000
289.096436	146.220000
289.189545	146.260000
289.282654	145.680000
289.375763	146.140000
289.468903	146.580000
289.562012	146.960000
289.655121	147.120000
289.748260	147.320000
289.841400	147.340000
289.934509	146.980000
290.027649	147.360000
290.120728	147.080000
290.213898	147.220000
290.306976	146.920000
290.400146	146.940000
290.493256	146.380000
290.586395	146.660000
290.679535	147.180000
290.772644	146.800000
290.865784	146.340000
290.958893	146.240000
291.052032	146.000000
291.145172	145.600000
291.238281	145.440000
291.331421	145.660000
291.424561	146.340000
291.517670	146.000000
291.610809	146.360000
291.703949	146.660000
291.797089	146.960000
291.890228	146.680000
291.983337	146.900000
292.076477	146.380000
292.169617	146.720000
292.262756	146.480000
292.355927	146.000000
292.449036	145.640000
292.542206	145.800000
292.635315	145.640000
292.728485	145.980000
292.821625	145.860000
292.914764	147.140000
293.007904	147.300000
293.101044	147.220000
293.194183	146.900000
293.287323	147.180000
293.380463	146.380000
293.473602	145.960000
293.566742	146.100000
293.659882	146.580000
293.753021	146.720000
293.846191	146.940000
293.939331	146.920000
294.032471	147.000000
294.125610	146.520000
294.218781	146.940000
294.311920	147.320000
294.405060	147.520000
294.498230	147.580000
294.591370	147.800000
294.684540	147.160000
294.777679	146.200000
294.870850	146.440000
294.963959	146.300000
295.057159	146.000000
295.150299	146.480000
295.243469	146.840000
295.336609	146.220000
295.429779	146.060000
295.522919	146.380000
295.616089	146.420000
295.709229	146.740000
295.802399	147.000000
295.895569	146.960000
295.988708	146.840000
296.081879	146.960000
296.175018	146.520000
296.268188	146.500000
296.361359	147.040000
296.454529	147.320000
296.547668	147.120000
296.640839	147.300000
296.734009	147.100000
296.827179	146.940000
296.920319	146.840000
297.013519	146.420000
297.106659	146.540000
297.199860	146.380000
297.292999	146.120000
297.386200	145.940000
297.479309	145.860000
297.572510	145.820000
297.665680	145.880000
297.758850	145.920000
297.852020	145.940000
297.945190	145.900000
298.038361	145.760000
298.131531	146.780000
298.224701	146.620000
298.317871	146.220000
298.411072	145.680000
298.504242	145.220000
298.597412	144.580000
298.690582	144.800000
298.783752	145.260000
298.876923	146.080000
298.970093	146.500000
299.063293	146.700000
299.156464	147.100000
299.249634	146.800000
299.342834	147.140000
299.436005	147.420000
299.529205	147.240000
299.622345	146.920000
299.715576	146.720000
299.808716	146.380000
299.901917	146.200000
299.995117	146.500000
300.088287	146.820000
300.181488	146.820000
300.274658	146.560000
300.367828	146.780000
300.461029	146.540000
300.554199	146.700000
300.647400	146.880000
300.740601	147.540000
300.833771	147.160000
300.926971	147.500000
301.020142	146.860000
301.113342	146.960000
301.206512	146.800000
301.299713	146.980000
301.392914	146.920000
301.486084	147.120000
301.579285	146.960000
301.672516	147.260000
301.765686	147.060000
301.858887	146.720000
301.952057	146.740000
302.045288	146.880000
302.138458	146.360000
302.231659	146.300000
302.324860	146.180000
302.418060	145.880000
302.511261	145.960000
302.604462	146.280000
302.697662	146.060000
302.790863	145.960000
302.884064	146.140000
302.977264	146.360000
303.070465	146.400000
303.163666	147.360000
303.256866	147.680000
303.350067	147.380000
303.443268	147.240000
303.536469	147.020000
303.629669	146.380000
303.722870	146.660000
303.816071	146.640000
303.909271	146.340000
304.002472	145.640000
304.095673	145.660000
304.188934	144.820000
304.282104	145.940000
304.375336	146.260000
304.468506	146.740000
304.561768	146.480000
304.654968	147.240000
304.748169	146.440000
304.841370	146.040000
304.934601	146.440000
305.027802	146.340000
305.121002	145.820000
305.214233	145.680000
305.307434	145.860000
305.400665	146.120000
305.493866	146.060000
