Model Number: SPM-002-B   
Serial Number: 70087108
Firmware Version: 004.15.4
Exposure Time: 100000.000000us
Data Taken on: 11-12-2020 19:29:18.016
Wavelength	Amplitude
221.570786	0.000000
221.663406	0.000000
221.756027	0.000000
221.848648	0.000000
221.941269	0.000000
222.033905	0.000000
222.126526	0.000000
222.219162	0.000000
222.311798	0.000000
222.404419	0.000000
222.497055	0.000000
222.589676	0.000000
222.682312	0.000000
222.774933	0.000000
222.867569	0.000000
222.960205	0.000000
223.052841	0.000000
223.145462	0.000000
223.238098	0.000000
223.330734	0.000000
223.423386	0.000000
223.516022	0.000000
223.608658	0.000000
223.701309	0.000000
223.793945	0.000000
223.886581	0.000000
223.979218	0.000000
224.071869	0.000000
224.164505	0.000000
224.257156	0.000000
224.349792	0.000000
224.442444	0.000000
224.535095	0.000000
224.627747	0.000000
224.720398	0.000000
224.813034	0.000000
224.905685	0.000000
224.998337	146.700000
225.090988	146.340000
225.183640	146.460000
225.276291	146.300000
225.368942	146.560000
225.461594	147.200000
225.554245	147.460000
225.646912	147.160000
225.739578	147.740000
225.832230	147.920000
225.924896	146.840000
226.017548	146.960000
226.110199	147.800000
226.202866	147.080000
226.295532	147.120000
226.388184	147.340000
226.480850	146.460000
226.573517	145.980000
226.666168	146.240000
226.758835	146.140000
226.851501	146.780000
226.944183	147.220000
227.036850	146.480000
227.129517	146.680000
227.222183	146.780000
227.314850	146.600000
227.407516	147.020000
227.500198	148.120000
227.592865	147.320000
227.685532	147.100000
227.778214	146.980000
227.870880	147.060000
227.963562	147.220000
228.056229	147.980000
228.148926	147.700000
228.241592	148.320000
228.334274	148.060000
228.426956	147.400000
228.519638	147.360000
228.612305	147.220000
228.704987	146.840000
228.797668	146.780000
228.890350	146.840000
228.983032	146.180000
229.075714	147.020000
229.168396	146.540000
229.261108	146.080000
229.353790	146.200000
229.446472	146.720000
229.539169	146.340000
229.631851	146.520000
229.724533	146.920000
229.817230	146.980000
229.909912	147.880000
230.002609	147.820000
230.095306	147.980000
230.187988	148.080000
230.280685	147.900000
230.373383	146.300000
230.466095	146.240000
230.558792	146.160000
230.651474	146.120000
230.744171	146.060000
230.836868	146.480000
230.929581	146.700000
231.022278	146.620000
231.114975	146.480000
231.207672	146.160000
231.300369	146.700000
231.393082	146.600000
231.485779	146.460000
231.578506	146.720000
231.671204	146.860000
231.763916	146.780000
231.856613	146.700000
231.949326	146.800000
232.042023	146.700000
232.134735	147.000000
232.227448	146.700000
232.320160	147.160000
232.412872	147.300000
232.505585	147.660000
232.598297	148.140000
232.691010	148.020000
232.783722	147.300000
232.876450	147.760000
232.969162	147.240000
233.061874	146.360000
233.154587	146.220000
233.247314	146.960000
233.340027	146.060000
233.432739	146.380000
233.525467	146.460000
233.618179	146.700000
233.710907	146.040000
233.803635	146.760000
233.896347	146.780000
233.989090	147.500000
234.081818	147.240000
234.174545	147.600000
234.267258	147.180000
234.359985	147.260000
234.452713	146.840000
234.545441	147.040000
234.638168	146.960000
234.730896	147.160000
234.823639	146.880000
234.916367	146.960000
235.009094	147.060000
235.101822	146.940000
235.194580	146.780000
235.287308	146.800000
235.380051	146.480000
235.472778	146.700000
235.565521	146.840000
235.658249	146.660000
235.750992	146.760000
235.843719	146.820000
235.936462	146.740000
236.029205	146.400000
236.121948	146.200000
236.214691	146.520000
236.307449	147.120000
236.400192	146.900000
236.492935	146.640000
236.585678	147.280000
236.678421	147.220000
236.771164	146.840000
236.863907	147.220000
236.956665	147.560000
237.049408	148.680000
237.142151	148.300000
237.234909	148.940000
237.327652	148.820000
237.420410	148.620000
237.513153	147.520000
237.605927	147.580000
237.698669	146.760000
237.791428	146.080000
237.884186	146.500000
237.976944	145.980000
238.069702	146.040000
238.162445	146.040000
238.255203	146.480000
238.347961	146.920000
238.440720	147.040000
238.533478	146.860000
238.626266	146.380000
238.719025	146.460000
238.811783	145.980000
238.904541	145.860000
238.997314	146.020000
239.090073	146.140000
239.182831	146.180000
239.275604	146.800000
239.368362	147.020000
239.461136	146.960000
239.553909	146.940000
239.646667	146.760000
239.739441	146.440000
239.832214	146.620000
239.925003	146.820000
240.017761	147.480000
240.110535	148.020000
240.203308	147.580000
240.296082	147.420000
240.388855	147.020000
240.481628	146.820000
240.574417	146.840000
240.667191	146.980000
240.759964	146.840000
240.852737	146.600000
240.945526	146.340000
241.038315	146.180000
241.131088	146.380000
241.223877	146.440000
241.316650	146.720000
241.409439	146.980000
241.502228	146.420000
241.595001	146.800000
241.687790	146.760000
241.780579	146.800000
241.873367	147.100000
241.966141	147.420000
242.058929	146.680000
242.151718	147.040000
242.244507	147.540000
242.337311	146.740000
242.430099	146.960000
242.522903	147.340000
242.615692	146.920000
242.708481	146.760000
242.801270	147.380000
242.894073	147.560000
242.986862	147.640000
243.079651	148.060000
243.172455	147.660000
243.265244	147.860000
243.358063	147.160000
243.450867	147.160000
243.543655	147.320000
243.636459	147.580000
243.729263	147.540000
243.822067	148.260000
243.914856	148.520000
244.007660	148.380000
244.100464	148.240000
244.193268	147.980000
244.286072	147.520000
244.378876	147.080000
244.471680	146.520000
244.564499	146.840000
244.657318	147.460000
244.750122	147.460000
244.842926	146.940000
244.935745	147.720000
245.028549	147.120000
245.121368	146.600000
245.214172	146.680000
245.306992	147.120000
245.399796	146.600000
245.492615	146.980000
245.585434	146.820000
245.678253	146.680000
245.771072	146.640000
245.863892	147.080000
245.956711	147.280000
246.049530	147.280000
246.142349	147.200000
246.235168	147.300000
246.327988	147.460000
246.420807	147.000000
246.513626	147.140000
246.606445	147.120000
246.699280	147.120000
246.792099	146.720000
246.884918	146.680000
246.977753	146.180000
247.070587	146.280000
247.163422	146.380000
247.256241	146.460000
247.349075	146.820000
247.441895	147.120000
247.534729	147.220000
247.627563	146.820000
247.720383	147.240000
247.813217	147.060000
247.906052	146.640000
247.998886	146.660000
248.091736	146.700000
248.184570	146.320000
248.277405	146.420000
248.370239	147.540000
248.463074	148.320000
248.555908	148.820000
248.648743	148.480000
248.741592	148.240000
248.834427	147.600000
248.927261	146.360000
249.020111	146.560000
249.112946	147.420000
249.205795	147.340000
249.298630	147.440000
249.391495	147.800000
249.484344	147.320000
249.577179	146.880000
249.670029	147.260000
249.762878	147.640000
249.855728	147.720000
249.948563	147.820000
250.041412	147.280000
250.134262	147.480000
250.227112	147.520000
250.319962	147.740000
250.412827	147.560000
250.505692	147.580000
250.598541	147.480000
250.691391	146.980000
250.784241	146.700000
250.877106	146.980000
250.969955	147.080000
251.062805	147.460000
251.155670	147.800000
251.248520	147.160000
251.341385	147.420000
251.434235	147.200000
251.527100	146.580000
251.619965	146.400000
251.712814	147.820000
251.805695	147.440000
251.898560	147.920000
251.991425	148.400000
252.084290	148.680000
252.177155	147.820000
252.270020	147.760000
252.362885	147.540000
252.455750	147.540000
252.548615	146.780000
252.641479	146.900000
252.734360	146.700000
252.827240	146.720000
252.920105	146.380000
253.012970	146.740000
253.105850	146.680000
253.198715	146.620000
253.291595	146.940000
253.384460	146.780000
253.477341	146.440000
253.570221	146.760000
253.663086	146.860000
253.755966	147.240000
253.848846	147.180000
253.941727	147.580000
254.034592	147.360000
254.127472	146.760000
254.220367	146.440000
254.313248	146.900000
254.406128	146.740000
254.499008	147.140000
254.591904	148.360000
254.684784	148.780000
254.777664	148.740000
254.870544	148.360000
254.963440	147.920000
255.056335	147.500000
255.149216	146.940000
255.242111	147.200000
255.334991	147.740000
255.427887	147.840000
255.520767	147.840000
255.613663	147.700000
255.706558	147.060000
255.799438	146.860000
255.892334	146.540000
255.985229	146.520000
256.078125	146.780000
256.171021	147.140000
256.263916	147.520000
256.356812	147.880000
256.449707	147.920000
256.542603	147.620000
256.635498	147.840000
256.728394	147.740000
256.821289	147.580000
256.914215	148.120000
257.007080	148.500000
257.100006	148.280000
257.192932	148.180000
257.285828	148.480000
257.378723	147.520000
257.471619	147.320000
257.564545	146.740000
257.657440	147.120000
257.750336	147.380000
257.843262	147.600000
257.936157	148.520000
258.029053	148.920000
258.121979	148.820000
258.214874	148.020000
258.307800	148.040000
258.400696	146.800000
258.493622	146.840000
258.586517	145.960000
258.679443	146.340000
258.772339	146.040000
258.865265	146.020000
258.958160	145.380000
259.051086	146.320000
259.144012	146.400000
259.236938	147.220000
259.329834	147.260000
259.422791	147.480000
259.515717	146.820000
259.608612	146.460000
259.701538	146.480000
259.794464	146.540000
259.887390	146.740000
259.980316	146.420000
260.073212	146.260000
260.166138	144.840000
260.259064	145.320000
260.351990	145.720000
260.444916	146.180000
260.537842	146.740000
260.630768	148.160000
260.723694	147.980000
260.816620	147.700000
260.909546	147.500000
261.002472	147.080000
261.095398	146.220000
261.188354	146.000000
261.281281	145.540000
261.374207	145.900000
261.467133	146.280000
261.560089	146.380000
261.653015	146.240000
261.745972	147.320000
261.838867	147.400000
261.931824	147.760000
262.024780	147.720000
262.117706	148.280000
262.210663	148.100000
262.303589	147.920000
262.396515	147.720000
262.489471	148.420000
262.582397	148.020000
262.675354	147.300000
262.768280	147.460000
262.861237	147.500000
262.954163	147.460000
263.047119	147.800000
263.140045	147.640000
263.233002	147.400000
263.325958	147.060000
263.418884	146.340000
263.511841	146.000000
263.604797	146.360000
263.697723	146.380000
263.790680	146.400000
263.883636	146.900000
263.976593	146.560000
264.069550	146.620000
264.162476	146.500000
264.255463	146.500000
264.348419	146.200000
264.441376	146.840000
264.534332	146.360000
264.627289	146.380000
264.720245	146.940000
264.813202	146.700000
264.906158	146.660000
264.999115	147.460000
265.092072	147.540000
265.185028	147.560000
265.277985	148.120000
265.370941	148.080000
265.463898	147.660000
265.556854	147.500000
265.649811	146.580000
265.742798	146.420000
265.835754	146.300000
265.928711	146.860000
266.021667	147.160000
266.114655	147.820000
266.207611	148.300000
266.300568	147.960000
266.393585	147.360000
266.486511	147.680000
266.579498	146.840000
266.672485	146.600000
266.765442	146.280000
266.858429	146.780000
266.951385	146.200000
267.044342	146.540000
267.137329	146.420000
267.230316	147.340000
267.323273	146.780000
267.416260	147.640000
267.509216	147.700000
267.602203	147.540000
267.695160	147.600000
267.788147	147.900000
267.881134	146.940000
267.974091	147.120000
268.067078	147.080000
268.160065	146.700000
268.253052	146.460000
268.346008	146.760000
268.438995	146.480000
268.531982	146.740000
268.624969	146.580000
268.717987	147.040000
268.810944	147.040000
268.903961	147.180000
268.996948	146.760000
269.089905	147.160000
269.182892	147.200000
269.275879	147.200000
269.368866	146.900000
269.461853	147.240000
269.554871	146.820000
269.647858	146.520000
269.740845	147.140000
269.833832	147.620000
269.926819	147.420000
270.019806	147.720000
270.112793	147.360000
270.205811	147.220000
270.298798	147.040000
270.391785	147.380000
270.484772	147.440000
270.577789	148.020000
270.670776	147.360000
270.763763	147.280000
270.856750	147.440000
270.949768	147.060000
271.042786	146.660000
271.135773	146.760000
271.228790	147.080000
271.321808	146.460000
271.414795	146.260000
271.507782	146.220000
271.600800	146.020000
271.693817	146.060000
271.786804	146.660000
271.879822	147.220000
271.972809	147.120000
272.065826	147.620000
272.158844	147.040000
272.251831	147.340000
272.344849	147.220000
272.437866	146.820000
272.530853	146.340000
272.623871	146.540000
272.716888	145.280000
272.809906	145.340000
272.902893	145.500000
272.995911	145.620000
273.088928	145.880000
273.181946	146.640000
273.274963	146.300000
273.367981	146.740000
273.460999	146.960000
273.554047	146.960000
273.647003	147.640000
273.740051	147.660000
273.833069	148.080000
273.926086	148.120000
274.019135	148.020000
274.112152	146.980000
274.205170	147.260000
274.298187	147.140000
274.391205	146.680000
274.484222	146.540000
274.577240	146.500000
274.670258	146.260000
274.763306	145.880000
274.856323	146.440000
274.949341	146.660000
275.042358	147.400000
275.135406	147.480000
275.228424	147.760000
275.321442	147.660000
275.414490	147.240000
275.507507	147.160000
275.600525	147.580000
275.693573	147.080000
275.786591	146.760000
275.879669	147.100000
275.972656	146.680000
276.065735	146.460000
276.158752	147.200000
276.251801	148.040000
276.344818	148.220000
276.437866	148.340000
276.530884	147.760000
276.623932	146.880000
276.716980	146.820000
276.809998	146.460000
276.903046	146.600000
276.996094	147.920000
277.089111	148.920000
277.182159	149.020000
277.275208	149.060000
277.368256	148.740000
277.461304	148.080000
277.554321	147.360000
277.647369	146.920000
277.740417	147.040000
277.833466	147.120000
277.926514	146.860000
278.019562	147.380000
278.112610	147.040000
278.205688	147.380000
278.298706	147.280000
278.391785	146.900000
278.484833	146.180000
278.577881	146.220000
278.670929	146.140000
278.763977	146.740000
278.857025	147.220000
278.950073	147.660000
279.043121	147.360000
279.136169	147.140000
279.229248	146.920000
279.322296	146.960000
279.415344	146.860000
279.508392	147.160000
279.601440	147.140000
279.694519	146.820000
279.787567	146.600000
279.880615	146.540000
279.973694	146.740000
280.066742	146.880000
280.159790	147.120000
280.252869	146.860000
280.345917	146.980000
280.438995	146.660000
280.532074	146.240000
280.625122	146.580000
280.718201	147.720000
280.811279	147.760000
280.904327	147.960000
280.997406	148.400000
281.090454	148.100000
281.183533	147.320000
281.276581	147.240000
281.369659	146.960000
281.462738	146.700000
281.555786	146.900000
281.648865	147.260000
281.741943	147.000000
281.835022	147.600000
281.928070	147.620000
282.021149	147.240000
282.114227	146.920000
282.207306	147.200000
282.300385	147.140000
282.393433	147.420000
282.486511	147.380000
282.579590	147.940000
282.672668	148.080000
282.765747	147.640000
282.858856	147.400000
282.951904	147.660000
283.045013	147.400000
283.138062	147.380000
283.231171	147.840000
283.324249	148.260000
283.417328	148.360000
283.510406	147.740000
283.603485	147.980000
283.696564	147.740000
283.789642	147.520000
283.882751	147.300000
283.975830	148.140000
284.068909	147.320000
284.161987	147.980000
284.255066	147.380000
284.348175	147.420000
284.441254	146.940000
284.534332	147.620000
284.627441	147.100000
284.720520	146.960000
284.813599	146.840000
284.906708	146.880000
284.999786	146.140000
285.092896	145.520000
285.185974	146.920000
285.279053	146.460000
285.372192	146.640000
285.465240	147.600000
285.558380	147.980000
285.651459	147.360000
285.744568	148.280000
285.837677	147.840000
285.930756	147.560000
286.023865	147.900000
286.116943	147.440000
286.210052	147.280000
286.303162	147.380000
286.396240	147.360000
286.489349	147.000000
286.582458	147.460000
286.675568	147.220000
286.768646	147.540000
286.861755	147.400000
286.954865	147.880000
287.047974	147.360000
287.141083	147.140000
287.234161	146.700000
287.327271	146.780000
287.420380	146.800000
287.513519	146.900000
287.606598	147.200000
287.699738	147.680000
287.792816	147.380000
287.885956	147.280000
287.979034	147.280000
288.072174	147.360000
288.165283	147.200000
288.258392	147.640000
288.351501	147.040000
288.444611	147.280000
288.537720	147.520000
288.630859	147.400000
288.723969	147.440000
288.817078	148.060000
288.910187	147.840000
289.003296	147.220000
289.096436	146.900000
289.189545	146.500000
289.282654	145.940000
289.375763	146.400000
289.468903	146.920000
289.562012	147.460000
289.655121	147.620000
289.748260	147.940000
289.841400	148.180000
289.934509	148.160000
290.027649	147.980000
290.120728	148.100000
290.213898	148.160000
290.306976	147.560000
290.400146	147.640000
290.493256	147.260000
290.586395	147.280000
290.679535	147.280000
290.772644	147.120000
290.865784	146.100000
290.958893	146.260000
291.052032	145.860000
291.145172	145.860000
291.238281	145.900000
291.331421	146.280000
291.424561	146.800000
291.517670	146.820000
291.610809	147.080000
291.703949	146.900000
291.797089	147.500000
291.890228	146.820000
291.983337	146.860000
292.076477	146.500000
292.169617	146.920000
292.262756	146.580000
292.355927	146.840000
292.449036	146.900000
292.542206	146.900000
292.635315	147.040000
292.728485	147.260000
292.821625	146.900000
292.914764	148.160000
293.007904	148.260000
293.101044	148.100000
293.194183	147.880000
293.287323	148.200000
293.380463	147.140000
293.473602	147.020000
293.566742	147.300000
293.659882	147.700000
293.753021	147.880000
293.846191	147.640000
293.939331	147.400000
294.032471	147.020000
294.125610	146.480000
294.218781	146.940000
294.311920	147.540000
294.405060	147.920000
294.498230	147.880000
294.591370	147.960000
294.684540	147.040000
294.777679	146.440000
294.870850	146.380000
294.963959	146.500000
295.057159	146.580000
295.150299	146.980000
295.243469	147.180000
295.336609	146.700000
295.429779	146.820000
295.522919	146.940000
295.616089	147.040000
295.709229	147.500000
295.802399	147.780000
295.895569	147.340000
295.988708	147.360000
296.081879	147.320000
296.175018	146.660000
296.268188	146.820000
296.361359	147.540000
296.454529	147.540000
296.547668	147.480000
296.640839	147.920000
296.734009	147.860000
296.827179	147.960000
296.920319	148.220000
297.013519	147.820000
297.106659	147.660000
297.199860	147.440000
297.292999	147.220000
297.386200	146.660000
297.479309	146.840000
297.572510	146.840000
297.665680	146.820000
297.758850	146.640000
297.852020	146.600000
297.945190	146.580000
298.038361	146.200000
298.131531	147.220000
298.224701	147.180000
298.317871	147.080000
298.411072	146.700000
298.504242	146.800000
298.597412	145.960000
298.690582	145.900000
298.783752	146.000000
298.876923	146.540000
298.970093	146.660000
299.063293	147.140000
299.156464	147.460000
299.249634	147.740000
299.342834	147.760000
299.436005	148.160000
299.529205	147.680000
299.622345	147.680000
299.715576	147.140000
299.808716	147.020000
299.901917	146.720000
299.995117	147.140000
300.088287	147.220000
300.181488	147.080000
300.274658	146.820000
300.367828	146.860000
300.461029	146.660000
300.554199	146.660000
300.647400	146.980000
300.740601	147.740000
300.833771	147.560000
300.926971	147.620000
301.020142	146.980000
301.113342	147.120000
301.206512	146.940000
301.299713	147.220000
301.392914	147.100000
301.486084	147.620000
301.579285	147.500000
301.672516	147.660000
301.765686	147.380000
301.858887	147.460000
301.952057	147.340000
302.045288	147.360000
302.138458	147.220000
302.231659	147.040000
302.324860	146.580000
302.418060	146.220000
302.511261	145.960000
302.604462	145.880000
302.697662	145.960000
302.790863	146.180000
302.884064	145.860000
302.977264	146.060000
303.070465	146.060000
303.163666	146.700000
303.256866	147.100000
303.350067	147.480000
303.443268	147.680000
303.536469	148.000000
303.629669	147.260000
303.722870	147.220000
303.816071	147.260000
303.909271	147.200000
304.002472	146.280000
304.095673	146.260000
304.188934	145.480000
304.282104	146.340000
304.375336	146.420000
304.468506	146.680000
304.561768	146.760000
304.654968	147.620000
304.748169	146.720000
304.841370	146.320000
304.934601	146.860000
305.027802	146.900000
305.121002	146.360000
305.214233	146.700000
305.307434	147.220000
305.400665	147.360000
305.493866	147.240000
