Model Number: SPM-002-B   
Serial Number: 70087108
Firmware Version: 004.15.4
Exposure Time: 100000.000000us
Data Taken on: 11-12-2020 19:29:29.477
Wavelength	Amplitude
221.570786	0.000000
221.663406	0.000000
221.756027	0.000000
221.848648	0.000000
221.941269	0.000000
222.033905	0.000000
222.126526	0.000000
222.219162	0.000000
222.311798	0.000000
222.404419	0.000000
222.497055	0.000000
222.589676	0.000000
222.682312	0.000000
222.774933	0.000000
222.867569	0.000000
222.960205	0.000000
223.052841	0.000000
223.145462	0.000000
223.238098	0.000000
223.330734	0.000000
223.423386	0.000000
223.516022	0.000000
223.608658	0.000000
223.701309	0.000000
223.793945	0.000000
223.886581	0.000000
223.979218	0.000000
224.071869	0.000000
224.164505	0.000000
224.257156	0.000000
224.349792	0.000000
224.442444	0.000000
224.535095	0.000000
224.627747	0.000000
224.720398	0.000000
224.813034	0.000000
224.905685	0.000000
224.998337	145.960000
225.090988	145.320000
225.183640	145.300000
225.276291	145.000000
225.368942	145.340000
225.461594	146.280000
225.554245	147.060000
225.646912	146.960000
225.739578	147.340000
225.832230	147.680000
225.924896	146.520000
226.017548	146.320000
226.110199	146.820000
226.202866	146.460000
226.295532	145.960000
226.388184	145.940000
226.480850	145.800000
226.573517	145.060000
226.666168	145.300000
226.758835	145.660000
226.851501	146.360000
226.944183	146.380000
227.036850	146.200000
227.129517	146.340000
227.222183	146.400000
227.314850	146.540000
227.407516	146.840000
227.500198	147.760000
227.592865	147.360000
227.685532	146.940000
227.778214	146.220000
227.870880	146.620000
227.963562	146.740000
228.056229	147.020000
228.148926	146.880000
228.241592	147.860000
228.334274	147.180000
228.426956	146.820000
228.519638	146.880000
228.612305	146.740000
228.704987	146.420000
228.797668	146.540000
228.890350	146.240000
228.983032	145.520000
229.075714	146.500000
229.168396	146.000000
229.261108	145.620000
229.353790	145.720000
229.446472	146.380000
229.539169	145.780000
229.631851	145.640000
229.724533	145.860000
229.817230	145.880000
229.909912	146.680000
230.002609	146.800000
230.095306	146.860000
230.187988	146.780000
230.280685	146.740000
230.373383	145.460000
230.466095	145.120000
230.558792	145.580000
230.651474	145.860000
230.744171	145.900000
230.836868	145.860000
230.929581	146.300000
231.022278	146.180000
231.114975	146.040000
231.207672	145.680000
231.300369	146.320000
231.393082	146.480000
231.485779	146.320000
231.578506	146.220000
231.671204	146.840000
231.763916	146.480000
231.856613	146.140000
231.949326	146.100000
232.042023	146.160000
232.134735	145.700000
232.227448	145.620000
232.320160	145.800000
232.412872	146.160000
232.505585	146.740000
232.598297	147.160000
232.691010	147.220000
232.783722	146.800000
232.876450	147.000000
232.969162	146.540000
233.061874	145.920000
233.154587	145.800000
233.247314	146.320000
233.340027	145.920000
233.432739	146.020000
233.525467	146.460000
233.618179	147.040000
233.710907	146.540000
233.803635	147.020000
233.896347	146.960000
233.989090	147.380000
234.081818	146.980000
234.174545	146.980000
234.267258	146.420000
234.359985	146.580000
234.452713	146.360000
234.545441	146.280000
234.638168	146.400000
234.730896	146.820000
234.823639	146.500000
234.916367	146.580000
235.009094	146.480000
235.101822	146.740000
235.194580	146.400000
235.287308	146.600000
235.380051	146.180000
235.472778	146.600000
235.565521	146.540000
235.658249	146.380000
235.750992	146.320000
235.843719	146.160000
235.936462	146.020000
236.029205	145.740000
236.121948	145.700000
236.214691	145.980000
236.307449	146.500000
236.400192	146.240000
236.492935	145.980000
236.585678	146.060000
236.678421	146.040000
236.771164	146.000000
236.863907	146.520000
236.956665	146.920000
237.049408	148.580000
237.142151	148.020000
237.234909	148.420000
237.327652	148.460000
237.420410	148.320000
237.513153	147.180000
237.605927	147.260000
237.698669	146.640000
237.791428	145.920000
237.884186	146.180000
237.976944	145.520000
238.069702	145.760000
238.162445	145.400000
238.255203	145.780000
238.347961	146.060000
238.440720	146.220000
238.533478	145.980000
238.626266	146.120000
238.719025	146.160000
238.811783	146.000000
238.904541	146.080000
238.997314	145.900000
239.090073	145.500000
239.182831	145.740000
239.275604	146.280000
239.368362	146.040000
239.461136	146.300000
239.553909	146.620000
239.646667	146.680000
239.739441	146.120000
239.832214	146.620000
239.925003	146.660000
240.017761	147.420000
240.110535	147.500000
240.203308	147.180000
240.296082	146.880000
240.388855	146.900000
240.481628	146.940000
240.574417	146.800000
240.667191	146.840000
240.759964	146.740000
240.852737	146.780000
240.945526	146.080000
241.038315	145.540000
241.131088	145.740000
241.223877	146.380000
241.316650	146.040000
241.409439	146.400000
241.502228	146.280000
241.595001	146.600000
241.687790	146.060000
241.780579	146.160000
241.873367	146.120000
241.966141	146.500000
242.058929	145.760000
242.151718	145.860000
242.244507	146.320000
242.337311	145.920000
242.430099	146.360000
242.522903	146.940000
242.615692	146.540000
242.708481	146.340000
242.801270	146.880000
242.894073	146.740000
242.986862	146.740000
243.079651	147.620000
243.172455	147.580000
243.265244	147.700000
243.358063	147.080000
243.450867	147.240000
243.543655	146.820000
243.636459	146.940000
243.729263	146.860000
243.822067	147.240000
243.914856	147.480000
244.007660	147.600000
244.100464	147.560000
244.193268	147.160000
244.286072	147.380000
244.378876	146.700000
244.471680	146.160000
244.564499	146.480000
244.657318	146.960000
244.750122	147.180000
244.842926	146.820000
244.935745	147.600000
245.028549	147.020000
245.121368	146.720000
245.214172	146.480000
245.306992	147.060000
245.399796	146.460000
245.492615	146.660000
245.585434	146.500000
245.678253	146.280000
245.771072	146.400000
245.863892	146.780000
245.956711	146.920000
246.049530	146.800000
246.142349	146.540000
246.235168	146.560000
246.327988	146.880000
246.420807	146.620000
246.513626	147.040000
246.606445	147.020000
246.699280	146.980000
246.792099	146.520000
246.884918	146.060000
246.977753	145.680000
247.070587	146.080000
247.163422	146.100000
247.256241	146.300000
247.349075	146.740000
247.441895	146.700000
247.534729	146.160000
247.627563	145.620000
247.720383	146.060000
247.813217	145.960000
247.906052	145.760000
247.998886	146.040000
248.091736	146.220000
248.184570	145.400000
248.277405	145.720000
248.370239	146.700000
248.463074	147.620000
248.555908	148.040000
248.648743	148.180000
248.741592	148.200000
248.834427	147.840000
248.927261	146.740000
249.020111	146.800000
249.112946	147.380000
249.205795	146.760000
249.298630	146.540000
249.391495	147.020000
249.484344	146.840000
249.577179	146.460000
249.670029	146.960000
249.762878	147.500000
249.855728	147.440000
249.948563	147.220000
250.041412	146.960000
250.134262	146.900000
250.227112	146.820000
250.319962	146.640000
250.412827	146.700000
250.505692	146.180000
250.598541	146.360000
250.691391	145.680000
250.784241	145.900000
250.877106	145.780000
250.969955	145.980000
251.062805	146.180000
251.155670	146.880000
251.248520	146.620000
251.341385	146.980000
251.434235	147.100000
251.527100	146.780000
251.619965	146.120000
251.712814	146.860000
251.805695	146.920000
251.898560	147.200000
251.991425	147.280000
252.084290	147.880000
252.177155	146.900000
252.270020	146.520000
252.362885	146.480000
252.455750	146.660000
252.548615	146.300000
252.641479	146.480000
252.734360	146.380000
252.827240	146.380000
252.920105	146.240000
253.012970	145.880000
253.105850	145.900000
253.198715	145.820000
253.291595	145.800000
253.384460	145.320000
253.477341	145.360000
253.570221	145.660000
253.663086	145.620000
253.755966	145.900000
253.848846	146.220000
253.941727	146.840000
254.034592	146.500000
254.127472	146.100000
254.220367	146.140000
254.313248	146.080000
254.406128	145.400000
254.499008	145.780000
254.591904	147.000000
254.684784	147.480000
254.777664	147.560000
254.870544	147.540000
254.963440	147.080000
255.056335	146.800000
255.149216	145.800000
255.242111	146.080000
255.334991	146.460000
255.427887	146.900000
255.520767	146.780000
255.613663	147.300000
255.706558	146.660000
255.799438	146.660000
255.892334	146.220000
255.985229	145.840000
256.078125	145.520000
256.171021	145.800000
256.263916	145.860000
256.356812	146.260000
256.449707	146.480000
256.542603	146.320000
256.635498	146.840000
256.728394	146.700000
256.821289	146.340000
256.914215	146.420000
257.007080	147.080000
257.100006	146.920000
257.192932	147.360000
257.285828	147.640000
257.378723	147.440000
257.471619	146.960000
257.564545	146.460000
257.657440	146.240000
257.750336	146.440000
257.843262	146.160000
257.936157	147.220000
258.029053	147.700000
258.121979	147.640000
258.214874	147.380000
258.307800	147.600000
258.400696	146.420000
258.493622	146.200000
258.586517	145.460000
258.679443	145.420000
258.772339	144.800000
258.865265	144.740000
258.958160	144.360000
259.051086	145.260000
259.144012	145.080000
259.236938	146.320000
259.329834	146.200000
259.422791	146.160000
259.515717	145.640000
259.608612	145.540000
259.701538	145.520000
259.794464	145.700000
259.887390	145.760000
259.980316	145.820000
260.073212	145.800000
260.166138	144.940000
260.259064	145.240000
260.351990	145.860000
260.444916	145.900000
260.537842	146.600000
260.630768	147.300000
260.723694	147.260000
260.816620	147.220000
260.909546	147.360000
261.002472	146.700000
261.095398	145.940000
261.188354	145.880000
261.281281	145.180000
261.374207	145.220000
261.467133	146.000000
261.560089	146.540000
261.653015	146.380000
261.745972	147.300000
261.838867	147.480000
261.931824	147.820000
262.024780	147.240000
262.117706	147.460000
262.210663	147.380000
262.303589	147.180000
262.396515	146.820000
262.489471	147.900000
262.582397	147.700000
262.675354	147.000000
262.768280	146.960000
262.861237	146.580000
262.954163	146.040000
263.047119	146.140000
263.140045	145.960000
263.233002	145.700000
263.325958	145.740000
263.418884	145.240000
263.511841	145.380000
263.604797	145.880000
263.697723	146.240000
263.790680	146.140000
263.883636	146.680000
263.976593	146.420000
264.069550	146.580000
264.162476	146.200000
264.255463	146.480000
264.348419	146.260000
264.441376	146.440000
264.534332	146.080000
264.627289	146.460000
264.720245	146.780000
264.813202	146.560000
264.906158	146.660000
264.999115	146.980000
265.092072	147.080000
265.185028	147.060000
265.277985	147.240000
265.370941	147.080000
265.463898	146.600000
265.556854	146.240000
265.649811	145.480000
265.742798	145.700000
265.835754	145.800000
265.928711	146.240000
266.021667	146.060000
266.114655	146.320000
266.207611	146.680000
266.300568	146.100000
266.393585	145.820000
266.486511	146.280000
266.579498	145.820000
266.672485	145.380000
266.765442	145.460000
266.858429	145.940000
266.951385	145.740000
267.044342	146.220000
267.137329	146.240000
267.230316	146.840000
267.323273	146.560000
267.416260	147.160000
267.509216	146.700000
267.602203	146.900000
267.695160	147.240000
267.788147	147.240000
267.881134	146.460000
267.974091	146.740000
268.067078	146.420000
268.160065	145.700000
268.253052	145.480000
268.346008	145.800000
268.438995	145.840000
268.531982	146.140000
268.624969	146.120000
268.717987	146.760000
268.810944	146.700000
268.903961	147.080000
268.996948	146.680000
269.089905	147.140000
269.182892	147.000000
269.275879	147.280000
269.368866	146.560000
269.461853	146.860000
269.554871	146.820000
269.647858	146.720000
269.740845	146.920000
269.833832	147.620000
269.926819	147.180000
270.019806	147.000000
270.112793	146.680000
270.205811	146.440000
270.298798	146.140000
270.391785	147.100000
270.484772	146.880000
270.577789	147.260000
270.670776	146.880000
270.763763	146.860000
270.856750	146.360000
270.949768	146.240000
271.042786	145.840000
271.135773	146.040000
271.228790	145.840000
271.321808	145.480000
271.414795	145.380000
271.507782	145.460000
271.600800	145.340000
271.693817	145.780000
271.786804	146.680000
271.879822	147.260000
271.972809	147.040000
272.065826	147.680000
272.158844	147.100000
272.251831	147.000000
272.344849	146.900000
272.437866	147.000000
272.530853	146.920000
272.623871	147.520000
272.716888	146.560000
272.809906	146.720000
272.902893	146.680000
272.995911	145.760000
273.088928	145.400000
273.181946	146.080000
273.274963	145.460000
273.367981	145.680000
273.460999	146.160000
273.554047	146.560000
273.647003	146.820000
273.740051	146.940000
273.833069	146.980000
273.926086	147.360000
274.019135	146.900000
274.112152	146.540000
274.205170	146.900000
274.298187	147.220000
274.391205	146.540000
274.484222	146.760000
274.577240	146.380000
274.670258	145.980000
274.763306	145.580000
274.856323	146.120000
274.949341	146.160000
275.042358	147.000000
275.135406	147.180000
275.228424	147.200000
275.321442	147.160000
275.414490	146.660000
275.507507	146.780000
275.600525	147.220000
275.693573	146.980000
275.786591	146.400000
275.879669	147.060000
275.972656	146.360000
276.065735	145.920000
276.158752	146.360000
276.251801	147.420000
276.344818	147.160000
276.437866	147.620000
276.530884	147.520000
276.623932	146.880000
276.716980	146.740000
276.809998	146.840000
276.903046	146.540000
276.996094	147.440000
277.089111	148.300000
277.182159	148.360000
277.275208	148.220000
277.368256	148.080000
277.461304	147.560000
277.554321	147.000000
277.647369	146.900000
277.740417	146.780000
277.833466	146.720000
277.926514	146.740000
278.019562	147.300000
278.112610	146.420000
278.205688	146.900000
278.298706	147.060000
278.391785	146.720000
278.484833	146.060000
278.577881	146.140000
278.670929	146.100000
278.763977	146.080000
278.857025	146.380000
278.950073	146.720000
279.043121	146.600000
279.136169	146.320000
279.229248	146.260000
279.322296	145.960000
279.415344	145.520000
279.508392	145.660000
279.601440	145.820000
279.694519	145.620000
279.787567	145.620000
279.880615	145.600000
279.973694	145.460000
280.066742	145.120000
280.159790	145.260000
280.252869	145.240000
280.345917	145.520000
280.438995	145.640000
280.532074	145.660000
280.625122	146.080000
280.718201	146.880000
280.811279	146.740000
280.904327	146.820000
280.997406	147.080000
281.090454	146.720000
281.183533	146.060000
281.276581	146.100000
281.369659	145.940000
281.462738	146.000000
281.555786	146.340000
281.648865	146.200000
281.741943	146.080000
281.835022	146.880000
281.928070	146.440000
282.021149	145.880000
282.114227	145.560000
282.207306	145.660000
282.300385	145.540000
282.393433	145.920000
282.486511	146.100000
282.579590	147.020000
282.672668	147.380000
282.765747	146.900000
282.858856	146.580000
282.951904	146.840000
283.045013	147.040000
283.138062	146.900000
283.231171	147.080000
283.324249	147.720000
283.417328	147.480000
283.510406	146.780000
283.603485	146.580000
283.696564	146.520000
283.789642	146.360000
283.882751	146.080000
283.975830	146.720000
284.068909	146.780000
284.161987	147.140000
284.255066	146.740000
284.348175	147.000000
284.441254	146.540000
284.534332	146.880000
284.627441	146.580000
284.720520	146.160000
284.813599	146.580000
284.906708	146.600000
284.999786	145.820000
285.092896	145.440000
285.185974	146.660000
285.279053	145.900000
285.372192	145.920000
285.465240	147.020000
285.558380	147.060000
285.651459	146.500000
285.744568	147.840000
285.837677	147.480000
285.930756	146.940000
286.023865	147.140000
286.116943	146.780000
286.210052	146.220000
286.303162	146.440000
286.396240	146.280000
286.489349	146.160000
286.582458	146.620000
286.675568	146.280000
286.768646	146.280000
286.861755	146.840000
286.954865	147.580000
287.047974	146.780000
287.141083	146.720000
287.234161	146.580000
287.327271	146.220000
287.420380	146.180000
287.513519	146.520000
287.606598	146.720000
287.699738	146.900000
287.792816	146.640000
287.885956	146.400000
287.979034	146.560000
288.072174	146.200000
288.165283	146.100000
288.258392	146.420000
288.351501	145.780000
288.444611	145.900000
288.537720	146.620000
288.630859	146.760000
288.723969	146.720000
288.817078	147.200000
288.910187	147.020000
289.003296	146.220000
289.096436	145.680000
289.189545	145.540000
289.282654	145.220000
289.375763	145.780000
289.468903	146.280000
289.562012	146.840000
289.655121	147.180000
289.748260	147.480000
289.841400	147.640000
289.934509	147.420000
290.027649	147.440000
290.120728	147.100000
290.213898	147.280000
290.306976	146.840000
290.400146	147.040000
290.493256	146.800000
290.586395	146.960000
290.679535	147.080000
290.772644	146.960000
290.865784	146.280000
290.958893	146.120000
291.052032	145.880000
291.145172	145.500000
291.238281	145.140000
291.331421	145.520000
291.424561	146.180000
291.517670	146.040000
291.610809	146.060000
291.703949	146.240000
291.797089	146.520000
291.890228	145.920000
291.983337	146.060000
292.076477	145.900000
292.169617	145.980000
292.262756	145.740000
292.355927	145.560000
292.449036	145.200000
292.542206	145.420000
292.635315	145.440000
292.728485	145.900000
292.821625	145.800000
292.914764	146.960000
293.007904	146.980000
293.101044	146.900000
293.194183	146.300000
293.287323	146.520000
293.380463	145.760000
293.473602	145.360000
293.566742	145.920000
293.659882	146.560000
293.753021	147.080000
293.846191	147.120000
293.939331	147.020000
294.032471	146.580000
294.125610	146.180000
294.218781	146.360000
294.311920	146.940000
294.405060	147.460000
294.498230	147.440000
294.591370	147.400000
294.684540	146.780000
294.777679	146.100000
294.870850	146.420000
294.963959	146.740000
295.057159	146.540000
295.150299	146.720000
295.243469	146.480000
295.336609	145.580000
295.429779	145.340000
295.522919	145.780000
295.616089	145.860000
295.709229	146.960000
295.802399	147.360000
295.895569	146.960000
295.988708	146.540000
296.081879	146.700000
296.175018	145.520000
296.268188	145.560000
296.361359	146.440000
296.454529	146.720000
296.547668	146.600000
296.640839	147.140000
296.734009	146.800000
296.827179	146.720000
296.920319	146.860000
297.013519	146.440000
297.106659	146.700000
297.199860	146.940000
297.292999	146.600000
297.386200	146.200000
297.479309	146.280000
297.572510	146.000000
297.665680	145.760000
297.758850	145.780000
297.852020	145.620000
297.945190	145.280000
298.038361	145.140000
298.131531	146.080000
298.224701	145.720000
298.317871	145.900000
298.411072	145.740000
298.504242	145.660000
298.597412	145.180000
298.690582	145.440000
298.783752	145.240000
298.876923	145.700000
298.970093	145.920000
299.063293	145.940000
299.156464	146.380000
299.249634	147.000000
299.342834	147.500000
299.436005	147.680000
299.529205	147.700000
299.622345	147.640000
299.715576	147.140000
299.808716	146.820000
299.901917	146.600000
299.995117	146.700000
300.088287	146.600000
300.181488	146.440000
300.274658	146.260000
300.367828	145.980000
300.461029	145.980000
300.554199	146.140000
300.647400	146.360000
300.740601	147.000000
300.833771	147.240000
300.926971	147.440000
301.020142	146.660000
301.113342	146.580000
301.206512	146.200000
301.299713	146.360000
301.392914	146.140000
301.486084	146.820000
301.579285	146.980000
301.672516	147.600000
301.765686	147.360000
301.858887	147.480000
301.952057	147.180000
302.045288	146.920000
302.138458	146.080000
302.231659	146.300000
302.324860	146.000000
302.418060	145.720000
302.511261	145.880000
302.604462	146.580000
302.697662	146.380000
302.790863	146.220000
302.884064	146.360000
302.977264	146.460000
303.070465	146.280000
303.163666	146.920000
303.256866	147.260000
303.350067	146.980000
303.443268	146.920000
303.536469	147.000000
303.629669	146.360000
303.722870	146.440000
303.816071	146.600000
303.909271	146.500000
304.002472	145.320000
304.095673	145.120000
304.188934	144.480000
304.282104	145.420000
304.375336	145.640000
304.468506	146.240000
304.561768	146.180000
304.654968	146.700000
304.748169	146.040000
304.841370	145.840000
304.934601	146.080000
305.027802	145.860000
305.121002	145.540000
305.214233	145.540000
305.307434	145.740000
305.400665	146.400000
305.493866	146.300000
