Model Number: SPM-002-B   
Serial Number: 70087108
Firmware Version: 004.15.4
Exposure Time: 100000.000000us
Data Taken on: 11-12-2020 19:29:57.530
Wavelength	Amplitude
221.570786	0.000000
221.663406	0.000000
221.756027	0.000000
221.848648	0.000000
221.941269	0.000000
222.033905	0.000000
222.126526	0.000000
222.219162	0.000000
222.311798	0.000000
222.404419	0.000000
222.497055	0.000000
222.589676	0.000000
222.682312	0.000000
222.774933	0.000000
222.867569	0.000000
222.960205	0.000000
223.052841	0.000000
223.145462	0.000000
223.238098	0.000000
223.330734	0.000000
223.423386	0.000000
223.516022	0.000000
223.608658	0.000000
223.701309	0.000000
223.793945	0.000000
223.886581	0.000000
223.979218	0.000000
224.071869	0.000000
224.164505	0.000000
224.257156	0.000000
224.349792	0.000000
224.442444	0.000000
224.535095	0.000000
224.627747	0.000000
224.720398	0.000000
224.813034	0.000000
224.905685	0.000000
224.998337	145.860000
225.090988	145.880000
225.183640	145.640000
225.276291	145.740000
225.368942	146.220000
225.461594	146.680000
225.554245	146.880000
225.646912	146.780000
225.739578	147.040000
225.832230	147.200000
225.924896	146.300000
226.017548	146.580000
226.110199	147.340000
226.202866	146.920000
226.295532	146.580000
226.388184	146.720000
226.480850	146.020000
226.573517	145.560000
226.666168	145.680000
226.758835	146.200000
226.851501	146.720000
226.944183	146.960000
227.036850	146.460000
227.129517	146.240000
227.222183	146.060000
227.314850	145.920000
227.407516	146.180000
227.500198	146.900000
227.592865	146.680000
227.685532	146.260000
227.778214	145.780000
227.870880	146.080000
227.963562	146.340000
228.056229	146.940000
228.148926	147.060000
228.241592	147.900000
228.334274	147.480000
228.426956	147.240000
228.519638	146.940000
228.612305	146.600000
228.704987	146.200000
228.797668	146.220000
228.890350	145.860000
228.983032	145.500000
229.075714	146.280000
229.168396	146.180000
229.261108	145.960000
229.353790	146.280000
229.446472	146.800000
229.539169	146.400000
229.631851	146.060000
229.724533	146.160000
229.817230	146.180000
229.909912	146.760000
230.002609	146.660000
230.095306	146.700000
230.187988	146.980000
230.280685	146.820000
230.373383	145.660000
230.466095	145.540000
230.558792	146.080000
230.651474	145.820000
230.744171	145.540000
230.836868	145.460000
230.929581	145.860000
231.022278	145.900000
231.114975	145.760000
231.207672	145.800000
231.300369	146.640000
231.393082	146.580000
231.485779	146.220000
231.578506	146.580000
231.671204	146.760000
231.763916	146.580000
231.856613	146.560000
231.949326	146.620000
232.042023	146.440000
232.134735	146.220000
232.227448	145.620000
232.320160	145.760000
232.412872	145.820000
232.505585	146.420000
232.598297	147.100000
232.691010	147.360000
232.783722	146.860000
232.876450	147.580000
232.969162	146.940000
233.061874	146.540000
233.154587	146.160000
233.247314	146.620000
233.340027	146.040000
233.432739	146.740000
233.525467	146.340000
233.618179	146.640000
233.710907	146.280000
233.803635	146.520000
233.896347	145.920000
233.989090	146.680000
234.081818	146.680000
234.174545	146.900000
234.267258	146.360000
234.359985	146.580000
234.452713	146.480000
234.545441	146.460000
234.638168	146.420000
234.730896	146.760000
234.823639	146.720000
234.916367	146.820000
235.009094	147.280000
235.101822	147.020000
235.194580	146.900000
235.287308	146.700000
235.380051	146.180000
235.472778	146.000000
235.565521	146.360000
235.658249	145.820000
235.750992	145.880000
235.843719	145.860000
235.936462	145.860000
236.029205	145.360000
236.121948	145.660000
236.214691	146.020000
236.307449	146.800000
236.400192	146.820000
236.492935	146.900000
236.585678	146.920000
236.678421	146.800000
236.771164	146.260000
236.863907	146.500000
236.956665	146.860000
237.049408	148.240000
237.142151	147.620000
237.234909	148.240000
237.327652	147.900000
237.420410	147.620000
237.513153	146.560000
237.605927	146.480000
237.698669	145.920000
237.791428	145.420000
237.884186	145.920000
237.976944	145.620000
238.069702	146.200000
238.162445	145.820000
238.255203	146.000000
238.347961	146.380000
238.440720	146.700000
238.533478	146.280000
238.626266	146.260000
238.719025	146.900000
238.811783	146.540000
238.904541	146.120000
238.997314	146.400000
239.090073	146.260000
239.182831	146.400000
239.275604	146.820000
239.368362	146.820000
239.461136	146.900000
239.553909	146.820000
239.646667	146.360000
239.739441	145.920000
239.832214	146.200000
239.925003	146.480000
240.017761	147.120000
240.110535	147.620000
240.203308	147.240000
240.296082	147.400000
240.388855	147.060000
240.481628	147.200000
240.574417	147.200000
240.667191	147.260000
240.759964	147.000000
240.852737	146.860000
240.945526	146.280000
241.038315	145.720000
241.131088	145.940000
241.223877	146.120000
241.316650	145.980000
241.409439	146.360000
241.502228	146.200000
241.595001	146.380000
241.687790	146.240000
241.780579	146.440000
241.873367	146.760000
241.966141	147.180000
242.058929	146.700000
242.151718	146.720000
242.244507	146.900000
242.337311	146.020000
242.430099	146.180000
242.522903	146.460000
242.615692	146.280000
242.708481	146.260000
242.801270	146.740000
242.894073	146.620000
242.986862	146.740000
243.079651	147.240000
243.172455	146.980000
243.265244	147.240000
243.358063	146.720000
243.450867	146.500000
243.543655	146.240000
243.636459	146.160000
243.729263	146.180000
243.822067	146.620000
243.914856	147.180000
244.007660	147.300000
244.100464	147.460000
244.193268	147.000000
244.286072	146.720000
244.378876	146.080000
244.471680	145.720000
244.564499	145.840000
244.657318	146.540000
244.750122	146.940000
244.842926	146.380000
244.935745	146.760000
245.028549	146.500000
245.121368	146.020000
245.214172	145.800000
245.306992	146.600000
245.399796	146.240000
245.492615	146.420000
245.585434	146.340000
245.678253	146.460000
245.771072	146.380000
245.863892	146.880000
245.956711	147.280000
246.049530	147.080000
246.142349	146.560000
246.235168	146.600000
246.327988	146.760000
246.420807	146.480000
246.513626	146.600000
246.606445	146.900000
246.699280	146.860000
246.792099	146.500000
246.884918	145.960000
246.977753	145.840000
247.070587	145.900000
247.163422	145.740000
247.256241	145.780000
247.349075	146.480000
247.441895	146.320000
247.534729	146.440000
247.627563	146.320000
247.720383	146.920000
247.813217	146.580000
247.906052	146.760000
247.998886	146.420000
248.091736	146.320000
248.184570	145.520000
248.277405	145.740000
248.370239	146.640000
248.463074	147.840000
248.555908	148.240000
248.648743	148.580000
248.741592	148.700000
248.834427	148.300000
248.927261	146.820000
249.020111	147.440000
249.112946	147.780000
249.205795	147.460000
249.298630	147.300000
249.391495	147.660000
249.484344	147.100000
249.577179	146.480000
249.670029	146.580000
249.762878	146.840000
249.855728	146.940000
249.948563	146.820000
250.041412	146.440000
250.134262	146.740000
250.227112	146.520000
250.319962	146.580000
250.412827	146.660000
250.505692	146.780000
250.598541	146.480000
250.691391	146.300000
250.784241	146.200000
250.877106	146.080000
250.969955	146.000000
251.062805	146.540000
251.155670	147.140000
251.248520	147.180000
251.341385	147.420000
251.434235	147.540000
251.527100	147.000000
251.619965	146.540000
251.712814	147.240000
251.805695	147.100000
251.898560	147.120000
251.991425	147.220000
252.084290	147.220000
252.177155	146.220000
252.270020	146.060000
252.362885	146.080000
252.455750	146.140000
252.548615	145.920000
252.641479	145.900000
252.734360	145.820000
252.827240	145.680000
252.920105	145.500000
253.012970	145.180000
253.105850	145.300000
253.198715	145.200000
253.291595	145.340000
253.384460	145.460000
253.477341	145.740000
253.570221	146.180000
253.663086	146.180000
253.755966	147.080000
253.848846	146.780000
253.941727	147.420000
254.034592	147.200000
254.127472	146.620000
254.220367	146.080000
254.313248	146.320000
254.406128	145.240000
254.499008	145.440000
254.591904	146.740000
254.684784	147.160000
254.777664	147.180000
254.870544	147.500000
254.963440	147.260000
255.056335	147.200000
255.149216	146.700000
255.242111	147.040000
255.334991	147.600000
255.427887	147.920000
255.520767	147.740000
255.613663	147.700000
255.706558	147.240000
255.799438	146.780000
255.892334	146.420000
255.985229	146.400000
256.078125	146.500000
256.171021	146.500000
256.263916	146.940000
256.356812	147.200000
256.449707	147.120000
256.542603	146.760000
256.635498	147.300000
256.728394	146.860000
256.821289	146.660000
256.914215	146.940000
257.007080	147.300000
257.100006	147.240000
257.192932	147.660000
257.285828	147.840000
257.378723	147.340000
257.471619	147.000000
257.564545	146.560000
257.657440	146.680000
257.750336	147.080000
257.843262	146.900000
257.936157	148.100000
258.029053	148.240000
258.121979	147.840000
258.214874	147.460000
258.307800	147.580000
258.400696	146.540000
258.493622	146.520000
258.586517	145.920000
258.679443	146.000000
258.772339	145.500000
258.865265	145.300000
258.958160	145.160000
259.051086	146.500000
259.144012	146.400000
259.236938	147.360000
259.329834	147.920000
259.422791	147.600000
259.515717	146.760000
259.608612	146.440000
259.701538	146.380000
259.794464	146.140000
259.887390	146.260000
259.980316	146.300000
260.073212	146.280000
260.166138	145.540000
260.259064	145.620000
260.351990	146.120000
260.444916	146.000000
260.537842	146.440000
260.630768	147.320000
260.723694	147.360000
260.816620	146.980000
260.909546	147.180000
261.002472	146.660000
261.095398	145.920000
261.188354	145.760000
261.281281	145.700000
261.374207	145.540000
261.467133	146.240000
261.560089	146.580000
261.653015	146.500000
261.745972	147.280000
261.838867	147.920000
261.931824	147.880000
262.024780	147.360000
262.117706	147.800000
262.210663	147.480000
262.303589	147.120000
262.396515	147.020000
262.489471	148.100000
262.582397	147.680000
262.675354	147.240000
262.768280	147.300000
262.861237	147.220000
262.954163	146.820000
263.047119	146.860000
263.140045	146.660000
263.233002	146.280000
263.325958	146.240000
263.418884	145.720000
263.511841	145.800000
263.604797	146.180000
263.697723	146.460000
263.790680	146.380000
263.883636	146.860000
263.976593	146.500000
264.069550	146.280000
264.162476	145.960000
264.255463	146.120000
264.348419	145.740000
264.441376	146.100000
264.534332	145.900000
264.627289	146.200000
264.720245	146.380000
264.813202	145.860000
264.906158	145.980000
264.999115	146.520000
265.092072	146.540000
265.185028	146.740000
265.277985	147.360000
265.370941	147.100000
265.463898	147.120000
265.556854	146.820000
265.649811	146.000000
265.742798	146.160000
265.835754	146.440000
265.928711	146.760000
266.021667	146.680000
266.114655	146.820000
266.207611	147.120000
266.300568	146.460000
266.393585	145.700000
266.486511	146.380000
266.579498	146.040000
266.672485	145.680000
266.765442	145.760000
266.858429	146.680000
266.951385	145.960000
267.044342	146.240000
267.137329	146.180000
267.230316	146.720000
267.323273	145.960000
267.416260	146.440000
267.509216	146.320000
267.602203	146.480000
267.695160	146.700000
267.788147	146.780000
267.881134	146.400000
267.974091	146.860000
268.067078	146.460000
268.160065	145.940000
268.253052	145.900000
268.346008	146.060000
268.438995	145.700000
268.531982	145.960000
268.624969	145.780000
268.717987	146.200000
268.810944	146.080000
268.903961	146.420000
268.996948	146.040000
269.089905	146.840000
269.182892	146.960000
269.275879	147.400000
269.368866	146.720000
269.461853	147.120000
269.554871	146.840000
269.647858	146.480000
269.740845	146.780000
269.833832	147.280000
269.926819	147.060000
270.019806	146.920000
270.112793	146.740000
270.205811	146.460000
270.298798	146.480000
270.391785	147.060000
270.484772	146.700000
270.577789	146.720000
270.670776	146.400000
270.763763	146.280000
270.856750	146.360000
270.949768	146.500000
271.042786	146.540000
271.135773	146.560000
271.228790	146.940000
271.321808	146.060000
271.414795	145.620000
271.507782	145.620000
271.600800	145.180000
271.693817	145.060000
271.786804	145.720000
271.879822	146.240000
271.972809	146.040000
272.065826	146.940000
272.158844	146.640000
272.251831	147.020000
272.344849	146.860000
272.437866	146.720000
272.530853	146.580000
272.623871	146.720000
272.716888	145.800000
272.809906	146.360000
272.902893	146.500000
272.995911	145.840000
273.088928	145.780000
273.181946	146.340000
273.274963	145.980000
273.367981	146.300000
273.460999	146.680000
273.554047	147.200000
273.647003	147.500000
273.740051	147.720000
273.833069	148.060000
273.926086	148.260000
274.019135	147.740000
274.112152	147.020000
274.205170	146.760000
274.298187	146.520000
274.391205	145.880000
274.484222	146.040000
274.577240	146.600000
274.670258	146.340000
274.763306	146.020000
274.856323	146.480000
274.949341	146.260000
275.042358	146.280000
275.135406	146.460000
275.228424	146.660000
275.321442	146.800000
275.414490	146.740000
275.507507	146.700000
275.600525	147.120000
275.693573	146.780000
275.786591	146.200000
275.879669	146.440000
275.972656	146.300000
276.065735	146.040000
276.158752	146.400000
276.251801	147.480000
276.344818	147.600000
276.437866	147.640000
276.530884	147.340000
276.623932	146.900000
276.716980	146.580000
276.809998	146.640000
276.903046	146.640000
276.996094	147.500000
277.089111	148.040000
277.182159	148.320000
277.275208	147.780000
277.368256	147.780000
277.461304	147.360000
277.554321	146.860000
277.647369	146.740000
277.740417	146.700000
277.833466	146.340000
277.926514	146.140000
278.019562	146.820000
278.112610	146.000000
278.205688	146.500000
278.298706	146.720000
278.391785	146.540000
278.484833	145.780000
278.577881	145.780000
278.670929	145.680000
278.763977	145.780000
278.857025	146.260000
278.950073	146.440000
279.043121	146.460000
279.136169	146.860000
279.229248	146.420000
279.322296	146.120000
279.415344	145.940000
279.508392	146.000000
279.601440	145.420000
279.694519	145.440000
279.787567	145.480000
279.880615	145.800000
279.973694	145.620000
280.066742	146.140000
280.159790	146.440000
280.252869	146.220000
280.345917	146.260000
280.438995	146.500000
280.532074	146.100000
280.625122	146.400000
280.718201	147.080000
280.811279	147.000000
280.904327	146.740000
280.997406	146.940000
281.090454	146.960000
281.183533	146.320000
281.276581	146.120000
281.369659	146.160000
281.462738	145.980000
281.555786	145.860000
281.648865	145.920000
281.741943	145.820000
281.835022	146.620000
281.928070	146.420000
282.021149	146.280000
282.114227	146.360000
282.207306	146.620000
282.300385	146.680000
282.393433	147.020000
282.486511	147.020000
282.579590	147.480000
282.672668	147.640000
282.765747	146.700000
282.858856	146.280000
282.951904	146.360000
283.045013	146.220000
283.138062	146.340000
283.231171	146.860000
283.324249	147.500000
283.417328	147.520000
283.510406	146.920000
283.603485	147.040000
283.696564	146.780000
283.789642	146.460000
283.882751	146.120000
283.975830	146.980000
284.068909	146.180000
284.161987	147.060000
284.255066	146.700000
284.348175	147.020000
284.441254	146.720000
284.534332	147.500000
284.627441	146.880000
284.720520	146.600000
284.813599	146.440000
284.906708	146.280000
284.999786	145.660000
285.092896	145.260000
285.185974	146.560000
285.279053	146.260000
285.372192	146.400000
285.465240	147.100000
285.558380	147.340000
285.651459	146.580000
285.744568	147.460000
285.837677	146.940000
285.930756	146.620000
286.023865	146.320000
286.116943	146.080000
286.210052	146.120000
286.303162	146.420000
286.396240	146.400000
286.489349	146.680000
286.582458	147.260000
286.675568	146.780000
286.768646	146.640000
286.861755	146.860000
286.954865	147.660000
287.047974	146.920000
287.141083	146.520000
287.234161	146.160000
287.327271	145.820000
287.420380	145.860000
287.513519	145.960000
287.606598	146.180000
287.699738	146.720000
287.792816	146.800000
287.885956	146.280000
287.979034	146.260000
288.072174	146.700000
288.165283	146.540000
288.258392	146.880000
288.351501	146.320000
288.444611	146.580000
288.537720	146.800000
288.630859	146.760000
288.723969	146.700000
288.817078	147.440000
288.910187	147.420000
289.003296	146.800000
289.096436	146.540000
289.189545	146.500000
289.282654	145.780000
289.375763	146.520000
289.468903	146.820000
289.562012	147.280000
289.655121	147.080000
289.748260	147.500000
289.841400	147.300000
289.934509	147.260000
290.027649	147.360000
290.120728	147.500000
290.213898	147.460000
290.306976	146.880000
290.400146	146.780000
290.493256	146.280000
290.586395	146.260000
290.679535	146.520000
290.772644	146.680000
290.865784	145.940000
290.958893	145.880000
291.052032	145.560000
291.145172	145.380000
291.238281	145.220000
291.331421	145.840000
291.424561	146.640000
291.517670	146.700000
291.610809	146.880000
291.703949	146.860000
291.797089	147.140000
291.890228	146.760000
291.983337	146.780000
292.076477	146.360000
292.169617	146.760000
292.262756	146.600000
292.355927	146.340000
292.449036	146.280000
292.542206	146.840000
292.635315	146.780000
292.728485	147.040000
292.821625	147.180000
292.914764	148.060000
293.007904	148.020000
293.101044	147.940000
293.194183	147.720000
293.287323	147.920000
293.380463	147.360000
293.473602	146.800000
293.566742	147.160000
293.659882	147.440000
293.753021	147.280000
293.846191	147.000000
293.939331	147.000000
294.032471	146.580000
294.125610	145.980000
294.218781	146.500000
294.311920	147.020000
294.405060	147.260000
294.498230	147.420000
294.591370	147.560000
294.684540	146.720000
294.777679	146.120000
294.870850	145.880000
294.963959	145.520000
295.057159	145.320000
295.150299	145.820000
295.243469	145.740000
295.336609	145.560000
295.429779	145.860000
295.522919	146.380000
295.616089	146.200000
295.709229	147.080000
295.802399	147.280000
295.895569	146.940000
295.988708	146.800000
296.081879	146.880000
296.175018	146.340000
296.268188	146.300000
296.361359	146.820000
296.454529	146.920000
296.547668	146.700000
296.640839	146.820000
296.734009	146.540000
296.827179	146.460000
296.920319	146.660000
297.013519	146.900000
297.106659	146.980000
297.199860	147.260000
297.292999	147.080000
297.386200	146.820000
297.479309	146.380000
297.572510	146.300000
297.665680	146.120000
297.758850	146.120000
297.852020	145.800000
297.945190	145.860000
298.038361	145.340000
298.131531	146.100000
298.224701	145.760000
298.317871	145.520000
298.411072	145.300000
298.504242	145.280000
298.597412	144.920000
298.690582	145.580000
298.783752	145.760000
298.876923	146.380000
298.970093	146.580000
299.063293	146.580000
299.156464	146.600000
299.249634	146.800000
299.342834	146.640000
299.436005	147.080000
299.529205	147.220000
299.622345	147.020000
299.715576	146.660000
299.808716	146.760000
299.901917	146.720000
299.995117	147.100000
300.088287	147.300000
300.181488	147.120000
300.274658	146.800000
300.367828	146.840000
300.461029	146.340000
300.554199	146.340000
300.647400	146.760000
300.740601	147.240000
300.833771	146.640000
300.926971	146.900000
301.020142	146.500000
301.113342	146.240000
301.206512	146.080000
301.299713	146.520000
301.392914	146.280000
301.486084	146.620000
301.579285	146.660000
301.672516	147.160000
301.765686	147.000000
301.858887	147.080000
301.952057	146.920000
302.045288	147.040000
302.138458	146.600000
302.231659	146.380000
302.324860	146.160000
302.418060	145.800000
302.511261	145.620000
302.604462	145.820000
302.697662	145.780000
302.790863	145.760000
302.884064	145.320000
302.977264	145.520000
303.070465	145.800000
303.163666	146.480000
303.256866	146.920000
303.350067	147.760000
303.443268	147.860000
303.536469	147.680000
303.629669	147.020000
303.722870	146.920000
303.816071	146.400000
303.909271	146.520000
304.002472	145.820000
304.095673	145.840000
304.188934	144.860000
304.282104	146.040000
304.375336	145.660000
304.468506	145.980000
304.561768	145.640000
304.654968	146.680000
304.748169	145.740000
304.841370	145.640000
304.934601	146.100000
305.027802	146.180000
305.121002	145.740000
305.214233	145.940000
305.307434	146.300000
305.400665	146.580000
305.493866	146.500000
