Model Number: SPM-002-B   
Serial Number: 70087108
Firmware Version: 004.15.4
Exposure Time: 100000.000000us
Data Taken on: 11-12-2020 19:29:40.673
Wavelength	Amplitude
221.570786	0.000000
221.663406	0.000000
221.756027	0.000000
221.848648	0.000000
221.941269	0.000000
222.033905	0.000000
222.126526	0.000000
222.219162	0.000000
222.311798	0.000000
222.404419	0.000000
222.497055	0.000000
222.589676	0.000000
222.682312	0.000000
222.774933	0.000000
222.867569	0.000000
222.960205	0.000000
223.052841	0.000000
223.145462	0.000000
223.238098	0.000000
223.330734	0.000000
223.423386	0.000000
223.516022	0.000000
223.608658	0.000000
223.701309	0.000000
223.793945	0.000000
223.886581	0.000000
223.979218	0.000000
224.071869	0.000000
224.164505	0.000000
224.257156	0.000000
224.349792	0.000000
224.442444	0.000000
224.535095	0.000000
224.627747	0.000000
224.720398	0.000000
224.813034	0.000000
224.905685	0.000000
224.998337	145.640000
225.090988	145.380000
225.183640	145.320000
225.276291	145.280000
225.368942	145.680000
225.461594	146.140000
225.554245	146.520000
225.646912	146.560000
225.739578	147.060000
225.832230	147.440000
225.924896	146.700000
226.017548	147.200000
226.110199	148.060000
226.202866	147.260000
226.295532	146.860000
226.388184	146.860000
226.480850	146.360000
226.573517	145.360000
226.666168	145.680000
226.758835	145.840000
226.851501	146.600000
226.944183	146.700000
227.036850	146.500000
227.129517	146.600000
227.222183	146.740000
227.314850	146.580000
227.407516	146.840000
227.500198	147.900000
227.592865	147.000000
227.685532	146.720000
227.778214	146.360000
227.870880	146.620000
227.963562	146.460000
228.056229	147.280000
228.148926	146.860000
228.241592	147.620000
228.334274	146.960000
228.426956	146.580000
228.519638	146.780000
228.612305	146.800000
228.704987	146.380000
228.797668	146.420000
228.890350	146.380000
228.983032	145.620000
229.075714	146.400000
229.168396	146.100000
229.261108	145.600000
229.353790	145.800000
229.446472	146.360000
229.539169	146.040000
229.631851	145.720000
229.724533	146.620000
229.817230	146.580000
229.909912	147.340000
230.002609	147.180000
230.095306	147.620000
230.187988	147.300000
230.280685	147.040000
230.373383	145.880000
230.466095	145.880000
230.558792	146.020000
230.651474	145.960000
230.744171	146.100000
230.836868	146.140000
230.929581	146.620000
231.022278	146.420000
231.114975	146.520000
231.207672	146.180000
231.300369	146.720000
231.393082	146.700000
231.485779	146.420000
231.578506	146.320000
231.671204	146.860000
231.763916	146.800000
231.856613	146.600000
231.949326	146.960000
232.042023	146.780000
232.134735	146.740000
232.227448	146.100000
232.320160	146.400000
232.412872	146.500000
232.505585	147.400000
232.598297	147.420000
232.691010	147.500000
232.783722	147.200000
232.876450	147.800000
232.969162	147.180000
233.061874	146.640000
233.154587	146.540000
233.247314	146.620000
233.340027	145.660000
233.432739	145.940000
233.525467	146.100000
233.618179	146.800000
233.710907	146.280000
233.803635	146.920000
233.896347	146.460000
233.989090	147.220000
234.081818	147.040000
234.174545	147.480000
234.267258	146.860000
234.359985	147.020000
234.452713	146.280000
234.545441	145.800000
234.638168	145.660000
234.730896	146.240000
234.823639	146.220000
234.916367	146.780000
235.009094	146.960000
235.101822	147.080000
235.194580	146.880000
235.287308	146.980000
235.380051	146.140000
235.472778	146.360000
235.565521	146.600000
235.658249	146.320000
235.750992	146.620000
235.843719	146.820000
235.936462	146.980000
236.029205	146.560000
236.121948	146.460000
236.214691	146.420000
236.307449	147.400000
236.400192	147.240000
236.492935	146.980000
236.585678	147.320000
236.678421	147.220000
236.771164	146.720000
236.863907	147.400000
236.956665	147.940000
237.049408	149.120000
237.142151	148.560000
237.234909	149.320000
237.327652	148.740000
237.420410	148.340000
237.513153	147.340000
237.605927	147.480000
237.698669	146.860000
237.791428	146.560000
237.884186	147.260000
237.976944	146.680000
238.069702	147.320000
238.162445	147.020000
238.255203	147.240000
238.347961	147.100000
238.440720	147.220000
238.533478	146.700000
238.626266	146.380000
238.719025	146.640000
238.811783	146.560000
238.904541	146.740000
238.997314	146.580000
239.090073	146.300000
239.182831	146.340000
239.275604	146.660000
239.368362	146.420000
239.461136	146.600000
239.553909	146.940000
239.646667	146.800000
239.739441	146.220000
239.832214	146.300000
239.925003	146.740000
240.017761	147.140000
240.110535	147.440000
240.203308	147.200000
240.296082	147.360000
240.388855	146.760000
240.481628	146.540000
240.574417	146.380000
240.667191	146.880000
240.759964	146.860000
240.852737	147.100000
240.945526	147.000000
241.038315	146.840000
241.131088	146.840000
241.223877	147.200000
241.316650	146.900000
241.409439	147.320000
241.502228	146.780000
241.595001	147.100000
241.687790	146.500000
241.780579	146.580000
241.873367	146.600000
241.966141	147.120000
242.058929	146.280000
242.151718	146.880000
242.244507	147.160000
242.337311	146.500000
242.430099	147.060000
242.522903	147.580000
242.615692	147.080000
242.708481	147.280000
242.801270	147.720000
242.894073	147.020000
242.986862	146.860000
243.079651	147.260000
243.172455	147.060000
243.265244	147.200000
243.358063	147.080000
243.450867	147.620000
243.543655	147.160000
243.636459	147.160000
243.729263	147.280000
243.822067	147.280000
243.914856	147.300000
244.007660	147.740000
244.100464	147.620000
244.193268	147.260000
244.286072	147.300000
244.378876	146.260000
244.471680	145.780000
244.564499	145.900000
244.657318	146.740000
244.750122	147.140000
244.842926	146.880000
244.935745	147.420000
245.028549	147.200000
245.121368	146.740000
245.214172	146.600000
245.306992	147.440000
245.399796	146.780000
245.492615	146.940000
245.585434	146.740000
245.678253	146.660000
245.771072	146.540000
245.863892	147.320000
245.956711	147.520000
246.049530	147.280000
246.142349	147.040000
246.235168	147.120000
246.327988	147.380000
246.420807	146.960000
246.513626	147.040000
246.606445	146.900000
246.699280	146.920000
246.792099	146.400000
246.884918	146.300000
246.977753	146.000000
247.070587	146.320000
247.163422	146.380000
247.256241	146.640000
247.349075	147.000000
247.441895	147.260000
247.534729	147.380000
247.627563	147.140000
247.720383	147.420000
247.813217	147.180000
247.906052	146.960000
247.998886	146.820000
248.091736	146.860000
248.184570	146.320000
248.277405	146.580000
248.370239	147.960000
248.463074	148.940000
248.555908	149.220000
248.648743	148.960000
248.741592	148.960000
248.834427	147.840000
248.927261	146.720000
249.020111	147.100000
249.112946	147.880000
249.205795	147.580000
249.298630	147.680000
249.391495	147.940000
249.484344	147.280000
249.577179	146.920000
249.670029	147.240000
249.762878	147.720000
249.855728	147.600000
249.948563	147.540000
250.041412	146.960000
250.134262	147.100000
250.227112	146.920000
250.319962	146.940000
250.412827	146.880000
250.505692	147.020000
250.598541	146.780000
250.691391	146.480000
250.784241	146.600000
250.877106	147.080000
250.969955	146.820000
251.062805	147.520000
251.155670	147.980000
251.248520	147.800000
251.341385	147.680000
251.434235	147.820000
251.527100	147.060000
251.619965	146.580000
251.712814	147.140000
251.805695	147.180000
251.898560	147.620000
251.991425	147.880000
252.084290	148.080000
252.177155	147.480000
252.270020	147.140000
252.362885	146.620000
252.455750	146.600000
252.548615	146.060000
252.641479	146.020000
252.734360	145.940000
252.827240	146.040000
252.920105	146.080000
253.012970	146.160000
253.105850	145.960000
253.198715	145.780000
253.291595	146.020000
253.384460	145.580000
253.477341	145.680000
253.570221	146.080000
253.663086	146.040000
253.755966	146.400000
253.848846	146.720000
253.941727	146.940000
254.034592	146.700000
254.127472	146.480000
254.220367	146.320000
254.313248	146.320000
254.406128	146.020000
254.499008	146.380000
254.591904	147.460000
254.684784	147.880000
254.777664	147.700000
254.870544	147.380000
254.963440	147.120000
255.056335	147.060000
255.149216	146.460000
255.242111	147.220000
255.334991	147.780000
255.427887	147.800000
255.520767	147.660000
255.613663	147.740000
255.706558	146.640000
255.799438	146.460000
255.892334	146.420000
255.985229	146.280000
256.078125	146.180000
256.171021	146.380000
256.263916	146.880000
256.356812	147.040000
256.449707	147.200000
256.542603	147.120000
256.635498	147.560000
256.728394	146.860000
256.821289	146.680000
256.914215	146.860000
257.007080	147.200000
257.100006	147.220000
257.192932	147.940000
257.285828	148.020000
257.378723	147.460000
257.471619	147.500000
257.564545	147.200000
257.657440	147.080000
257.750336	147.480000
257.843262	147.200000
257.936157	147.880000
258.029053	148.320000
258.121979	148.040000
258.214874	147.360000
258.307800	147.460000
258.400696	146.580000
258.493622	146.260000
258.586517	145.720000
258.679443	146.400000
258.772339	145.980000
258.865265	145.620000
258.958160	145.400000
259.051086	146.100000
259.144012	145.600000
259.236938	146.620000
259.329834	146.760000
259.422791	146.520000
259.515717	146.120000
259.608612	146.220000
259.701538	146.240000
259.794464	146.140000
259.887390	146.440000
259.980316	146.520000
260.073212	146.280000
260.166138	145.140000
260.259064	145.860000
260.351990	146.160000
260.444916	146.240000
260.537842	146.960000
260.630768	147.840000
260.723694	147.300000
260.816620	147.000000
260.909546	147.000000
261.002472	146.100000
261.095398	145.780000
261.188354	145.780000
261.281281	145.580000
261.374207	145.560000
261.467133	146.820000
261.560089	147.120000
261.653015	147.000000
261.745972	147.860000
261.838867	148.180000
261.931824	148.020000
262.024780	147.320000
262.117706	147.520000
262.210663	147.300000
262.303589	147.220000
262.396515	146.820000
262.489471	147.900000
262.582397	147.960000
262.675354	147.260000
262.768280	147.140000
262.861237	147.040000
262.954163	146.760000
263.047119	146.680000
263.140045	146.800000
263.233002	146.620000
263.325958	146.680000
263.418884	146.180000
263.511841	146.320000
263.604797	146.640000
263.697723	146.760000
263.790680	146.600000
263.883636	147.340000
263.976593	146.960000
264.069550	146.900000
264.162476	146.660000
264.255463	146.620000
264.348419	146.000000
264.441376	146.340000
264.534332	145.840000
264.627289	145.860000
264.720245	146.520000
264.813202	146.100000
264.906158	146.080000
264.999115	146.940000
265.092072	147.140000
265.185028	147.180000
265.277985	147.700000
265.370941	147.580000
265.463898	147.040000
265.556854	146.840000
265.649811	145.760000
265.742798	145.900000
265.835754	146.080000
265.928711	146.660000
266.021667	146.560000
266.114655	147.000000
266.207611	147.140000
266.300568	146.560000
266.393585	145.860000
266.486511	146.220000
266.579498	145.480000
266.672485	145.480000
266.765442	145.820000
266.858429	146.400000
266.951385	146.220000
267.044342	146.940000
267.137329	146.700000
267.230316	147.060000
267.323273	146.540000
267.416260	147.220000
267.509216	146.940000
267.602203	146.860000
267.695160	147.040000
267.788147	147.340000
267.881134	146.540000
267.974091	146.840000
268.067078	146.640000
268.160065	146.240000
268.253052	145.680000
268.346008	146.160000
268.438995	145.780000
268.531982	145.880000
268.624969	145.800000
268.717987	146.360000
268.810944	145.840000
268.903961	145.900000
268.996948	145.660000
269.089905	145.980000
269.182892	146.000000
269.275879	146.540000
269.368866	146.320000
269.461853	147.000000
269.554871	146.940000
269.647858	146.680000
269.740845	146.700000
269.833832	147.000000
269.926819	146.500000
270.019806	146.220000
270.112793	146.320000
270.205811	146.400000
270.298798	146.420000
270.391785	147.000000
270.484772	146.980000
270.577789	146.900000
270.670776	146.460000
270.763763	146.460000
270.856750	146.220000
270.949768	146.080000
271.042786	146.120000
271.135773	146.200000
271.228790	146.400000
271.321808	145.760000
271.414795	145.740000
271.507782	145.420000
271.600800	145.140000
271.693817	145.340000
271.786804	146.220000
271.879822	146.460000
271.972809	146.720000
272.065826	147.420000
272.158844	146.700000
272.251831	147.200000
272.344849	147.440000
272.437866	147.240000
272.530853	146.940000
272.623871	147.440000
272.716888	146.380000
272.809906	146.380000
272.902893	146.700000
272.995911	146.180000
273.088928	146.340000
273.181946	146.540000
273.274963	145.940000
273.367981	145.780000
273.460999	146.060000
273.554047	146.200000
273.647003	146.660000
273.740051	146.760000
273.833069	146.920000
273.926086	147.320000
274.019135	146.740000
274.112152	146.280000
274.205170	146.580000
274.298187	146.840000
274.391205	146.340000
274.484222	146.400000
274.577240	146.260000
274.670258	145.840000
274.763306	145.660000
274.856323	146.200000
274.949341	146.580000
275.042358	147.280000
275.135406	147.320000
275.228424	146.960000
275.321442	146.860000
275.414490	146.560000
275.507507	146.660000
275.600525	147.220000
275.693573	147.380000
275.786591	147.100000
275.879669	147.460000
275.972656	146.940000
276.065735	146.720000
276.158752	147.320000
276.251801	148.040000
276.344818	147.760000
276.437866	147.860000
276.530884	147.760000
276.623932	146.800000
276.716980	146.740000
276.809998	146.940000
276.903046	147.000000
276.996094	147.920000
277.089111	148.580000
277.182159	148.580000
277.275208	148.200000
277.368256	147.940000
277.461304	147.160000
277.554321	146.500000
277.647369	146.120000
277.740417	146.140000
277.833466	146.120000
277.926514	145.980000
278.019562	146.760000
278.112610	146.320000
278.205688	146.600000
278.298706	146.740000
278.391785	146.700000
278.484833	146.100000
278.577881	146.040000
278.670929	146.440000
278.763977	146.320000
278.857025	146.740000
278.950073	147.100000
279.043121	147.080000
279.136169	146.480000
279.229248	146.440000
279.322296	146.340000
279.415344	146.020000
279.508392	146.080000
279.601440	146.360000
279.694519	146.080000
279.787567	146.060000
279.880615	146.100000
279.973694	145.940000
280.066742	145.840000
280.159790	146.120000
280.252869	145.700000
280.345917	145.820000
280.438995	145.820000
280.532074	145.660000
280.625122	146.020000
280.718201	146.960000
280.811279	146.880000
280.904327	147.060000
280.997406	147.420000
281.090454	147.380000
281.183533	146.800000
281.276581	146.700000
281.369659	146.380000
281.462738	146.400000
281.555786	146.420000
281.648865	146.260000
281.741943	146.400000
281.835022	147.500000
281.928070	147.100000
282.021149	146.900000
282.114227	146.720000
282.207306	146.600000
282.300385	146.440000
282.393433	146.840000
282.486511	146.820000
282.579590	147.580000
282.672668	147.840000
282.765747	146.960000
282.858856	146.460000
282.951904	146.600000
283.045013	146.520000
283.138062	146.680000
283.231171	147.320000
283.324249	147.760000
283.417328	147.860000
283.510406	147.260000
283.603485	146.900000
283.696564	146.560000
283.789642	146.460000
283.882751	145.900000
283.975830	146.680000
284.068909	146.440000
284.161987	147.280000
284.255066	146.920000
284.348175	147.220000
284.441254	146.720000
284.534332	147.360000
284.627441	146.660000
284.720520	146.300000
284.813599	146.320000
284.906708	146.440000
284.999786	145.420000
285.092896	145.340000
285.185974	146.820000
285.279053	146.320000
285.372192	146.220000
285.465240	147.240000
285.558380	147.220000
285.651459	146.600000
285.744568	147.900000
285.837677	147.600000
285.930756	147.600000
286.023865	147.640000
286.116943	147.080000
286.210052	146.360000
286.303162	146.620000
286.396240	146.600000
286.489349	146.520000
286.582458	146.960000
286.675568	146.980000
286.768646	147.100000
286.861755	146.960000
286.954865	147.500000
287.047974	146.960000
287.141083	146.580000
287.234161	146.080000
287.327271	146.080000
287.420380	146.220000
287.513519	146.160000
287.606598	146.300000
287.699738	146.560000
287.792816	146.340000
287.885956	145.980000
287.979034	146.220000
288.072174	146.300000
288.165283	146.300000
288.258392	146.620000
288.351501	146.080000
288.444611	146.340000
288.537720	147.000000
288.630859	146.780000
288.723969	147.060000
288.817078	147.580000
288.910187	147.420000
289.003296	146.520000
289.096436	146.660000
289.189545	146.180000
289.282654	145.660000
289.375763	146.240000
289.468903	146.800000
289.562012	147.020000
289.655121	146.860000
289.748260	147.320000
289.841400	147.220000
289.934509	146.920000
290.027649	147.000000
290.120728	147.160000
290.213898	146.980000
290.306976	146.580000
290.400146	146.840000
290.493256	146.280000
290.586395	146.320000
290.679535	146.780000
290.772644	146.520000
290.865784	145.860000
290.958893	145.880000
291.052032	145.540000
291.145172	145.300000
291.238281	145.540000
291.331421	146.000000
291.424561	146.600000
291.517670	146.420000
291.610809	146.720000
291.703949	146.340000
291.797089	146.520000
291.890228	146.160000
291.983337	146.420000
292.076477	146.100000
292.169617	146.620000
292.262756	146.280000
292.355927	146.040000
292.449036	146.060000
292.542206	146.240000
292.635315	146.380000
292.728485	146.720000
292.821625	146.840000
292.914764	147.980000
293.007904	147.900000
293.101044	147.500000
293.194183	147.200000
293.287323	147.280000
293.380463	146.280000
293.473602	146.040000
293.566742	146.340000
293.659882	147.040000
293.753021	147.320000
293.846191	147.500000
293.939331	147.120000
294.032471	146.580000
294.125610	146.140000
294.218781	146.180000
294.311920	146.360000
294.405060	146.700000
294.498230	146.920000
294.591370	146.760000
294.684540	146.360000
294.777679	145.660000
294.870850	145.960000
294.963959	146.040000
295.057159	145.920000
295.150299	146.460000
295.243469	146.740000
295.336609	146.000000
295.429779	146.180000
295.522919	146.560000
295.616089	146.420000
295.709229	146.640000
295.802399	147.220000
295.895569	146.900000
295.988708	146.580000
296.081879	146.660000
296.175018	146.540000
296.268188	146.380000
296.361359	147.160000
296.454529	147.120000
296.547668	147.020000
296.640839	147.000000
296.734009	146.960000
296.827179	146.860000
296.920319	147.280000
297.013519	146.920000
297.106659	147.260000
297.199860	147.380000
297.292999	147.080000
297.386200	146.700000
297.479309	146.740000
297.572510	146.640000
297.665680	146.280000
297.758850	146.120000
297.852020	146.380000
297.945190	146.460000
298.038361	145.920000
298.131531	147.040000
298.224701	147.000000
298.317871	146.800000
298.411072	146.280000
298.504242	146.480000
298.597412	145.740000
298.690582	146.000000
298.783752	145.760000
298.876923	146.320000
298.970093	146.280000
299.063293	146.380000
299.156464	146.740000
299.249634	147.240000
299.342834	147.520000
299.436005	147.800000
299.529205	147.960000
299.622345	147.840000
299.715576	147.140000
299.808716	147.140000
299.901917	147.080000
299.995117	146.880000
300.088287	146.840000
300.181488	146.780000
300.274658	146.280000
300.367828	146.400000
300.461029	146.560000
300.554199	146.920000
300.647400	147.240000
300.740601	147.800000
300.833771	147.640000
300.926971	147.880000
301.020142	146.880000
301.113342	146.940000
301.206512	146.680000
301.299713	147.000000
301.392914	146.840000
301.486084	147.400000
301.579285	147.320000
301.672516	147.580000
301.765686	147.100000
301.858887	147.180000
301.952057	146.920000
302.045288	147.100000
302.138458	146.620000
302.231659	146.420000
302.324860	145.960000
302.418060	145.920000
302.511261	145.960000
302.604462	146.380000
302.697662	146.600000
302.790863	146.620000
302.884064	146.280000
302.977264	146.360000
303.070465	146.620000
303.163666	147.380000
303.256866	147.780000
303.350067	148.060000
303.443268	147.780000
303.536469	147.600000
303.629669	146.920000
303.722870	147.040000
303.816071	146.920000
303.909271	147.140000
304.002472	146.420000
304.095673	146.180000
304.188934	145.660000
304.282104	146.360000
304.375336	146.460000
304.468506	146.540000
304.561768	146.500000
304.654968	147.200000
304.748169	146.620000
304.841370	146.000000
304.934601	146.640000
305.027802	146.480000
305.121002	145.580000
305.214233	145.520000
305.307434	145.820000
305.400665	146.060000
305.493866	146.060000
