Model Number: SPM-002-B   
Serial Number: 70087108
Firmware Version: 004.15.4
Exposure Time: 100000.000000us
Data Taken on: 11-12-2020 19:30:08.182
Wavelength	Amplitude
221.570786	0.000000
221.663406	0.000000
221.756027	0.000000
221.848648	0.000000
221.941269	0.000000
222.033905	0.000000
222.126526	0.000000
222.219162	0.000000
222.311798	0.000000
222.404419	0.000000
222.497055	0.000000
222.589676	0.000000
222.682312	0.000000
222.774933	0.000000
222.867569	0.000000
222.960205	0.000000
223.052841	0.000000
223.145462	0.000000
223.238098	0.000000
223.330734	0.000000
223.423386	0.000000
223.516022	0.000000
223.608658	0.000000
223.701309	0.000000
223.793945	0.000000
223.886581	0.000000
223.979218	0.000000
224.071869	0.000000
224.164505	0.000000
224.257156	0.000000
224.349792	0.000000
224.442444	0.000000
224.535095	0.000000
224.627747	0.000000
224.720398	0.000000
224.813034	0.000000
224.905685	0.000000
224.998337	145.660000
225.090988	145.360000
225.183640	145.580000
225.276291	145.300000
225.368942	145.640000
225.461594	145.940000
225.554245	146.440000
225.646912	146.020000
225.739578	146.540000
225.832230	146.720000
225.924896	145.940000
226.017548	145.980000
226.110199	146.660000
226.202866	146.040000
226.295532	145.880000
226.388184	146.280000
226.480850	145.920000
226.573517	145.360000
226.666168	145.620000
226.758835	145.760000
226.851501	146.260000
226.944183	146.500000
227.036850	146.380000
227.129517	146.500000
227.222183	146.560000
227.314850	146.260000
227.407516	146.520000
227.500198	147.420000
227.592865	147.000000
227.685532	146.580000
227.778214	146.220000
227.870880	146.500000
227.963562	146.500000
228.056229	147.100000
228.148926	147.240000
228.241592	147.980000
228.334274	147.140000
228.426956	146.820000
228.519638	146.520000
228.612305	146.120000
228.704987	146.000000
228.797668	146.160000
228.890350	145.940000
228.983032	145.360000
229.075714	146.120000
229.168396	145.580000
229.261108	145.060000
229.353790	145.280000
229.446472	145.920000
229.539169	145.780000
229.631851	145.620000
229.724533	146.160000
229.817230	146.120000
229.909912	146.620000
230.002609	146.500000
230.095306	146.660000
230.187988	146.540000
230.280685	146.480000
230.373383	145.340000
230.466095	145.240000
230.558792	145.500000
230.651474	145.460000
230.744171	145.220000
230.836868	145.380000
230.929581	145.680000
231.022278	145.600000
231.114975	145.880000
231.207672	145.760000
231.300369	146.340000
231.393082	146.060000
231.485779	145.720000
231.578506	145.640000
231.671204	145.980000
231.763916	145.840000
231.856613	146.080000
231.949326	146.400000
232.042023	146.200000
232.134735	145.940000
232.227448	145.740000
232.320160	145.680000
232.412872	145.460000
232.505585	146.480000
232.598297	147.040000
232.691010	147.080000
232.783722	146.900000
232.876450	147.460000
232.969162	146.620000
233.061874	146.020000
233.154587	145.360000
233.247314	145.620000
233.340027	145.120000
233.432739	145.380000
233.525467	145.360000
233.618179	146.100000
233.710907	145.800000
233.803635	146.420000
233.896347	146.200000
233.989090	147.200000
234.081818	147.040000
234.174545	147.320000
234.267258	146.620000
234.359985	147.060000
234.452713	146.500000
234.545441	146.120000
234.638168	145.720000
234.730896	146.280000
234.823639	145.820000
234.916367	146.120000
235.009094	146.460000
235.101822	146.780000
235.194580	146.660000
235.287308	146.580000
235.380051	145.880000
235.472778	146.100000
235.565521	145.960000
235.658249	145.340000
235.750992	145.520000
235.843719	145.840000
235.936462	146.080000
236.029205	146.000000
236.121948	145.840000
236.214691	146.060000
236.307449	146.560000
236.400192	146.340000
236.492935	146.020000
236.585678	146.580000
236.678421	146.640000
236.771164	145.840000
236.863907	145.860000
236.956665	146.340000
237.049408	147.760000
237.142151	147.280000
237.234909	148.140000
237.327652	148.180000
237.420410	147.760000
237.513153	146.640000
237.605927	146.540000
237.698669	145.840000
237.791428	145.360000
237.884186	146.020000
237.976944	145.500000
238.069702	145.900000
238.162445	145.880000
238.255203	146.220000
238.347961	146.300000
238.440720	146.340000
238.533478	146.320000
238.626266	146.020000
238.719025	146.140000
238.811783	145.880000
238.904541	145.680000
238.997314	145.320000
239.090073	145.080000
239.182831	145.220000
239.275604	145.860000
239.368362	146.100000
239.461136	146.360000
239.553909	146.740000
239.646667	146.400000
239.739441	145.740000
239.832214	146.000000
239.925003	146.100000
240.017761	146.860000
240.110535	147.420000
240.203308	147.000000
240.296082	146.900000
240.388855	146.820000
240.481628	146.600000
240.574417	146.480000
240.667191	147.040000
240.759964	146.720000
240.852737	146.380000
240.945526	145.880000
241.038315	145.420000
241.131088	145.480000
241.223877	145.840000
241.316650	145.720000
241.409439	146.060000
241.502228	145.920000
241.595001	146.120000
241.687790	145.940000
241.780579	146.140000
241.873367	146.180000
241.966141	146.580000
242.058929	145.800000
242.151718	146.020000
242.244507	146.560000
242.337311	145.660000
242.430099	145.880000
242.522903	146.240000
242.615692	145.520000
242.708481	145.400000
242.801270	146.320000
242.894073	146.340000
242.986862	146.380000
243.079651	147.220000
243.172455	146.680000
243.265244	146.720000
243.358063	146.000000
243.450867	146.300000
243.543655	146.280000
243.636459	146.600000
243.729263	146.680000
243.822067	147.080000
243.914856	147.340000
244.007660	147.160000
244.100464	147.060000
244.193268	146.660000
244.286072	146.520000
244.378876	145.680000
244.471680	145.440000
244.564499	145.840000
244.657318	146.440000
244.750122	146.800000
244.842926	146.340000
244.935745	146.800000
245.028549	146.420000
245.121368	145.980000
245.214172	145.700000
245.306992	146.760000
245.399796	146.260000
245.492615	146.220000
245.585434	145.940000
245.678253	145.820000
245.771072	145.560000
245.863892	145.960000
245.956711	146.360000
246.049530	146.420000
246.142349	146.420000
246.235168	146.300000
246.327988	146.760000
246.420807	146.340000
246.513626	146.560000
246.606445	146.420000
246.699280	146.460000
246.792099	146.000000
246.884918	145.900000
246.977753	145.520000
247.070587	145.640000
247.163422	145.420000
247.256241	145.300000
247.349075	145.760000
247.441895	146.120000
247.534729	146.220000
247.627563	146.460000
247.720383	147.180000
247.813217	147.060000
247.906052	146.720000
247.998886	146.580000
248.091736	146.160000
248.184570	145.580000
248.277405	145.380000
248.370239	146.360000
248.463074	147.320000
248.555908	147.820000
248.648743	147.720000
248.741592	147.800000
248.834427	147.140000
248.927261	145.900000
249.020111	146.180000
249.112946	146.660000
249.205795	146.260000
249.298630	146.240000
249.391495	146.500000
249.484344	146.000000
249.577179	145.800000
249.670029	146.520000
249.762878	147.020000
249.855728	147.160000
249.948563	147.140000
250.041412	146.660000
250.134262	146.280000
250.227112	146.180000
250.319962	146.020000
250.412827	146.240000
250.505692	145.960000
250.598541	146.080000
250.691391	145.540000
250.784241	145.660000
250.877106	145.660000
250.969955	145.520000
251.062805	146.120000
251.155670	146.600000
251.248520	146.520000
251.341385	146.740000
251.434235	147.140000
251.527100	146.760000
251.619965	146.400000
251.712814	147.020000
251.805695	146.600000
251.898560	146.440000
251.991425	146.580000
252.084290	146.880000
252.177155	146.100000
252.270020	146.260000
252.362885	146.700000
252.455750	146.440000
252.548615	145.880000
252.641479	146.120000
252.734360	145.920000
252.827240	145.780000
252.920105	145.540000
253.012970	145.520000
253.105850	145.440000
253.198715	145.160000
253.291595	144.980000
253.384460	145.180000
253.477341	145.340000
253.570221	145.440000
253.663086	145.340000
253.755966	146.000000
253.848846	145.860000
253.941727	145.960000
254.034592	145.740000
254.127472	145.760000
254.220367	145.580000
254.313248	145.780000
254.406128	145.420000
254.499008	145.760000
254.591904	146.460000
254.684784	146.560000
254.777664	146.480000
254.870544	146.340000
254.963440	146.400000
255.056335	146.140000
255.149216	145.700000
255.242111	146.000000
255.334991	146.640000
255.427887	146.280000
255.520767	146.320000
255.613663	146.420000
255.706558	145.580000
255.799438	145.140000
255.892334	145.140000
255.985229	145.320000
256.078125	145.560000
256.171021	145.860000
256.263916	146.340000
256.356812	146.620000
256.449707	146.540000
256.542603	146.000000
256.635498	146.480000
256.728394	146.300000
256.821289	145.880000
256.914215	146.200000
257.007080	146.800000
257.100006	146.520000
257.192932	146.780000
257.285828	147.100000
257.378723	146.340000
257.471619	145.860000
257.564545	145.520000
257.657440	145.640000
257.750336	145.900000
257.843262	145.780000
257.936157	146.860000
258.029053	147.380000
258.121979	147.100000
258.214874	146.700000
258.307800	146.540000
258.400696	145.300000
258.493622	144.940000
258.586517	144.300000
258.679443	144.680000
258.772339	144.460000
258.865265	144.740000
258.958160	144.740000
259.051086	145.620000
259.144012	145.180000
259.236938	146.320000
259.329834	146.240000
259.422791	145.880000
259.515717	145.440000
259.608612	145.760000
259.701538	145.600000
259.794464	145.480000
259.887390	145.640000
259.980316	145.460000
260.073212	145.060000
260.166138	144.080000
260.259064	144.320000
260.351990	145.100000
260.444916	145.420000
260.537842	146.040000
260.630768	147.200000
260.723694	147.520000
260.816620	147.080000
260.909546	146.860000
261.002472	146.260000
261.095398	145.580000
261.188354	145.400000
261.281281	144.700000
261.374207	144.820000
261.467133	145.500000
261.560089	145.700000
261.653015	145.440000
261.745972	146.740000
261.838867	147.040000
261.931824	147.020000
262.024780	146.680000
262.117706	146.920000
262.210663	146.620000
262.303589	146.400000
262.396515	146.380000
262.489471	147.420000
262.582397	147.140000
262.675354	146.740000
262.768280	146.860000
262.861237	146.660000
262.954163	146.140000
263.047119	146.400000
263.140045	146.560000
263.233002	146.200000
263.325958	146.000000
263.418884	145.600000
263.511841	145.720000
263.604797	145.400000
263.697723	145.740000
263.790680	145.820000
263.883636	146.420000
263.976593	146.000000
264.069550	146.260000
264.162476	145.860000
264.255463	145.960000
264.348419	145.500000
264.441376	145.820000
264.534332	145.540000
264.627289	145.740000
264.720245	145.940000
264.813202	146.020000
264.906158	146.060000
264.999115	146.520000
265.092072	146.720000
265.185028	147.020000
265.277985	147.040000
265.370941	146.860000
265.463898	146.600000
265.556854	146.240000
265.649811	145.120000
265.742798	144.940000
265.835754	145.080000
265.928711	145.640000
266.021667	145.580000
266.114655	146.320000
266.207611	146.520000
266.300568	145.980000
266.393585	145.100000
266.486511	145.560000
266.579498	144.800000
266.672485	144.820000
266.765442	144.860000
266.858429	145.520000
266.951385	145.020000
267.044342	145.380000
267.137329	145.200000
267.230316	145.800000
267.323273	145.320000
267.416260	146.140000
267.509216	146.200000
267.602203	146.480000
267.695160	146.720000
267.788147	146.820000
267.881134	145.920000
267.974091	146.200000
268.067078	145.900000
268.160065	145.420000
268.253052	145.520000
268.346008	145.660000
268.438995	145.320000
268.531982	145.360000
268.624969	145.280000
268.717987	145.660000
268.810944	145.720000
268.903961	145.800000
268.996948	145.500000
269.089905	145.900000
269.182892	145.820000
269.275879	146.100000
269.368866	145.600000
269.461853	145.940000
269.554871	145.680000
269.647858	145.520000
269.740845	145.720000
269.833832	146.320000
269.926819	146.260000
270.019806	146.260000
270.112793	145.740000
270.205811	145.620000
270.298798	145.380000
270.391785	146.200000
270.484772	146.040000
270.577789	146.260000
270.670776	145.960000
270.763763	146.060000
270.856750	145.700000
270.949768	145.640000
271.042786	146.120000
271.135773	146.360000
271.228790	146.620000
271.321808	145.960000
271.414795	145.520000
271.507782	144.560000
271.600800	144.300000
271.693817	144.440000
271.786804	145.120000
271.879822	145.880000
271.972809	146.560000
272.065826	146.920000
272.158844	146.300000
272.251831	146.480000
272.344849	146.380000
272.437866	146.080000
272.530853	146.200000
272.623871	146.720000
272.716888	145.920000
272.809906	146.100000
272.902893	145.960000
272.995911	145.500000
273.088928	145.420000
273.181946	145.980000
273.274963	145.620000
273.367981	145.800000
273.460999	146.000000
273.554047	146.240000
273.647003	146.660000
273.740051	146.660000
273.833069	147.220000
273.926086	147.320000
274.019135	146.920000
274.112152	146.420000
274.205170	146.320000
274.298187	146.360000
274.391205	145.820000
274.484222	145.840000
274.577240	145.740000
274.670258	145.980000
274.763306	145.640000
274.856323	146.180000
274.949341	146.400000
275.042358	146.740000
275.135406	146.620000
275.228424	146.620000
275.321442	146.600000
275.414490	146.320000
275.507507	146.520000
275.600525	147.020000
275.693573	146.540000
275.786591	145.880000
275.879669	146.180000
275.972656	145.560000
276.065735	145.040000
276.158752	145.740000
276.251801	146.780000
276.344818	146.620000
276.437866	146.740000
276.530884	146.580000
276.623932	145.820000
276.716980	145.580000
276.809998	145.600000
276.903046	145.800000
276.996094	146.740000
277.089111	147.460000
277.182159	147.700000
277.275208	147.360000
277.368256	146.860000
277.461304	146.340000
277.554321	145.760000
277.647369	145.800000
277.740417	145.880000
277.833466	145.980000
277.926514	145.920000
278.019562	146.740000
278.112610	146.120000
278.205688	146.440000
278.298706	146.660000
278.391785	146.260000
278.484833	145.480000
278.577881	145.580000
278.670929	145.760000
278.763977	145.860000
278.857025	146.560000
278.950073	146.820000
279.043121	146.640000
279.136169	146.440000
279.229248	145.940000
279.322296	145.520000
279.415344	145.280000
279.508392	145.060000
279.601440	144.880000
279.694519	145.060000
279.787567	145.040000
279.880615	145.240000
279.973694	145.780000
280.066742	146.100000
280.159790	146.460000
280.252869	146.220000
280.345917	146.220000
280.438995	145.860000
280.532074	145.420000
280.625122	145.660000
280.718201	146.660000
280.811279	146.620000
280.904327	146.980000
280.997406	147.260000
281.090454	147.060000
281.183533	146.080000
281.276581	146.020000
281.369659	145.640000
281.462738	145.740000
281.555786	145.580000
281.648865	145.880000
281.741943	145.860000
281.835022	146.600000
281.928070	146.420000
282.021149	146.200000
282.114227	146.340000
282.207306	146.420000
282.300385	146.060000
282.393433	146.280000
282.486511	146.360000
282.579590	146.600000
282.672668	146.980000
282.765747	146.600000
282.858856	146.280000
282.951904	146.520000
283.045013	146.380000
283.138062	146.700000
283.231171	147.120000
283.324249	147.540000
283.417328	147.660000
283.510406	147.520000
283.603485	146.900000
283.696564	146.540000
283.789642	146.600000
283.882751	146.320000
283.975830	146.700000
284.068909	146.540000
284.161987	147.300000
284.255066	146.480000
284.348175	146.400000
284.441254	146.180000
284.534332	146.460000
284.627441	145.740000
284.720520	145.680000
284.813599	145.820000
284.906708	145.880000
284.999786	145.300000
285.092896	145.160000
285.185974	146.640000
285.279053	146.300000
285.372192	146.220000
285.465240	147.080000
285.558380	147.020000
285.651459	146.020000
285.744568	147.080000
285.837677	146.560000
285.930756	146.460000
286.023865	146.700000
286.116943	146.420000
286.210052	146.020000
286.303162	146.400000
286.396240	146.500000
286.489349	146.380000
286.582458	146.680000
286.675568	146.320000
286.768646	146.260000
286.861755	146.120000
286.954865	146.920000
287.047974	146.340000
287.141083	146.200000
287.234161	146.100000
287.327271	145.760000
287.420380	145.660000
287.513519	146.000000
287.606598	146.080000
287.699738	146.440000
287.792816	146.580000
287.885956	146.360000
287.979034	146.300000
288.072174	146.520000
288.165283	146.320000
288.258392	146.560000
288.351501	145.720000
288.444611	146.240000
288.537720	146.420000
288.630859	146.440000
288.723969	146.400000
288.817078	146.980000
288.910187	146.860000
289.003296	146.620000
289.096436	146.320000
289.189545	145.820000
289.282654	145.660000
289.375763	145.740000
289.468903	145.860000
289.562012	146.140000
289.655121	146.600000
289.748260	146.720000
289.841400	146.820000
289.934509	146.660000
290.027649	146.760000
290.120728	146.620000
290.213898	146.380000
290.306976	146.240000
290.400146	146.380000
290.493256	145.840000
290.586395	146.060000
290.679535	146.560000
290.772644	146.020000
290.865784	145.200000
290.958893	145.300000
291.052032	144.960000
291.145172	144.760000
291.238281	144.720000
291.331421	145.280000
291.424561	145.900000
291.517670	145.700000
291.610809	145.760000
291.703949	145.840000
291.797089	146.100000
291.890228	145.180000
291.983337	145.480000
292.076477	145.020000
292.169617	145.640000
292.262756	145.240000
292.355927	145.540000
292.449036	145.360000
292.542206	145.700000
292.635315	145.500000
292.728485	145.800000
292.821625	145.580000
292.914764	146.760000
293.007904	146.940000
293.101044	146.940000
293.194183	146.660000
293.287323	147.140000
293.380463	146.040000
293.473602	145.740000
293.566742	145.800000
293.659882	146.320000
293.753021	146.380000
293.846191	146.420000
293.939331	146.220000
294.032471	146.040000
294.125610	145.780000
294.218781	145.960000
294.311920	146.300000
294.405060	146.640000
294.498230	146.400000
294.591370	146.280000
294.684540	145.640000
294.777679	145.340000
294.870850	145.720000
294.963959	145.600000
295.057159	145.520000
295.150299	146.060000
295.243469	145.960000
295.336609	145.080000
295.429779	145.680000
295.522919	146.060000
295.616089	145.960000
295.709229	146.360000
295.802399	146.660000
295.895569	145.860000
295.988708	145.600000
296.081879	145.540000
296.175018	144.720000
296.268188	144.880000
296.361359	145.760000
296.454529	145.880000
296.547668	145.820000
296.640839	146.420000
296.734009	146.300000
296.827179	146.440000
296.920319	146.620000
297.013519	146.420000
297.106659	146.200000
297.199860	146.200000
297.292999	145.480000
297.386200	145.060000
297.479309	145.040000
297.572510	145.060000
297.665680	144.800000
297.758850	145.220000
297.852020	145.380000
297.945190	145.260000
298.038361	145.260000
298.131531	146.440000
298.224701	146.180000
298.317871	145.800000
298.411072	145.720000
298.504242	145.880000
298.597412	145.060000
298.690582	145.440000
298.783752	145.820000
298.876923	146.400000
298.970093	146.120000
299.063293	146.380000
299.156464	146.660000
299.249634	146.640000
299.342834	146.580000
299.436005	146.840000
299.529205	146.580000
299.622345	146.180000
299.715576	145.780000
299.808716	145.380000
299.901917	145.460000
299.995117	145.840000
300.088287	145.820000
300.181488	145.740000
300.274658	145.800000
300.367828	145.920000
300.461029	145.620000
300.554199	145.880000
300.647400	145.960000
300.740601	146.520000
300.833771	146.280000
300.926971	146.460000
301.020142	145.980000
301.113342	146.340000
301.206512	145.760000
301.299713	146.020000
301.392914	146.100000
301.486084	146.560000
301.579285	146.280000
301.672516	146.820000
301.765686	146.440000
301.858887	146.180000
301.952057	146.120000
302.045288	146.220000
302.138458	145.940000
302.231659	146.020000
302.324860	145.980000
302.418060	145.600000
302.511261	145.420000
302.604462	145.980000
302.697662	146.180000
302.790863	146.080000
302.884064	145.840000
302.977264	146.080000
303.070465	145.860000
303.163666	146.060000
303.256866	146.360000
303.350067	146.680000
303.443268	146.660000
303.536469	146.320000
303.629669	145.920000
303.722870	146.240000
303.816071	146.060000
303.909271	146.140000
304.002472	145.780000
304.095673	145.500000
304.188934	144.700000
304.282104	145.660000
304.375336	145.500000
304.468506	145.640000
304.561768	145.540000
304.654968	145.860000
304.748169	145.120000
304.841370	144.900000
304.934601	145.120000
305.027802	145.220000
305.121002	145.180000
305.214233	145.360000
305.307434	145.840000
305.400665	146.540000
305.493866	146.680000
