Model Number: SPM-002-B   
Serial Number: 70087108
Firmware Version: 004.15.4
Exposure Time: 100000.000000us
Data Taken on: 11-12-2020 19:30:27.710
Wavelength	Amplitude
221.570786	0.000000
221.663406	0.000000
221.756027	0.000000
221.848648	0.000000
221.941269	0.000000
222.033905	0.000000
222.126526	0.000000
222.219162	0.000000
222.311798	0.000000
222.404419	0.000000
222.497055	0.000000
222.589676	0.000000
222.682312	0.000000
222.774933	0.000000
222.867569	0.000000
222.960205	0.000000
223.052841	0.000000
223.145462	0.000000
223.238098	0.000000
223.330734	0.000000
223.423386	0.000000
223.516022	0.000000
223.608658	0.000000
223.701309	0.000000
223.793945	0.000000
223.886581	0.000000
223.979218	0.000000
224.071869	0.000000
224.164505	0.000000
224.257156	0.000000
224.349792	0.000000
224.442444	0.000000
224.535095	0.000000
224.627747	0.000000
224.720398	0.000000
224.813034	0.000000
224.905685	0.000000
224.998337	145.820000
225.090988	145.580000
225.183640	145.420000
225.276291	145.220000
225.368942	146.000000
225.461594	146.320000
225.554245	146.480000
225.646912	146.340000
225.739578	146.840000
225.832230	146.880000
225.924896	146.200000
226.017548	146.420000
226.110199	146.920000
226.202866	146.020000
226.295532	145.860000
226.388184	146.020000
226.480850	145.300000
226.573517	144.600000
226.666168	145.040000
226.758835	145.100000
226.851501	145.620000
226.944183	146.040000
227.036850	146.260000
227.129517	146.340000
227.222183	146.440000
227.314850	146.440000
227.407516	146.600000
227.500198	147.400000
227.592865	147.340000
227.685532	146.840000
227.778214	146.420000
227.870880	146.560000
227.963562	146.640000
228.056229	146.940000
228.148926	147.340000
228.241592	148.320000
228.334274	147.820000
228.426956	147.340000
228.519638	147.120000
228.612305	146.560000
228.704987	146.300000
228.797668	146.560000
228.890350	146.200000
228.983032	145.700000
229.075714	146.320000
229.168396	145.900000
229.261108	145.520000
229.353790	145.820000
229.446472	146.220000
229.539169	146.260000
229.631851	145.900000
229.724533	146.220000
229.817230	146.360000
229.909912	147.340000
230.002609	147.040000
230.095306	147.280000
230.187988	147.360000
230.280685	147.280000
230.373383	146.100000
230.466095	146.180000
230.558792	146.380000
230.651474	146.260000
230.744171	146.140000
230.836868	146.100000
230.929581	146.440000
231.022278	146.340000
231.114975	146.380000
231.207672	146.020000
231.300369	146.540000
231.393082	146.500000
231.485779	146.380000
231.578506	145.960000
231.671204	146.440000
231.763916	145.960000
231.856613	146.000000
231.949326	146.380000
232.042023	146.700000
232.134735	146.640000
232.227448	146.660000
232.320160	146.760000
232.412872	146.760000
232.505585	147.420000
232.598297	147.720000
232.691010	147.540000
232.783722	146.940000
232.876450	147.220000
232.969162	146.640000
233.061874	146.180000
233.154587	145.720000
233.247314	146.040000
233.340027	145.500000
233.432739	145.980000
233.525467	145.660000
233.618179	146.260000
233.710907	145.880000
233.803635	146.260000
233.896347	145.840000
233.989090	146.860000
234.081818	146.960000
234.174545	147.160000
234.267258	146.740000
234.359985	146.900000
234.452713	146.560000
234.545441	146.580000
234.638168	146.580000
234.730896	147.000000
234.823639	147.040000
234.916367	147.220000
235.009094	147.400000
235.101822	147.460000
235.194580	147.280000
235.287308	147.040000
235.380051	146.180000
235.472778	146.500000
235.565521	146.740000
235.658249	146.340000
235.750992	146.480000
235.843719	146.940000
235.936462	146.700000
236.029205	146.300000
236.121948	146.240000
236.214691	146.500000
236.307449	147.120000
236.400192	146.620000
236.492935	146.440000
236.585678	146.640000
236.678421	146.560000
236.771164	146.280000
236.863907	147.160000
236.956665	147.460000
237.049408	149.020000
237.142151	148.420000
237.234909	148.980000
237.327652	148.600000
237.420410	148.500000
237.513153	147.580000
237.605927	147.640000
237.698669	147.060000
237.791428	146.440000
237.884186	146.960000
237.976944	146.280000
238.069702	146.440000
238.162445	145.840000
238.255203	145.820000
238.347961	145.860000
238.440720	145.820000
238.533478	145.740000
238.626266	145.500000
238.719025	146.320000
238.811783	146.120000
238.904541	146.140000
238.997314	146.080000
239.090073	146.100000
239.182831	146.020000
239.275604	146.440000
239.368362	146.520000
239.461136	146.960000
239.553909	147.200000
239.646667	146.900000
239.739441	146.200000
239.832214	146.700000
239.925003	146.540000
240.017761	147.320000
240.110535	147.740000
240.203308	147.540000
240.296082	147.340000
240.388855	147.280000
240.481628	146.700000
240.574417	146.700000
240.667191	146.720000
240.759964	146.340000
240.852737	146.080000
240.945526	146.060000
241.038315	145.880000
241.131088	146.300000
241.223877	146.820000
241.316650	146.700000
241.409439	146.980000
241.502228	146.420000
241.595001	146.800000
241.687790	146.360000
241.780579	146.580000
241.873367	146.460000
241.966141	147.000000
242.058929	146.220000
242.151718	146.480000
242.244507	146.940000
242.337311	146.420000
242.430099	146.460000
242.522903	146.780000
242.615692	146.160000
242.708481	146.140000
242.801270	146.780000
242.894073	146.560000
242.986862	146.500000
243.079651	147.160000
243.172455	146.620000
243.265244	146.600000
243.358063	146.340000
243.450867	146.500000
243.543655	146.500000
243.636459	146.620000
243.729263	146.540000
243.822067	147.000000
243.914856	147.160000
244.007660	147.140000
244.100464	147.140000
244.193268	146.760000
244.286072	146.460000
244.378876	146.080000
244.471680	145.860000
244.564499	146.160000
244.657318	147.220000
244.750122	147.500000
244.842926	147.220000
244.935745	147.760000
245.028549	147.260000
245.121368	146.300000
245.214172	146.160000
245.306992	146.800000
245.399796	146.040000
245.492615	146.540000
245.585434	146.520000
245.678253	146.340000
245.771072	146.100000
245.863892	146.420000
245.956711	146.480000
246.049530	146.360000
246.142349	146.440000
246.235168	146.340000
246.327988	146.960000
246.420807	146.700000
246.513626	146.900000
246.606445	146.800000
246.699280	146.900000
246.792099	146.400000
246.884918	145.580000
246.977753	145.240000
247.070587	145.380000
247.163422	145.320000
247.256241	145.160000
247.349075	146.040000
247.441895	146.280000
247.534729	146.120000
247.627563	146.000000
247.720383	146.780000
247.813217	146.920000
247.906052	147.080000
247.998886	146.980000
248.091736	146.920000
248.184570	146.120000
248.277405	146.140000
248.370239	146.900000
248.463074	147.960000
248.555908	148.240000
248.648743	148.360000
248.741592	148.220000
248.834427	147.180000
248.927261	146.040000
249.020111	146.300000
249.112946	146.700000
249.205795	146.160000
249.298630	146.580000
249.391495	146.560000
249.484344	145.940000
249.577179	145.800000
249.670029	146.240000
249.762878	146.740000
249.855728	147.140000
249.948563	147.300000
250.041412	147.000000
250.134262	147.100000
250.227112	146.940000
250.319962	146.760000
250.412827	146.780000
250.505692	146.100000
250.598541	146.360000
250.691391	146.000000
250.784241	146.320000
250.877106	146.380000
250.969955	146.780000
251.062805	147.080000
251.155670	147.640000
251.248520	147.300000
251.341385	147.620000
251.434235	147.640000
251.527100	147.160000
251.619965	146.520000
251.712814	147.460000
251.805695	147.360000
251.898560	147.600000
251.991425	147.900000
252.084290	148.080000
252.177155	146.900000
252.270020	146.620000
252.362885	146.640000
252.455750	146.340000
252.548615	146.060000
252.641479	146.220000
252.734360	146.180000
252.827240	145.860000
252.920105	145.940000
253.012970	145.740000
253.105850	145.840000
253.198715	145.840000
253.291595	146.240000
253.384460	145.780000
253.477341	146.080000
253.570221	146.340000
253.663086	146.040000
253.755966	146.420000
253.848846	146.900000
253.941727	147.020000
254.034592	146.780000
254.127472	146.480000
254.220367	146.340000
254.313248	146.280000
254.406128	145.880000
254.499008	146.240000
254.591904	147.300000
254.684784	147.580000
254.777664	147.580000
254.870544	147.440000
254.963440	147.280000
255.056335	147.240000
255.149216	146.700000
255.242111	147.060000
255.334991	147.820000
255.427887	147.880000
255.520767	147.680000
255.613663	147.880000
255.706558	147.100000
255.799438	146.660000
255.892334	146.180000
255.985229	146.040000
256.078125	145.600000
256.171021	146.060000
256.263916	146.580000
256.356812	147.060000
256.449707	147.420000
256.542603	147.520000
256.635498	147.620000
256.728394	147.180000
256.821289	147.000000
256.914215	146.940000
257.007080	147.420000
257.100006	147.480000
257.192932	147.880000
257.285828	148.100000
257.378723	147.780000
257.471619	147.140000
257.564545	146.540000
257.657440	146.560000
257.750336	147.120000
257.843262	146.900000
257.936157	148.200000
258.029053	148.660000
258.121979	148.460000
258.214874	148.100000
258.307800	148.200000
258.400696	146.820000
258.493622	146.820000
258.586517	146.080000
258.679443	145.980000
258.772339	145.620000
258.865265	145.660000
258.958160	145.120000
259.051086	145.960000
259.144012	145.420000
259.236938	146.380000
259.329834	146.580000
259.422791	146.440000
259.515717	146.000000
259.608612	145.860000
259.701538	145.680000
259.794464	145.660000
259.887390	145.720000
259.980316	145.500000
260.073212	145.620000
260.166138	144.740000
260.259064	145.100000
260.351990	145.640000
260.444916	145.700000
260.537842	146.220000
260.630768	147.000000
260.723694	146.840000
260.816620	146.760000
260.909546	146.980000
261.002472	146.540000
261.095398	146.020000
261.188354	145.960000
261.281281	145.660000
261.374207	145.860000
261.467133	146.500000
261.560089	146.880000
261.653015	146.660000
261.745972	147.400000
261.838867	147.560000
261.931824	147.960000
262.024780	147.500000
262.117706	147.680000
262.210663	147.580000
262.303589	147.120000
262.396515	146.400000
262.489471	147.180000
262.582397	147.300000
262.675354	146.540000
262.768280	146.620000
262.861237	146.840000
262.954163	146.500000
263.047119	146.480000
263.140045	146.420000
263.233002	146.300000
263.325958	146.160000
263.418884	145.700000
263.511841	145.520000
263.604797	145.800000
263.697723	145.940000
263.790680	145.680000
263.883636	146.300000
263.976593	146.080000
264.069550	146.340000
264.162476	146.140000
264.255463	146.320000
264.348419	145.900000
264.441376	146.580000
264.534332	146.020000
264.627289	146.260000
264.720245	146.560000
264.813202	146.740000
264.906158	146.660000
264.999115	147.440000
265.092072	147.180000
265.185028	147.660000
265.277985	147.560000
265.370941	147.160000
265.463898	146.840000
265.556854	146.620000
265.649811	145.220000
265.742798	145.480000
265.835754	145.680000
265.928711	146.020000
266.021667	146.620000
266.114655	146.980000
266.207611	147.160000
266.300568	146.600000
266.393585	146.120000
266.486511	146.300000
266.579498	145.940000
266.672485	145.600000
266.765442	145.940000
266.858429	146.460000
266.951385	145.960000
267.044342	146.420000
267.137329	146.400000
267.230316	146.420000
267.323273	145.640000
267.416260	146.400000
267.509216	146.340000
267.602203	146.120000
267.695160	146.740000
267.788147	147.040000
267.881134	146.280000
267.974091	146.680000
268.067078	146.700000
268.160065	145.860000
268.253052	145.800000
268.346008	145.980000
268.438995	145.440000
268.531982	145.800000
268.624969	145.780000
268.717987	146.140000
268.810944	145.980000
268.903961	146.080000
268.996948	145.700000
269.089905	146.480000
269.182892	146.320000
269.275879	146.700000
269.368866	146.560000
269.461853	147.180000
269.554871	146.700000
269.647858	146.780000
269.740845	146.900000
269.833832	147.200000
269.926819	146.560000
270.019806	146.600000
270.112793	145.940000
270.205811	146.040000
270.298798	145.680000
270.391785	146.280000
270.484772	146.160000
270.577789	146.500000
270.670776	146.000000
270.763763	146.040000
270.856750	145.880000
270.949768	145.840000
271.042786	146.220000
271.135773	146.260000
271.228790	146.720000
271.321808	146.180000
271.414795	145.760000
271.507782	145.100000
271.600800	144.960000
271.693817	145.060000
271.786804	145.540000
271.879822	146.200000
271.972809	146.600000
272.065826	146.980000
272.158844	146.360000
272.251831	146.620000
272.344849	146.420000
272.437866	146.260000
272.530853	146.240000
272.623871	146.860000
272.716888	145.820000
272.809906	146.100000
272.902893	146.080000
272.995911	145.460000
273.088928	145.140000
273.181946	145.700000
273.274963	145.320000
273.367981	145.340000
273.460999	145.700000
273.554047	145.760000
273.647003	146.560000
273.740051	146.620000
273.833069	147.020000
273.926086	147.220000
274.019135	147.060000
274.112152	146.240000
274.205170	146.360000
274.298187	146.540000
274.391205	146.160000
274.484222	146.400000
274.577240	146.580000
274.670258	146.640000
274.763306	146.020000
274.856323	146.360000
274.949341	146.300000
275.042358	146.580000
275.135406	146.300000
275.228424	146.440000
275.321442	146.300000
275.414490	145.940000
275.507507	146.200000
275.600525	146.680000
275.693573	146.520000
275.786591	146.440000
275.879669	146.840000
275.972656	146.400000
276.065735	146.260000
276.158752	146.760000
276.251801	147.360000
276.344818	147.180000
276.437866	147.000000
276.530884	146.640000
276.623932	145.940000
276.716980	146.040000
276.809998	146.340000
276.903046	146.700000
276.996094	147.580000
277.089111	148.260000
277.182159	148.460000
277.275208	148.140000
277.368256	147.820000
277.461304	147.520000
277.554321	146.700000
277.647369	146.020000
277.740417	145.980000
277.833466	146.020000
277.926514	145.660000
278.019562	146.500000
278.112610	145.980000
278.205688	146.180000
278.298706	146.180000
278.391785	146.140000
278.484833	145.440000
278.577881	145.580000
278.670929	145.680000
278.763977	146.020000
278.857025	146.120000
278.950073	146.360000
279.043121	146.280000
279.136169	146.140000
279.229248	145.920000
279.322296	145.980000
279.415344	145.660000
279.508392	145.940000
279.601440	145.820000
279.694519	145.500000
279.787567	145.280000
279.880615	145.520000
279.973694	145.480000
280.066742	145.760000
280.159790	146.060000
280.252869	146.060000
280.345917	146.180000
280.438995	146.200000
280.532074	146.380000
280.625122	146.620000
280.718201	147.340000
280.811279	147.500000
280.904327	147.580000
280.997406	147.400000
281.090454	147.220000
281.183533	146.460000
281.276581	146.100000
281.369659	145.940000
281.462738	146.080000
281.555786	145.920000
281.648865	146.000000
281.741943	146.060000
281.835022	146.680000
281.928070	146.080000
282.021149	146.080000
282.114227	145.880000
282.207306	145.960000
282.300385	145.920000
282.393433	146.460000
282.486511	146.460000
282.579590	147.020000
282.672668	147.240000
282.765747	146.660000
282.858856	146.360000
282.951904	146.560000
283.045013	146.420000
283.138062	146.480000
283.231171	146.500000
283.324249	146.740000
283.417328	146.600000
283.510406	146.240000
283.603485	146.200000
283.696564	146.260000
283.789642	146.600000
283.882751	146.080000
283.975830	146.860000
284.068909	146.300000
284.161987	146.960000
284.255066	146.040000
284.348175	146.440000
284.441254	146.300000
284.534332	146.860000
284.627441	146.240000
284.720520	146.260000
284.813599	146.460000
284.906708	146.300000
284.999786	145.640000
285.092896	145.420000
285.185974	146.480000
285.279053	146.060000
285.372192	146.180000
285.465240	147.180000
285.558380	147.220000
285.651459	146.600000
285.744568	147.700000
285.837677	147.380000
285.930756	147.020000
286.023865	147.160000
286.116943	146.720000
286.210052	146.100000
286.303162	145.980000
286.396240	146.100000
286.489349	146.000000
286.582458	146.660000
286.675568	146.260000
286.768646	145.920000
286.861755	145.960000
286.954865	146.580000
287.047974	145.920000
287.141083	145.980000
287.234161	146.400000
287.327271	146.040000
287.420380	146.200000
287.513519	146.320000
287.606598	146.560000
287.699738	146.540000
287.792816	146.680000
287.885956	146.000000
287.979034	146.280000
288.072174	146.220000
288.165283	146.420000
288.258392	146.620000
288.351501	146.380000
288.444611	146.460000
288.537720	146.800000
288.630859	146.540000
288.723969	146.560000
288.817078	147.180000
288.910187	146.800000
289.003296	146.160000
289.096436	145.720000
289.189545	145.540000
289.282654	145.120000
289.375763	145.720000
289.468903	146.220000
289.562012	147.040000
289.655121	146.980000
289.748260	147.020000
289.841400	147.040000
289.934509	146.960000
290.027649	146.880000
290.120728	146.580000
290.213898	146.480000
290.306976	146.240000
290.400146	146.340000
290.493256	145.940000
290.586395	146.500000
290.679535	146.820000
290.772644	146.460000
290.865784	145.760000
290.958893	145.620000
291.052032	145.320000
291.145172	145.020000
291.238281	144.780000
291.331421	144.960000
291.424561	145.620000
291.517670	145.420000
291.610809	145.760000
291.703949	145.840000
291.797089	146.180000
291.890228	145.840000
291.983337	146.180000
292.076477	146.040000
292.169617	146.660000
292.262756	146.780000
292.355927	146.440000
292.449036	145.940000
292.542206	146.220000
292.635315	146.220000
292.728485	146.360000
292.821625	146.620000
292.914764	147.960000
293.007904	147.800000
293.101044	147.560000
293.194183	147.280000
293.287323	147.500000
293.380463	146.480000
293.473602	146.460000
293.566742	146.620000
293.659882	147.180000
293.753021	147.260000
293.846191	147.240000
293.939331	146.880000
294.032471	146.620000
294.125610	146.000000
294.218781	146.220000
294.311920	146.780000
294.405060	147.020000
294.498230	147.320000
294.591370	147.480000
294.684540	146.560000
294.777679	146.100000
294.870850	146.140000
294.963959	145.820000
295.057159	145.500000
295.150299	145.960000
295.243469	145.720000
295.336609	145.340000
295.429779	145.400000
295.522919	145.760000
295.616089	146.000000
295.709229	146.860000
295.802399	147.040000
295.895569	147.040000
295.988708	147.040000
296.081879	146.660000
296.175018	145.940000
296.268188	146.120000
296.361359	146.360000
296.454529	146.640000
296.547668	146.820000
296.640839	147.080000
296.734009	146.900000
296.827179	146.920000
296.920319	146.780000
297.013519	146.420000
297.106659	146.500000
297.199860	146.640000
297.292999	146.640000
297.386200	146.440000
297.479309	146.800000
297.572510	146.700000
297.665680	146.420000
297.758850	146.260000
297.852020	146.100000
297.945190	145.680000
298.038361	145.400000
298.131531	146.240000
298.224701	146.300000
298.317871	146.260000
298.411072	146.180000
298.504242	145.960000
298.597412	145.160000
298.690582	145.440000
298.783752	145.360000
298.876923	145.780000
298.970093	146.180000
299.063293	146.820000
299.156464	147.080000
299.249634	147.540000
299.342834	147.540000
299.436005	147.820000
299.529205	147.600000
299.622345	147.300000
299.715576	146.580000
299.808716	146.320000
299.901917	146.320000
299.995117	146.160000
300.088287	145.980000
300.181488	145.720000
300.274658	145.660000
300.367828	145.360000
300.461029	145.380000
300.554199	145.520000
300.647400	146.220000
300.740601	147.140000
300.833771	147.060000
300.926971	147.420000
301.020142	146.800000
301.113342	146.520000
301.206512	145.860000
301.299713	145.880000
301.392914	145.640000
301.486084	146.340000
301.579285	146.460000
301.672516	146.880000
301.765686	146.980000
301.858887	146.800000
301.952057	146.640000
302.045288	146.680000
302.138458	146.440000
302.231659	146.260000
302.324860	146.420000
302.418060	146.220000
302.511261	146.180000
302.604462	146.540000
302.697662	146.260000
302.790863	145.980000
302.884064	145.660000
302.977264	145.660000
303.070465	145.560000
303.163666	146.680000
303.256866	146.920000
303.350067	147.080000
303.443268	147.060000
303.536469	147.220000
303.629669	146.520000
303.722870	146.720000
303.816071	146.760000
303.909271	146.800000
304.002472	146.100000
304.095673	145.720000
304.188934	145.080000
304.282104	146.140000
304.375336	146.140000
304.468506	146.380000
304.561768	146.600000
304.654968	147.200000
304.748169	146.160000
304.841370	146.140000
304.934601	146.260000
305.027802	146.200000
305.121002	145.780000
305.214233	146.120000
305.307434	146.080000
305.400665	146.640000
305.493866	146.460000
