Model Number: SPM-002-B   
Serial Number: 70087108
Firmware Version: 004.15.4
Exposure Time: 100000.000000us
Data Taken on: 11-12-2020 19:30:40.089
Wavelength	Amplitude
221.570786	0.000000
221.663406	0.000000
221.756027	0.000000
221.848648	0.000000
221.941269	0.000000
222.033905	0.000000
222.126526	0.000000
222.219162	0.000000
222.311798	0.000000
222.404419	0.000000
222.497055	0.000000
222.589676	0.000000
222.682312	0.000000
222.774933	0.000000
222.867569	0.000000
222.960205	0.000000
223.052841	0.000000
223.145462	0.000000
223.238098	0.000000
223.330734	0.000000
223.423386	0.000000
223.516022	0.000000
223.608658	0.000000
223.701309	0.000000
223.793945	0.000000
223.886581	0.000000
223.979218	0.000000
224.071869	0.000000
224.164505	0.000000
224.257156	0.000000
224.349792	0.000000
224.442444	0.000000
224.535095	0.000000
224.627747	0.000000
224.720398	0.000000
224.813034	0.000000
224.905685	0.000000
224.998337	145.020000
225.090988	144.900000
225.183640	144.980000
225.276291	144.740000
225.368942	145.280000
225.461594	145.720000
225.554245	145.820000
225.646912	145.920000
225.739578	146.620000
225.832230	146.960000
225.924896	145.860000
226.017548	146.140000
226.110199	146.460000
226.202866	145.780000
226.295532	145.640000
226.388184	146.060000
226.480850	145.580000
226.573517	145.040000
226.666168	145.340000
226.758835	145.580000
226.851501	146.120000
226.944183	146.380000
227.036850	146.160000
227.129517	146.160000
227.222183	146.360000
227.314850	146.100000
227.407516	146.360000
227.500198	147.420000
227.592865	147.120000
227.685532	146.400000
227.778214	146.280000
227.870880	146.820000
227.963562	146.880000
228.056229	147.160000
228.148926	147.300000
228.241592	148.020000
228.334274	147.160000
228.426956	146.520000
228.519638	146.380000
228.612305	145.980000
228.704987	145.880000
228.797668	146.060000
228.890350	146.060000
228.983032	145.680000
229.075714	146.560000
229.168396	145.980000
229.261108	145.600000
229.353790	145.660000
229.446472	145.900000
229.539169	145.360000
229.631851	145.200000
229.724533	145.360000
229.817230	145.540000
229.909912	146.520000
230.002609	146.540000
230.095306	146.640000
230.187988	146.920000
230.280685	146.520000
230.373383	145.480000
230.466095	145.560000
230.558792	145.820000
230.651474	145.780000
230.744171	145.740000
230.836868	145.500000
230.929581	145.640000
231.022278	145.780000
231.114975	145.620000
231.207672	145.640000
231.300369	146.600000
231.393082	146.640000
231.485779	146.280000
231.578506	146.240000
231.671204	146.340000
231.763916	146.200000
231.856613	146.020000
231.949326	146.100000
232.042023	146.420000
232.134735	146.300000
232.227448	145.820000
232.320160	146.240000
232.412872	146.060000
232.505585	146.300000
232.598297	146.880000
232.691010	146.840000
232.783722	146.180000
232.876450	146.940000
232.969162	146.340000
233.061874	145.580000
233.154587	145.260000
233.247314	145.600000
233.340027	144.740000
233.432739	145.280000
233.525467	145.560000
233.618179	145.940000
233.710907	145.660000
233.803635	146.180000
233.896347	145.720000
233.989090	146.340000
234.081818	146.200000
234.174545	146.340000
234.267258	145.940000
234.359985	146.240000
234.452713	145.560000
234.545441	145.320000
234.638168	145.480000
234.730896	145.960000
234.823639	145.880000
234.916367	146.480000
235.009094	146.820000
235.101822	146.700000
235.194580	146.480000
235.287308	146.340000
235.380051	145.660000
235.472778	145.780000
235.565521	146.300000
235.658249	146.140000
235.750992	146.380000
235.843719	146.420000
235.936462	146.580000
236.029205	145.900000
236.121948	145.720000
236.214691	145.760000
236.307449	146.500000
236.400192	146.280000
236.492935	146.240000
236.585678	146.360000
236.678421	146.260000
236.771164	145.920000
236.863907	146.400000
236.956665	146.840000
237.049408	148.580000
237.142151	148.060000
237.234909	148.480000
237.327652	148.220000
237.420410	147.840000
237.513153	146.520000
237.605927	146.620000
237.698669	146.020000
237.791428	145.760000
237.884186	146.320000
237.976944	146.000000
238.069702	146.300000
238.162445	146.000000
238.255203	146.040000
238.347961	146.000000
238.440720	146.160000
238.533478	146.080000
238.626266	145.960000
238.719025	146.180000
238.811783	145.820000
238.904541	145.540000
238.997314	145.640000
239.090073	145.800000
239.182831	145.900000
239.275604	146.480000
239.368362	146.340000
239.461136	146.220000
239.553909	146.340000
239.646667	146.180000
239.739441	145.880000
239.832214	146.200000
239.925003	146.320000
240.017761	146.700000
240.110535	147.280000
240.203308	146.740000
240.296082	146.680000
240.388855	146.620000
240.481628	146.720000
240.574417	146.360000
240.667191	146.540000
240.759964	146.220000
240.852737	146.440000
240.945526	145.640000
241.038315	145.600000
241.131088	146.000000
241.223877	146.580000
241.316650	146.260000
241.409439	146.860000
241.502228	146.380000
241.595001	146.520000
241.687790	145.980000
241.780579	145.880000
241.873367	145.840000
241.966141	146.180000
242.058929	145.560000
242.151718	145.900000
242.244507	146.380000
242.337311	145.620000
242.430099	145.920000
242.522903	146.220000
242.615692	145.980000
242.708481	145.980000
242.801270	146.600000
242.894073	146.120000
242.986862	146.280000
243.079651	147.040000
243.172455	146.660000
243.265244	146.780000
243.358063	146.380000
243.450867	146.540000
243.543655	146.100000
243.636459	146.260000
243.729263	146.720000
243.822067	147.260000
243.914856	147.420000
244.007660	147.520000
244.100464	147.600000
244.193268	146.500000
244.286072	146.340000
244.378876	145.520000
244.471680	144.840000
244.564499	145.100000
244.657318	146.100000
244.750122	146.240000
244.842926	146.000000
244.935745	146.840000
245.028549	146.060000
245.121368	145.460000
245.214172	145.040000
245.306992	145.680000
245.399796	145.100000
245.492615	145.400000
245.585434	145.560000
245.678253	146.000000
245.771072	145.680000
245.863892	145.960000
245.956711	146.440000
246.049530	146.180000
246.142349	146.000000
246.235168	146.080000
246.327988	146.460000
246.420807	145.860000
246.513626	146.060000
246.606445	145.860000
246.699280	145.760000
246.792099	145.580000
246.884918	145.280000
246.977753	144.780000
247.070587	145.040000
247.163422	145.340000
247.256241	145.360000
247.349075	146.000000
247.441895	146.260000
247.534729	146.260000
247.627563	146.140000
247.720383	146.280000
247.813217	146.200000
247.906052	146.320000
247.998886	146.540000
248.091736	146.460000
248.184570	146.140000
248.277405	145.900000
248.370239	146.460000
248.463074	147.120000
248.555908	147.580000
248.648743	147.520000
248.741592	147.800000
248.834427	147.340000
248.927261	146.020000
249.020111	146.200000
249.112946	147.100000
249.205795	146.740000
249.298630	146.780000
249.391495	147.000000
249.484344	146.220000
249.577179	145.600000
249.670029	145.720000
249.762878	146.520000
249.855728	146.860000
249.948563	146.980000
250.041412	146.540000
250.134262	146.840000
250.227112	146.200000
250.319962	146.020000
250.412827	146.220000
250.505692	145.880000
250.598541	145.940000
250.691391	145.760000
250.784241	145.940000
250.877106	146.020000
250.969955	145.940000
251.062805	146.320000
251.155670	146.800000
251.248520	146.240000
251.341385	146.520000
251.434235	146.840000
251.527100	146.320000
251.619965	146.000000
251.712814	147.120000
251.805695	146.740000
251.898560	146.880000
251.991425	147.340000
252.084290	147.440000
252.177155	146.660000
252.270020	146.580000
252.362885	146.600000
252.455750	146.360000
252.548615	146.040000
252.641479	145.980000
252.734360	145.880000
252.827240	145.640000
252.920105	145.660000
253.012970	145.420000
253.105850	145.700000
253.198715	145.360000
253.291595	145.760000
253.384460	145.160000
253.477341	145.280000
253.570221	145.500000
253.663086	145.600000
253.755966	145.940000
253.848846	146.080000
253.941727	146.320000
254.034592	146.060000
254.127472	145.720000
254.220367	145.660000
254.313248	146.060000
254.406128	145.700000
254.499008	145.840000
254.591904	146.880000
254.684784	147.240000
254.777664	147.020000
254.870544	146.920000
254.963440	146.880000
255.056335	146.620000
255.149216	145.860000
255.242111	146.200000
255.334991	146.580000
255.427887	146.700000
255.520767	146.920000
255.613663	147.280000
255.706558	146.680000
255.799438	146.380000
255.892334	145.800000
255.985229	145.440000
256.078125	145.360000
256.171021	145.720000
256.263916	146.240000
256.356812	147.000000
256.449707	147.140000
256.542603	147.020000
256.635498	147.560000
256.728394	147.100000
256.821289	146.500000
256.914215	146.800000
257.007080	146.840000
257.100006	146.640000
257.192932	147.500000
257.285828	147.800000
257.378723	147.400000
257.471619	147.180000
257.564545	146.580000
257.657440	146.240000
257.750336	146.540000
257.843262	146.200000
257.936157	147.320000
258.029053	147.520000
258.121979	147.420000
258.214874	146.940000
258.307800	147.060000
258.400696	145.940000
258.493622	145.920000
258.586517	145.160000
258.679443	145.620000
258.772339	145.300000
258.865265	145.220000
258.958160	144.880000
259.051086	146.200000
259.144012	145.820000
259.236938	146.800000
259.329834	146.960000
259.422791	147.060000
259.515717	145.940000
259.608612	145.780000
259.701538	145.720000
259.794464	145.660000
259.887390	145.660000
259.980316	145.780000
260.073212	145.620000
260.166138	144.640000
260.259064	145.080000
260.351990	145.680000
260.444916	145.920000
260.537842	146.380000
260.630768	147.200000
260.723694	147.060000
260.816620	146.840000
260.909546	146.800000
261.002472	146.420000
261.095398	145.860000
261.188354	145.500000
261.281281	145.000000
261.374207	145.320000
261.467133	146.160000
261.560089	146.380000
261.653015	146.600000
261.745972	147.460000
261.838867	147.580000
261.931824	147.520000
262.024780	147.160000
262.117706	147.180000
262.210663	147.100000
262.303589	146.840000
262.396515	146.700000
262.489471	147.660000
262.582397	147.560000
262.675354	147.140000
262.768280	147.180000
262.861237	147.260000
262.954163	147.080000
263.047119	147.120000
263.140045	147.000000
263.233002	147.060000
263.325958	146.800000
263.418884	146.160000
263.511841	146.100000
263.604797	146.000000
263.697723	146.040000
263.790680	145.960000
263.883636	146.280000
263.976593	145.940000
264.069550	146.120000
264.162476	145.660000
264.255463	145.740000
264.348419	145.620000
264.441376	146.260000
264.534332	146.060000
264.627289	146.480000
264.720245	146.820000
264.813202	146.600000
264.906158	146.680000
264.999115	147.160000
265.092072	147.020000
265.185028	147.300000
265.277985	147.700000
265.370941	147.540000
265.463898	147.140000
265.556854	146.900000
265.649811	145.700000
265.742798	145.700000
265.835754	145.740000
265.928711	146.180000
266.021667	146.220000
266.114655	146.840000
266.207611	146.820000
266.300568	146.340000
266.393585	145.880000
266.486511	146.000000
266.579498	145.160000
266.672485	145.120000
266.765442	145.060000
266.858429	145.840000
266.951385	145.520000
267.044342	145.820000
267.137329	146.080000
267.230316	146.420000
267.323273	145.680000
267.416260	146.500000
267.509216	146.640000
267.602203	146.280000
267.695160	146.840000
267.788147	147.040000
267.881134	146.300000
267.974091	146.560000
268.067078	146.660000
268.160065	146.120000
268.253052	145.920000
268.346008	146.320000
268.438995	146.140000
268.531982	146.180000
268.624969	146.080000
268.717987	146.380000
268.810944	146.240000
268.903961	146.180000
268.996948	146.020000
269.089905	146.480000
269.182892	146.620000
269.275879	146.960000
269.368866	146.900000
269.461853	147.040000
269.554871	146.740000
269.647858	146.420000
269.740845	146.440000
269.833832	146.720000
269.926819	146.460000
270.019806	146.540000
270.112793	146.240000
270.205811	146.080000
270.298798	145.940000
270.391785	146.600000
270.484772	146.320000
270.577789	146.660000
270.670776	146.320000
270.763763	146.220000
270.856750	145.940000
270.949768	145.560000
271.042786	145.620000
271.135773	145.840000
271.228790	146.200000
271.321808	145.840000
271.414795	145.940000
271.507782	145.620000
271.600800	145.020000
271.693817	144.980000
271.786804	145.400000
271.879822	145.800000
271.972809	146.140000
272.065826	147.000000
272.158844	146.520000
272.251831	146.920000
272.344849	147.060000
272.437866	146.620000
272.530853	146.400000
272.623871	146.840000
272.716888	145.940000
272.809906	145.920000
272.902893	145.860000
272.995911	145.320000
273.088928	145.280000
273.181946	145.380000
273.274963	145.080000
273.367981	145.340000
273.460999	146.120000
273.554047	146.320000
273.647003	146.980000
273.740051	147.100000
273.833069	147.440000
273.926086	147.020000
274.019135	146.660000
274.112152	146.140000
274.205170	146.160000
274.298187	145.960000
274.391205	145.760000
274.484222	145.880000
274.577240	146.080000
274.670258	146.080000
274.763306	145.900000
274.856323	146.660000
274.949341	146.640000
275.042358	147.180000
275.135406	147.100000
275.228424	147.360000
275.321442	146.980000
275.414490	146.600000
275.507507	146.500000
275.600525	146.820000
275.693573	146.320000
275.786591	145.900000
275.879669	146.220000
275.972656	145.660000
276.065735	145.540000
276.158752	146.340000
276.251801	147.240000
276.344818	147.540000
276.437866	147.720000
276.530884	147.500000
276.623932	146.840000
276.716980	146.660000
276.809998	146.560000
276.903046	146.500000
276.996094	147.300000
277.089111	147.980000
277.182159	148.320000
277.275208	147.860000
277.368256	147.840000
277.461304	147.480000
277.554321	146.520000
277.647369	146.160000
277.740417	146.260000
277.833466	146.220000
277.926514	145.680000
278.019562	146.600000
278.112610	145.920000
278.205688	146.160000
278.298706	146.320000
278.391785	146.360000
278.484833	145.840000
278.577881	145.940000
278.670929	146.280000
278.763977	146.100000
278.857025	146.360000
278.950073	146.380000
279.043121	146.500000
279.136169	146.200000
279.229248	146.080000
279.322296	146.340000
279.415344	146.080000
279.508392	145.980000
279.601440	145.800000
279.694519	145.760000
279.787567	145.420000
279.880615	145.280000
279.973694	145.260000
280.066742	145.040000
280.159790	145.440000
280.252869	145.120000
280.345917	145.540000
280.438995	145.580000
280.532074	145.940000
280.625122	145.880000
280.718201	146.840000
280.811279	147.180000
280.904327	147.360000
280.997406	147.300000
281.090454	147.240000
281.183533	146.700000
281.276581	146.300000
281.369659	145.800000
281.462738	146.000000
281.555786	146.000000
281.648865	146.120000
281.741943	145.940000
281.835022	146.840000
281.928070	146.460000
282.021149	146.080000
282.114227	145.860000
282.207306	145.900000
282.300385	146.000000
282.393433	146.240000
282.486511	146.900000
282.579590	147.460000
282.672668	147.940000
282.765747	147.500000
282.858856	147.460000
282.951904	147.200000
283.045013	147.160000
283.138062	147.240000
283.231171	147.440000
283.324249	147.660000
283.417328	147.680000
283.510406	147.260000
283.603485	146.840000
283.696564	146.580000
283.789642	146.640000
283.882751	146.400000
283.975830	146.880000
284.068909	146.320000
284.161987	146.960000
284.255066	146.260000
284.348175	146.520000
284.441254	146.320000
284.534332	147.400000
284.627441	146.680000
284.720520	146.740000
284.813599	146.700000
284.906708	146.180000
284.999786	145.160000
285.092896	145.100000
285.185974	146.060000
285.279053	145.480000
285.372192	145.640000
285.465240	146.800000
285.558380	146.820000
285.651459	146.400000
285.744568	147.540000
285.837677	147.400000
285.930756	147.040000
286.023865	147.000000
286.116943	146.620000
286.210052	146.220000
286.303162	146.100000
286.396240	145.880000
286.489349	145.840000
286.582458	146.140000
286.675568	146.040000
286.768646	146.180000
286.861755	146.520000
286.954865	147.380000
287.047974	146.940000
287.141083	146.640000
287.234161	146.580000
287.327271	146.380000
287.420380	146.160000
287.513519	146.160000
287.606598	146.320000
287.699738	146.660000
287.792816	146.560000
287.885956	146.240000
287.979034	146.480000
288.072174	146.440000
288.165283	146.260000
288.258392	146.160000
288.351501	145.720000
288.444611	145.960000
288.537720	146.100000
288.630859	145.940000
288.723969	146.300000
288.817078	146.880000
288.910187	146.540000
289.003296	146.040000
289.096436	145.880000
289.189545	145.580000
289.282654	144.960000
289.375763	145.620000
289.468903	146.220000
289.562012	146.620000
289.655121	146.580000
289.748260	147.080000
289.841400	146.940000
289.934509	146.840000
290.027649	146.900000
290.120728	146.680000
290.213898	146.360000
290.306976	146.160000
290.400146	145.920000
290.493256	145.680000
290.586395	145.980000
290.679535	146.460000
290.772644	146.260000
290.865784	145.700000
290.958893	145.780000
291.052032	145.840000
291.145172	145.560000
291.238281	145.500000
291.331421	145.920000
291.424561	146.220000
291.517670	145.840000
291.610809	145.920000
291.703949	145.800000
291.797089	146.020000
291.890228	145.380000
291.983337	145.440000
292.076477	145.500000
292.169617	145.680000
292.262756	145.900000
292.355927	146.080000
292.449036	146.040000
292.542206	146.120000
292.635315	146.060000
292.728485	145.780000
292.821625	145.560000
292.914764	146.780000
293.007904	146.540000
293.101044	146.540000
293.194183	146.580000
293.287323	146.700000
293.380463	145.880000
293.473602	145.960000
293.566742	146.280000
293.659882	146.720000
293.753021	147.000000
293.846191	146.840000
293.939331	146.520000
294.032471	146.240000
294.125610	145.740000
294.218781	146.240000
294.311920	146.800000
294.405060	147.040000
294.498230	147.300000
294.591370	147.600000
294.684540	146.620000
294.777679	146.160000
294.870850	146.360000
294.963959	146.200000
295.057159	146.080000
295.150299	146.800000
295.243469	146.660000
295.336609	146.000000
295.429779	145.780000
295.522919	145.980000
295.616089	145.840000
295.709229	146.520000
295.802399	146.680000
295.895569	146.780000
295.988708	146.620000
296.081879	146.740000
296.175018	146.080000
296.268188	146.540000
296.361359	146.800000
296.454529	146.900000
296.547668	146.760000
296.640839	146.880000
296.734009	146.660000
296.827179	146.820000
296.920319	146.860000
297.013519	146.540000
297.106659	146.640000
297.199860	146.520000
297.292999	146.540000
297.386200	146.220000
297.479309	146.140000
297.572510	146.300000
297.665680	146.000000
297.758850	145.560000
297.852020	145.740000
297.945190	145.820000
298.038361	145.080000
298.131531	146.180000
298.224701	146.060000
298.317871	145.540000
298.411072	145.180000
298.504242	145.340000
298.597412	144.480000
298.690582	144.960000
298.783752	145.240000
298.876923	145.980000
298.970093	146.260000
299.063293	147.040000
299.156464	147.220000
299.249634	147.540000
299.342834	147.420000
299.436005	147.560000
299.529205	146.800000
299.622345	146.960000
299.715576	146.140000
299.808716	146.000000
299.901917	146.000000
299.995117	146.420000
300.088287	146.060000
300.181488	146.140000
300.274658	146.040000
300.367828	146.040000
300.461029	145.880000
300.554199	145.680000
300.647400	146.260000
300.740601	147.040000
300.833771	146.700000
300.926971	146.700000
301.020142	146.520000
301.113342	146.320000
301.206512	145.840000
301.299713	146.260000
301.392914	146.360000
301.486084	146.880000
301.579285	146.880000
301.672516	146.940000
301.765686	146.540000
301.858887	146.260000
301.952057	145.860000
302.045288	145.800000
302.138458	145.680000
302.231659	145.700000
302.324860	145.560000
302.418060	145.500000
302.511261	145.300000
302.604462	145.760000
302.697662	145.880000
302.790863	145.900000
302.884064	145.600000
302.977264	145.900000
303.070465	145.660000
303.163666	145.960000
303.256866	146.680000
303.350067	147.140000
303.443268	147.140000
303.536469	147.180000
303.629669	146.660000
303.722870	146.460000
303.816071	146.480000
303.909271	146.220000
304.002472	145.700000
304.095673	145.780000
304.188934	144.880000
304.282104	145.540000
304.375336	145.640000
304.468506	145.620000
304.561768	145.380000
304.654968	146.380000
304.748169	145.220000
304.841370	145.280000
304.934601	145.640000
305.027802	145.480000
305.121002	144.860000
305.214233	145.300000
305.307434	145.360000
305.400665	146.020000
305.493866	146.100000
