Model Number: SPM-002-B   
Serial Number: 70087108
Firmware Version: 004.15.4
Exposure Time: 100000.000000us
Data Taken on: 11-12-2020 19:30:45.817
Wavelength	Amplitude
221.570786	0.000000
221.663406	0.000000
221.756027	0.000000
221.848648	0.000000
221.941269	0.000000
222.033905	0.000000
222.126526	0.000000
222.219162	0.000000
222.311798	0.000000
222.404419	0.000000
222.497055	0.000000
222.589676	0.000000
222.682312	0.000000
222.774933	0.000000
222.867569	0.000000
222.960205	0.000000
223.052841	0.000000
223.145462	0.000000
223.238098	0.000000
223.330734	0.000000
223.423386	0.000000
223.516022	0.000000
223.608658	0.000000
223.701309	0.000000
223.793945	0.000000
223.886581	0.000000
223.979218	0.000000
224.071869	0.000000
224.164505	0.000000
224.257156	0.000000
224.349792	0.000000
224.442444	0.000000
224.535095	0.000000
224.627747	0.000000
224.720398	0.000000
224.813034	0.000000
224.905685	0.000000
224.998337	145.540000
225.090988	145.420000
225.183640	145.120000
225.276291	144.720000
225.368942	145.020000
225.461594	145.500000
225.554245	145.660000
225.646912	145.880000
225.739578	146.640000
225.832230	146.940000
225.924896	146.340000
226.017548	146.800000
226.110199	147.220000
226.202866	146.440000
226.295532	146.100000
226.388184	146.020000
226.480850	145.460000
226.573517	145.000000
226.666168	145.280000
226.758835	145.420000
226.851501	146.060000
226.944183	146.080000
227.036850	145.880000
227.129517	145.640000
227.222183	145.820000
227.314850	145.560000
227.407516	145.820000
227.500198	146.600000
227.592865	146.500000
227.685532	146.260000
227.778214	146.040000
227.870880	146.160000
227.963562	146.300000
228.056229	146.660000
228.148926	146.760000
228.241592	147.560000
228.334274	147.020000
228.426956	146.520000
228.519638	146.340000
228.612305	145.820000
228.704987	145.540000
228.797668	145.680000
228.890350	145.660000
228.983032	145.380000
229.075714	146.440000
229.168396	146.200000
229.261108	145.980000
229.353790	146.140000
229.446472	146.660000
229.539169	146.360000
229.631851	146.180000
229.724533	146.400000
229.817230	146.220000
229.909912	147.000000
230.002609	146.760000
230.095306	146.680000
230.187988	146.900000
230.280685	146.880000
230.373383	145.580000
230.466095	145.460000
230.558792	146.000000
230.651474	145.840000
230.744171	145.680000
230.836868	145.980000
230.929581	146.060000
231.022278	145.760000
231.114975	145.960000
231.207672	145.840000
231.300369	146.020000
231.393082	146.080000
231.485779	145.800000
231.578506	145.340000
231.671204	145.480000
231.763916	145.460000
231.856613	145.680000
231.949326	146.000000
232.042023	146.160000
232.134735	146.300000
232.227448	145.940000
232.320160	145.940000
232.412872	145.800000
232.505585	146.720000
232.598297	146.980000
232.691010	146.860000
232.783722	146.400000
232.876450	146.860000
232.969162	145.960000
233.061874	145.460000
233.154587	145.560000
233.247314	145.860000
233.340027	145.180000
233.432739	145.420000
233.525467	145.440000
233.618179	145.680000
233.710907	145.360000
233.803635	145.780000
233.896347	145.480000
233.989090	146.020000
234.081818	146.060000
234.174545	146.060000
234.267258	145.720000
234.359985	146.040000
234.452713	145.760000
234.545441	145.560000
234.638168	145.500000
234.730896	146.060000
234.823639	146.020000
234.916367	146.400000
235.009094	146.640000
235.101822	147.060000
235.194580	146.700000
235.287308	146.700000
235.380051	146.080000
235.472778	146.260000
235.565521	146.440000
235.658249	146.300000
235.750992	146.220000
235.843719	146.340000
235.936462	146.380000
236.029205	145.620000
236.121948	145.520000
236.214691	145.860000
236.307449	146.420000
236.400192	146.060000
236.492935	146.280000
236.585678	146.440000
236.678421	146.300000
236.771164	145.900000
236.863907	146.080000
236.956665	146.480000
237.049408	148.160000
237.142151	147.580000
237.234909	148.100000
237.327652	148.100000
237.420410	148.020000
237.513153	146.780000
237.605927	146.900000
237.698669	146.340000
237.791428	145.860000
237.884186	146.080000
237.976944	145.620000
238.069702	146.080000
238.162445	145.700000
238.255203	145.800000
238.347961	145.860000
238.440720	145.940000
238.533478	145.680000
238.626266	145.780000
238.719025	146.340000
238.811783	145.860000
238.904541	146.000000
238.997314	145.920000
239.090073	145.560000
239.182831	145.480000
239.275604	146.240000
239.368362	146.080000
239.461136	146.480000
239.553909	146.880000
239.646667	146.660000
239.739441	146.380000
239.832214	146.440000
239.925003	146.260000
240.017761	147.160000
240.110535	147.920000
240.203308	147.280000
240.296082	147.440000
240.388855	147.520000
240.481628	146.980000
240.574417	146.540000
240.667191	146.880000
240.759964	146.180000
240.852737	146.040000
240.945526	145.780000
241.038315	145.620000
241.131088	145.620000
241.223877	146.160000
241.316650	145.900000
241.409439	145.920000
241.502228	145.500000
241.595001	145.920000
241.687790	146.140000
241.780579	146.060000
241.873367	146.340000
241.966141	146.740000
242.058929	146.100000
242.151718	146.140000
242.244507	146.800000
242.337311	146.460000
242.430099	146.700000
242.522903	147.120000
242.615692	146.520000
242.708481	146.200000
242.801270	146.680000
242.894073	146.620000
242.986862	146.280000
243.079651	147.020000
243.172455	147.020000
243.265244	146.980000
243.358063	146.380000
243.450867	146.840000
243.543655	146.580000
243.636459	146.620000
243.729263	146.440000
243.822067	146.900000
243.914856	147.140000
244.007660	147.220000
244.100464	147.420000
244.193268	147.080000
244.286072	146.940000
244.378876	146.180000
244.471680	145.820000
244.564499	145.860000
244.657318	146.720000
244.750122	147.280000
244.842926	146.880000
244.935745	147.260000
245.028549	146.740000
245.121368	146.180000
245.214172	145.880000
245.306992	146.740000
245.399796	146.160000
245.492615	146.200000
245.585434	146.100000
245.678253	145.720000
245.771072	145.220000
245.863892	145.920000
245.956711	146.400000
246.049530	146.220000
246.142349	146.220000
246.235168	146.400000
246.327988	146.840000
246.420807	146.620000
246.513626	146.940000
246.606445	146.680000
246.699280	146.680000
246.792099	145.840000
246.884918	145.160000
246.977753	144.900000
247.070587	145.100000
247.163422	145.020000
247.256241	145.200000
247.349075	146.140000
247.441895	146.160000
247.534729	146.420000
247.627563	146.120000
247.720383	146.720000
247.813217	146.420000
247.906052	146.400000
247.998886	146.120000
248.091736	146.440000
248.184570	145.820000
248.277405	145.800000
248.370239	146.660000
248.463074	147.700000
248.555908	148.160000
248.648743	148.000000
248.741592	148.260000
248.834427	147.480000
248.927261	146.280000
249.020111	146.300000
249.112946	146.860000
249.205795	146.440000
249.298630	146.520000
249.391495	146.880000
249.484344	146.440000
249.577179	146.220000
249.670029	146.400000
249.762878	146.880000
249.855728	146.900000
249.948563	147.000000
250.041412	146.500000
250.134262	146.540000
250.227112	146.460000
250.319962	146.580000
250.412827	146.520000
250.505692	146.320000
250.598541	146.100000
250.691391	145.620000
250.784241	145.400000
250.877106	145.460000
250.969955	145.600000
251.062805	145.840000
251.155670	146.500000
251.248520	146.160000
251.341385	146.540000
251.434235	146.600000
251.527100	146.500000
251.619965	145.720000
251.712814	146.700000
251.805695	146.160000
251.898560	146.560000
251.991425	146.780000
252.084290	147.180000
252.177155	146.360000
252.270020	146.540000
252.362885	146.120000
252.455750	146.020000
252.548615	145.840000
252.641479	145.920000
252.734360	145.820000
252.827240	145.900000
252.920105	146.080000
253.012970	146.120000
253.105850	146.160000
253.198715	146.000000
253.291595	145.980000
253.384460	145.620000
253.477341	145.400000
253.570221	145.680000
253.663086	145.440000
253.755966	146.120000
253.848846	146.100000
253.941727	146.460000
254.034592	146.420000
254.127472	146.400000
254.220367	145.940000
254.313248	146.160000
254.406128	146.100000
254.499008	146.420000
254.591904	147.200000
254.684784	147.680000
254.777664	147.600000
254.870544	147.280000
254.963440	146.780000
255.056335	146.900000
255.149216	146.280000
255.242111	146.580000
255.334991	147.080000
255.427887	147.440000
255.520767	147.100000
255.613663	147.300000
255.706558	146.680000
255.799438	146.300000
255.892334	146.000000
255.985229	145.840000
256.078125	145.880000
256.171021	146.020000
256.263916	146.300000
256.356812	146.480000
256.449707	146.840000
256.542603	146.660000
256.635498	147.420000
256.728394	147.180000
256.821289	146.900000
256.914215	146.900000
257.007080	147.200000
257.100006	147.080000
257.192932	147.820000
257.285828	148.200000
257.378723	147.940000
257.471619	147.800000
257.564545	147.200000
257.657440	146.820000
257.750336	147.180000
257.843262	147.200000
257.936157	148.220000
258.029053	148.760000
258.121979	148.920000
258.214874	148.300000
258.307800	148.080000
258.400696	146.760000
258.493622	146.460000
258.586517	145.680000
258.679443	146.160000
258.772339	145.660000
258.865265	145.660000
258.958160	144.960000
259.051086	145.660000
259.144012	145.120000
259.236938	146.040000
259.329834	146.040000
259.422791	146.340000
259.515717	145.960000
259.608612	145.900000
259.701538	146.060000
259.794464	146.440000
259.887390	146.580000
259.980316	146.360000
260.073212	146.140000
260.166138	145.140000
260.259064	145.340000
260.351990	145.880000
260.444916	145.960000
260.537842	146.680000
260.630768	147.720000
260.723694	147.480000
260.816620	147.340000
260.909546	147.300000
261.002472	146.580000
261.095398	145.800000
261.188354	145.860000
261.281281	145.220000
261.374207	145.300000
261.467133	146.200000
261.560089	146.340000
261.653015	145.940000
261.745972	146.860000
261.838867	147.060000
261.931824	146.840000
262.024780	146.380000
262.117706	146.680000
262.210663	146.400000
262.303589	146.400000
262.396515	146.300000
262.489471	147.420000
262.582397	147.220000
262.675354	146.860000
262.768280	146.620000
262.861237	146.580000
262.954163	146.180000
263.047119	146.460000
263.140045	146.480000
263.233002	146.600000
263.325958	146.400000
263.418884	146.060000
263.511841	146.140000
263.604797	146.200000
263.697723	146.020000
263.790680	145.980000
263.883636	146.420000
263.976593	146.260000
264.069550	146.140000
264.162476	146.020000
264.255463	146.180000
264.348419	145.820000
264.441376	146.000000
264.534332	145.620000
264.627289	145.980000
264.720245	146.120000
264.813202	145.900000
264.906158	145.880000
264.999115	146.620000
265.092072	146.580000
265.185028	147.160000
265.277985	147.540000
265.370941	147.300000
265.463898	146.640000
265.556854	146.340000
265.649811	145.300000
265.742798	145.120000
265.835754	145.380000
265.928711	146.160000
266.021667	146.440000
266.114655	146.600000
266.207611	146.880000
266.300568	145.900000
266.393585	145.060000
266.486511	145.160000
266.579498	144.760000
266.672485	144.780000
266.765442	145.360000
266.858429	146.360000
266.951385	146.040000
267.044342	146.260000
267.137329	145.880000
267.230316	145.800000
267.323273	145.140000
267.416260	145.860000
267.509216	145.940000
267.602203	146.140000
267.695160	146.660000
267.788147	146.720000
267.881134	145.740000
267.974091	145.900000
268.067078	145.700000
268.160065	145.320000
268.253052	145.140000
268.346008	145.520000
268.438995	145.460000
268.531982	145.640000
268.624969	145.380000
268.717987	145.900000
268.810944	145.800000
268.903961	145.960000
268.996948	145.660000
269.089905	146.220000
269.182892	146.060000
269.275879	146.160000
269.368866	145.680000
269.461853	145.780000
269.554871	145.580000
269.647858	145.300000
269.740845	145.720000
269.833832	146.080000
269.926819	146.280000
270.019806	146.520000
270.112793	146.220000
270.205811	146.140000
270.298798	146.060000
270.391785	146.500000
270.484772	146.020000
270.577789	146.140000
270.670776	145.660000
270.763763	145.620000
270.856750	145.460000
270.949768	145.640000
271.042786	146.220000
271.135773	146.320000
271.228790	146.700000
271.321808	146.440000
271.414795	145.760000
271.507782	145.260000
271.600800	145.380000
271.693817	145.360000
271.786804	145.600000
271.879822	146.460000
271.972809	146.840000
272.065826	147.020000
272.158844	146.460000
272.251831	146.800000
272.344849	146.560000
272.437866	146.000000
272.530853	146.020000
272.623871	146.300000
272.716888	145.200000
272.809906	145.280000
272.902893	145.480000
272.995911	144.900000
273.088928	145.020000
273.181946	145.400000
273.274963	145.240000
273.367981	145.200000
273.460999	145.600000
273.554047	145.900000
273.647003	146.500000
273.740051	146.400000
273.833069	146.880000
273.926086	146.840000
274.019135	146.300000
274.112152	145.640000
274.205170	145.920000
274.298187	145.700000
274.391205	145.080000
274.484222	145.120000
274.577240	145.340000
274.670258	145.480000
274.763306	145.640000
274.856323	146.340000
274.949341	146.420000
275.042358	146.880000
275.135406	146.220000
275.228424	145.880000
275.321442	145.840000
275.414490	145.580000
275.507507	145.700000
275.600525	146.420000
275.693573	146.440000
275.786591	146.240000
275.879669	146.560000
275.972656	146.000000
276.065735	145.840000
276.158752	146.500000
276.251801	146.920000
276.344818	146.840000
276.437866	146.720000
276.530884	146.420000
276.623932	145.560000
276.716980	145.520000
276.809998	145.700000
276.903046	146.240000
276.996094	147.080000
277.089111	147.520000
277.182159	147.880000
277.275208	147.440000
277.368256	146.960000
277.461304	146.540000
277.554321	145.960000
277.647369	145.620000
277.740417	145.880000
277.833466	145.920000
277.926514	145.460000
278.019562	146.320000
278.112610	145.800000
278.205688	145.980000
278.298706	146.100000
278.391785	146.040000
278.484833	145.200000
278.577881	145.160000
278.670929	145.000000
278.763977	145.040000
278.857025	145.440000
278.950073	145.800000
279.043121	145.860000
279.136169	145.920000
279.229248	145.560000
279.322296	145.640000
279.415344	145.580000
279.508392	145.540000
279.601440	145.380000
279.694519	145.420000
279.787567	145.080000
279.880615	145.020000
279.973694	145.080000
280.066742	145.220000
280.159790	145.380000
280.252869	145.140000
280.345917	145.460000
280.438995	145.560000
280.532074	145.420000
280.625122	145.760000
280.718201	147.040000
280.811279	146.900000
280.904327	146.860000
280.997406	147.340000
281.090454	146.860000
281.183533	145.780000
281.276581	145.760000
281.369659	145.680000
281.462738	145.840000
281.555786	146.340000
281.648865	146.460000
281.741943	146.280000
281.835022	146.840000
281.928070	146.220000
282.021149	145.620000
282.114227	145.620000
282.207306	145.880000
282.300385	145.780000
282.393433	145.920000
282.486511	146.220000
282.579590	146.800000
282.672668	146.840000
282.765747	146.280000
282.858856	146.260000
282.951904	146.540000
283.045013	146.240000
283.138062	146.460000
283.231171	146.740000
283.324249	146.860000
283.417328	146.800000
283.510406	146.540000
283.603485	146.100000
283.696564	146.240000
283.789642	146.280000
283.882751	145.900000
283.975830	146.400000
284.068909	146.300000
284.161987	146.760000
284.255066	146.480000
284.348175	146.540000
284.441254	146.240000
284.534332	146.780000
284.627441	146.320000
284.720520	145.960000
284.813599	146.260000
284.906708	146.300000
284.999786	145.620000
285.092896	145.600000
285.185974	146.960000
285.279053	146.140000
285.372192	146.500000
285.465240	147.260000
285.558380	146.900000
285.651459	146.100000
285.744568	147.060000
285.837677	146.420000
285.930756	146.220000
286.023865	146.680000
286.116943	146.300000
286.210052	146.360000
286.303162	146.480000
286.396240	146.240000
286.489349	146.000000
286.582458	146.520000
286.675568	146.040000
286.768646	145.860000
286.861755	146.380000
286.954865	147.040000
287.047974	146.360000
287.141083	146.240000
287.234161	146.500000
287.327271	146.160000
287.420380	146.300000
287.513519	146.400000
287.606598	146.460000
287.699738	146.600000
287.792816	146.200000
287.885956	145.680000
287.979034	145.800000
288.072174	146.000000
288.165283	145.740000
288.258392	146.320000
288.351501	146.040000
288.444611	146.320000
288.537720	146.560000
288.630859	146.380000
288.723969	146.320000
288.817078	146.580000
288.910187	146.640000
289.003296	146.160000
289.096436	146.060000
289.189545	145.720000
289.282654	145.280000
289.375763	145.580000
289.468903	146.040000
289.562012	146.280000
289.655121	146.180000
289.748260	146.640000
289.841400	146.780000
289.934509	146.620000
290.027649	146.740000
290.120728	146.880000
290.213898	146.620000
290.306976	146.180000
290.400146	146.260000
290.493256	146.040000
290.586395	146.200000
290.679535	146.540000
290.772644	146.320000
290.865784	145.560000
290.958893	145.560000
291.052032	145.560000
291.145172	145.380000
291.238281	145.260000
291.331421	145.480000
291.424561	146.040000
291.517670	145.840000
291.610809	146.020000
291.703949	145.640000
291.797089	145.980000
291.890228	145.440000
291.983337	145.440000
292.076477	145.060000
292.169617	145.640000
292.262756	145.720000
292.355927	145.580000
292.449036	145.680000
292.542206	146.040000
292.635315	146.200000
292.728485	146.460000
292.821625	146.120000
292.914764	146.940000
293.007904	146.740000
293.101044	146.620000
293.194183	146.540000
293.287323	146.980000
293.380463	146.360000
293.473602	146.040000
293.566742	146.560000
293.659882	146.840000
293.753021	147.180000
293.846191	147.060000
293.939331	147.000000
294.032471	146.380000
294.125610	145.760000
294.218781	146.020000
294.311920	146.340000
294.405060	146.760000
294.498230	146.600000
294.591370	146.680000
294.684540	145.820000
294.777679	144.980000
294.870850	144.960000
294.963959	145.360000
295.057159	145.300000
295.150299	145.780000
295.243469	146.080000
295.336609	145.840000
295.429779	145.820000
295.522919	146.120000
295.616089	146.080000
295.709229	146.420000
295.802399	146.380000
295.895569	145.820000
295.988708	145.800000
296.081879	146.020000
296.175018	145.680000
296.268188	145.840000
296.361359	146.840000
296.454529	146.720000
296.547668	146.560000
296.640839	146.820000
296.734009	146.560000
296.827179	146.300000
296.920319	146.240000
297.013519	145.980000
297.106659	146.060000
297.199860	146.180000
297.292999	146.200000
297.386200	146.100000
297.479309	145.960000
297.572510	145.600000
297.665680	145.560000
297.758850	145.280000
297.852020	145.440000
297.945190	145.460000
298.038361	145.300000
298.131531	146.120000
298.224701	145.860000
298.317871	145.460000
298.411072	145.040000
298.504242	145.080000
298.597412	144.380000
298.690582	144.820000
298.783752	145.100000
298.876923	145.720000
298.970093	145.900000
299.063293	146.300000
299.156464	146.540000
299.249634	146.480000
299.342834	146.720000
299.436005	147.040000
299.529205	146.680000
299.622345	146.400000
299.715576	145.900000
299.808716	145.480000
299.901917	145.060000
299.995117	144.960000
300.088287	144.980000
300.181488	145.100000
300.274658	145.100000
300.367828	145.220000
300.461029	145.440000
300.554199	145.700000
300.647400	145.700000
300.740601	146.340000
300.833771	146.340000
300.926971	146.540000
301.020142	145.900000
301.113342	146.180000
301.206512	145.820000
301.299713	146.080000
301.392914	145.860000
301.486084	146.160000
301.579285	145.860000
301.672516	145.860000
301.765686	145.620000
301.858887	145.740000
301.952057	145.500000
302.045288	145.680000
302.138458	145.580000
302.231659	145.320000
302.324860	145.080000
302.418060	144.940000
302.511261	144.840000
302.604462	145.040000
302.697662	145.080000
302.790863	145.060000
302.884064	145.080000
302.977264	145.260000
303.070465	145.560000
303.163666	146.180000
303.256866	146.540000
303.350067	146.840000
303.443268	146.680000
303.536469	146.680000
303.629669	146.180000
303.722870	145.940000
303.816071	145.520000
303.909271	145.700000
304.002472	144.920000
304.095673	144.640000
304.188934	144.160000
304.282104	145.120000
304.375336	145.440000
304.468506	145.340000
304.561768	145.340000
304.654968	145.820000
304.748169	145.180000
304.841370	144.720000
304.934601	145.220000
305.027802	145.260000
305.121002	144.820000
305.214233	144.800000
305.307434	144.800000
305.400665	145.340000
305.493866	145.280000
