Model Number: SPM-002-B   
Serial Number: 70087108
Firmware Version: 004.15.4
Exposure Time: 100000.000000us
Data Taken on: 11-12-2020 19:31:02.085
Wavelength	Amplitude
221.570786	0.000000
221.663406	0.000000
221.756027	0.000000
221.848648	0.000000
221.941269	0.000000
222.033905	0.000000
222.126526	0.000000
222.219162	0.000000
222.311798	0.000000
222.404419	0.000000
222.497055	0.000000
222.589676	0.000000
222.682312	0.000000
222.774933	0.000000
222.867569	0.000000
222.960205	0.000000
223.052841	0.000000
223.145462	0.000000
223.238098	0.000000
223.330734	0.000000
223.423386	0.000000
223.516022	0.000000
223.608658	0.000000
223.701309	0.000000
223.793945	0.000000
223.886581	0.000000
223.979218	0.000000
224.071869	0.000000
224.164505	0.000000
224.257156	0.000000
224.349792	0.000000
224.442444	0.000000
224.535095	0.000000
224.627747	0.000000
224.720398	0.000000
224.813034	0.000000
224.905685	0.000000
224.998337	145.440000
225.090988	144.660000
225.183640	144.780000
225.276291	144.440000
225.368942	144.980000
225.461594	145.520000
225.554245	146.240000
225.646912	146.100000
225.739578	146.840000
225.832230	147.100000
225.924896	146.120000
226.017548	146.420000
226.110199	146.780000
226.202866	146.200000
226.295532	145.940000
226.388184	146.220000
226.480850	145.120000
226.573517	144.920000
226.666168	145.300000
226.758835	145.380000
226.851501	146.160000
226.944183	146.480000
227.036850	146.180000
227.129517	146.160000
227.222183	146.260000
227.314850	145.820000
227.407516	146.180000
227.500198	146.600000
227.592865	146.060000
227.685532	145.840000
227.778214	145.580000
227.870880	146.000000
227.963562	146.440000
228.056229	147.160000
228.148926	146.980000
228.241592	147.920000
228.334274	147.400000
228.426956	147.140000
228.519638	147.200000
228.612305	147.220000
228.704987	146.980000
228.797668	146.880000
228.890350	146.240000
228.983032	145.240000
229.075714	145.640000
229.168396	145.100000
229.261108	144.840000
229.353790	145.020000
229.446472	145.680000
229.539169	145.360000
229.631851	145.140000
229.724533	145.280000
229.817230	145.520000
229.909912	146.220000
230.002609	146.320000
230.095306	146.320000
230.187988	146.600000
230.280685	146.080000
230.373383	145.100000
230.466095	144.940000
230.558792	145.340000
230.651474	145.260000
230.744171	145.540000
230.836868	145.720000
230.929581	145.920000
231.022278	146.160000
231.114975	146.180000
231.207672	146.080000
231.300369	146.480000
231.393082	146.400000
231.485779	145.840000
231.578506	145.840000
231.671204	145.820000
231.763916	145.580000
231.856613	145.780000
231.949326	146.100000
232.042023	145.680000
232.134735	145.620000
232.227448	145.420000
232.320160	145.260000
232.412872	145.360000
232.505585	146.200000
232.598297	146.800000
232.691010	146.920000
232.783722	146.740000
232.876450	146.940000
232.969162	146.420000
233.061874	145.800000
233.154587	145.480000
233.247314	145.900000
233.340027	145.320000
233.432739	145.520000
233.525467	145.520000
233.618179	145.880000
233.710907	145.180000
233.803635	145.840000
233.896347	145.760000
233.989090	146.340000
234.081818	146.320000
234.174545	146.860000
234.267258	146.100000
234.359985	146.260000
234.452713	145.860000
234.545441	145.920000
234.638168	145.640000
234.730896	146.420000
234.823639	146.200000
234.916367	146.840000
235.009094	146.800000
235.101822	147.000000
235.194580	146.720000
235.287308	146.660000
235.380051	145.820000
235.472778	145.960000
235.565521	146.300000
235.658249	145.760000
235.750992	145.940000
235.843719	146.180000
235.936462	146.180000
236.029205	145.680000
236.121948	145.480000
236.214691	145.600000
236.307449	146.180000
236.400192	145.460000
236.492935	145.100000
236.585678	145.580000
236.678421	145.400000
236.771164	145.060000
236.863907	146.120000
236.956665	146.540000
237.049408	148.140000
237.142151	148.140000
237.234909	148.840000
237.327652	148.400000
237.420410	148.160000
237.513153	146.880000
237.605927	146.660000
237.698669	146.120000
237.791428	145.480000
237.884186	145.820000
237.976944	145.420000
238.069702	145.760000
238.162445	145.120000
238.255203	145.420000
238.347961	145.720000
238.440720	145.760000
238.533478	145.760000
238.626266	145.740000
238.719025	145.980000
238.811783	145.720000
238.904541	145.460000
238.997314	145.020000
239.090073	144.800000
239.182831	144.940000
239.275604	145.760000
239.368362	145.940000
239.461136	146.200000
239.553909	146.360000
239.646667	146.200000
239.739441	145.400000
239.832214	145.820000
239.925003	145.840000
240.017761	146.420000
240.110535	147.000000
240.203308	146.840000
240.296082	146.540000
240.388855	146.480000
240.481628	146.460000
240.574417	146.380000
240.667191	146.700000
240.759964	146.640000
240.852737	146.800000
240.945526	146.540000
241.038315	146.200000
241.131088	146.120000
241.223877	146.560000
241.316650	146.040000
241.409439	146.400000
241.502228	145.960000
241.595001	146.620000
241.687790	146.420000
241.780579	146.740000
241.873367	146.940000
241.966141	147.740000
242.058929	146.780000
242.151718	147.100000
242.244507	147.600000
242.337311	146.540000
242.430099	146.820000
242.522903	147.040000
242.615692	146.340000
242.708481	146.120000
242.801270	146.860000
242.894073	146.260000
242.986862	146.640000
243.079651	147.320000
243.172455	146.940000
243.265244	147.000000
243.358063	146.600000
243.450867	146.220000
243.543655	145.900000
243.636459	146.260000
243.729263	146.740000
243.822067	147.280000
243.914856	147.580000
244.007660	147.800000
244.100464	147.660000
244.193268	146.800000
244.286072	146.320000
244.378876	145.860000
244.471680	145.060000
244.564499	145.020000
244.657318	145.940000
244.750122	146.180000
244.842926	145.860000
244.935745	146.700000
245.028549	146.560000
245.121368	145.940000
245.214172	146.120000
245.306992	146.460000
245.399796	145.640000
245.492615	146.000000
245.585434	146.040000
245.678253	145.860000
245.771072	145.800000
245.863892	146.520000
245.956711	146.600000
246.049530	146.740000
246.142349	146.800000
246.235168	146.980000
246.327988	147.420000
246.420807	146.980000
246.513626	146.800000
246.606445	146.600000
246.699280	146.500000
246.792099	145.840000
246.884918	145.620000
246.977753	145.320000
247.070587	145.420000
247.163422	145.540000
247.256241	145.720000
247.349075	146.340000
247.441895	146.440000
247.534729	146.520000
247.627563	146.540000
247.720383	146.980000
247.813217	146.740000
247.906052	146.860000
247.998886	146.700000
248.091736	146.680000
248.184570	146.100000
248.277405	146.220000
248.370239	146.860000
248.463074	147.580000
248.555908	147.680000
248.648743	147.740000
248.741592	147.680000
248.834427	146.880000
248.927261	145.780000
249.020111	146.380000
249.112946	147.380000
249.205795	147.060000
249.298630	147.100000
249.391495	147.660000
249.484344	146.840000
249.577179	146.100000
249.670029	146.420000
249.762878	146.920000
249.855728	146.960000
249.948563	147.140000
250.041412	146.540000
250.134262	146.740000
250.227112	146.520000
250.319962	146.580000
250.412827	146.820000
250.505692	146.540000
250.598541	146.400000
250.691391	146.000000
250.784241	146.100000
250.877106	145.880000
250.969955	145.920000
251.062805	146.420000
251.155670	147.060000
251.248520	146.400000
251.341385	146.660000
251.434235	146.980000
251.527100	146.320000
251.619965	146.020000
251.712814	146.880000
251.805695	146.600000
251.898560	146.640000
251.991425	146.940000
252.084290	147.000000
252.177155	146.260000
252.270020	145.960000
252.362885	146.080000
252.455750	145.980000
252.548615	145.520000
252.641479	145.680000
252.734360	145.720000
252.827240	145.480000
252.920105	145.520000
253.012970	145.680000
253.105850	145.400000
253.198715	145.080000
253.291595	145.420000
253.384460	145.020000
253.477341	145.140000
253.570221	145.720000
253.663086	145.860000
253.755966	146.280000
253.848846	146.520000
253.941727	146.960000
254.034592	146.740000
254.127472	146.760000
254.220367	146.340000
254.313248	146.440000
254.406128	145.940000
254.499008	146.240000
254.591904	147.060000
254.684784	147.760000
254.777664	147.860000
254.870544	147.360000
254.963440	147.120000
255.056335	146.720000
255.149216	145.860000
255.242111	146.040000
255.334991	146.600000
255.427887	146.860000
255.520767	146.940000
255.613663	147.000000
255.706558	146.400000
255.799438	146.120000
255.892334	145.360000
255.985229	144.980000
256.078125	145.260000
256.171021	145.500000
256.263916	145.980000
256.356812	146.580000
256.449707	147.040000
256.542603	146.580000
256.635498	147.260000
256.728394	147.200000
256.821289	146.860000
256.914215	146.760000
257.007080	147.080000
257.100006	146.620000
257.192932	146.700000
257.285828	146.980000
257.378723	146.700000
257.471619	146.540000
257.564545	146.300000
257.657440	146.180000
257.750336	146.480000
257.843262	146.060000
257.936157	147.160000
258.029053	147.380000
258.121979	147.500000
258.214874	146.840000
258.307800	147.200000
258.400696	146.000000
258.493622	145.640000
258.586517	144.920000
258.679443	145.380000
258.772339	144.980000
258.865265	144.800000
258.958160	144.760000
259.051086	145.720000
259.144012	145.560000
259.236938	146.360000
259.329834	146.780000
259.422791	147.060000
259.515717	146.520000
259.608612	146.260000
259.701538	146.520000
259.794464	146.140000
259.887390	145.820000
259.980316	146.040000
260.073212	145.940000
260.166138	144.740000
260.259064	145.360000
260.351990	145.880000
260.444916	145.620000
260.537842	146.340000
260.630768	147.180000
260.723694	146.560000
260.816620	146.180000
260.909546	146.220000
261.002472	145.700000
261.095398	145.260000
261.188354	145.560000
261.281281	145.120000
261.374207	145.240000
261.467133	146.040000
261.560089	146.320000
261.653015	146.360000
261.745972	147.500000
261.838867	147.660000
261.931824	147.340000
262.024780	147.020000
262.117706	147.020000
262.210663	146.780000
262.303589	146.740000
262.396515	146.780000
262.489471	147.660000
262.582397	147.580000
262.675354	146.880000
262.768280	147.120000
262.861237	147.320000
262.954163	146.820000
263.047119	147.020000
263.140045	147.140000
263.233002	146.740000
263.325958	146.320000
263.418884	146.000000
263.511841	146.100000
263.604797	146.060000
263.697723	146.120000
263.790680	145.800000
263.883636	146.440000
263.976593	145.820000
264.069550	146.060000
264.162476	145.640000
264.255463	145.840000
264.348419	145.360000
264.441376	146.140000
264.534332	145.740000
264.627289	145.940000
264.720245	146.300000
264.813202	145.960000
264.906158	145.680000
264.999115	146.280000
265.092072	146.180000
265.185028	146.400000
265.277985	147.100000
265.370941	146.740000
265.463898	146.540000
265.556854	146.700000
265.649811	145.680000
265.742798	145.180000
265.835754	145.420000
265.928711	145.580000
266.021667	145.540000
266.114655	146.180000
266.207611	146.520000
266.300568	146.080000
266.393585	145.820000
266.486511	146.200000
266.579498	145.400000
266.672485	145.220000
266.765442	145.320000
266.858429	145.540000
266.951385	145.120000
267.044342	145.400000
267.137329	145.380000
267.230316	145.740000
267.323273	145.380000
267.416260	145.780000
267.509216	145.860000
267.602203	145.820000
267.695160	145.900000
267.788147	146.140000
267.881134	145.400000
267.974091	145.560000
268.067078	145.460000
268.160065	145.360000
268.253052	145.140000
268.346008	145.620000
268.438995	145.540000
268.531982	145.700000
268.624969	145.620000
268.717987	146.140000
268.810944	145.980000
268.903961	146.300000
268.996948	146.100000
269.089905	146.500000
269.182892	146.160000
269.275879	146.400000
269.368866	145.820000
269.461853	146.120000
269.554871	145.820000
269.647858	145.880000
269.740845	146.140000
269.833832	146.660000
269.926819	146.220000
270.019806	146.640000
270.112793	146.120000
270.205811	146.180000
270.298798	146.000000
270.391785	146.600000
270.484772	145.740000
270.577789	146.380000
270.670776	145.720000
270.763763	145.700000
270.856750	145.680000
270.949768	145.740000
271.042786	145.760000
271.135773	146.280000
271.228790	146.440000
271.321808	145.920000
271.414795	145.920000
271.507782	145.540000
271.600800	145.260000
271.693817	145.240000
271.786804	145.760000
271.879822	146.020000
271.972809	146.060000
272.065826	146.540000
272.158844	146.160000
272.251831	146.520000
272.344849	146.500000
272.437866	146.200000
272.530853	146.140000
272.623871	146.520000
272.716888	145.480000
272.809906	145.960000
272.902893	146.000000
272.995911	145.400000
273.088928	145.480000
273.181946	145.720000
273.274963	145.240000
273.367981	145.360000
273.460999	145.680000
273.554047	145.820000
273.647003	146.600000
273.740051	146.840000
273.833069	147.180000
273.926086	147.300000
274.019135	147.040000
274.112152	146.420000
274.205170	146.040000
274.298187	146.440000
274.391205	145.620000
274.484222	145.640000
274.577240	145.500000
274.670258	145.760000
274.763306	145.400000
274.856323	146.020000
274.949341	145.860000
275.042358	146.400000
275.135406	146.140000
275.228424	145.940000
275.321442	146.040000
275.414490	145.820000
275.507507	145.940000
275.600525	146.620000
275.693573	146.540000
275.786591	146.180000
275.879669	146.620000
275.972656	146.260000
276.065735	145.760000
276.158752	146.300000
276.251801	147.200000
276.344818	147.100000
276.437866	147.240000
276.530884	147.060000
276.623932	146.180000
276.716980	145.980000
276.809998	145.980000
276.903046	145.840000
276.996094	146.820000
277.089111	147.520000
277.182159	147.600000
277.275208	147.620000
277.368256	147.500000
277.461304	146.960000
277.554321	146.600000
277.647369	146.380000
277.740417	146.040000
277.833466	146.300000
277.926514	145.940000
278.019562	146.520000
278.112610	146.000000
278.205688	146.700000
278.298706	146.600000
278.391785	146.560000
278.484833	145.860000
278.577881	145.960000
278.670929	145.740000
278.763977	145.600000
278.857025	145.840000
278.950073	146.060000
279.043121	145.900000
279.136169	145.600000
279.229248	145.520000
279.322296	145.600000
279.415344	145.300000
279.508392	145.580000
279.601440	145.620000
279.694519	145.480000
279.787567	145.580000
279.880615	145.540000
279.973694	145.240000
280.066742	145.420000
280.159790	145.840000
280.252869	145.360000
280.345917	145.500000
280.438995	145.580000
280.532074	145.440000
280.625122	145.580000
280.718201	146.560000
280.811279	146.920000
280.904327	147.040000
280.997406	147.080000
281.090454	147.140000
281.183533	146.380000
281.276581	146.260000
281.369659	146.000000
281.462738	146.040000
281.555786	146.060000
281.648865	145.940000
281.741943	145.920000
281.835022	146.540000
281.928070	146.240000
282.021149	145.780000
282.114227	145.840000
282.207306	145.680000
282.300385	145.540000
282.393433	145.900000
282.486511	146.040000
282.579590	146.360000
282.672668	146.640000
282.765747	145.960000
282.858856	145.940000
282.951904	146.000000
283.045013	146.140000
283.138062	146.440000
283.231171	146.980000
283.324249	146.960000
283.417328	147.140000
283.510406	146.500000
283.603485	146.020000
283.696564	145.740000
283.789642	145.860000
283.882751	145.520000
283.975830	146.440000
284.068909	146.260000
284.161987	146.960000
284.255066	146.480000
284.348175	146.660000
284.441254	146.360000
284.534332	147.140000
284.627441	146.780000
284.720520	146.660000
284.813599	146.760000
284.906708	146.760000
284.999786	145.740000
285.092896	145.520000
285.185974	146.740000
285.279053	146.260000
285.372192	146.000000
285.465240	146.840000
285.558380	146.700000
285.651459	146.100000
285.744568	147.220000
285.837677	146.980000
285.930756	146.640000
286.023865	146.980000
286.116943	146.340000
286.210052	145.980000
286.303162	146.080000
286.396240	146.260000
286.489349	146.000000
286.582458	146.740000
286.675568	146.100000
286.768646	146.120000
286.861755	146.380000
286.954865	147.180000
287.047974	146.580000
287.141083	146.680000
287.234161	146.380000
287.327271	145.740000
287.420380	145.880000
287.513519	145.880000
287.606598	146.160000
287.699738	146.700000
287.792816	146.840000
287.885956	146.200000
287.979034	146.420000
288.072174	146.140000
288.165283	145.860000
288.258392	146.320000
288.351501	145.840000
288.444611	146.020000
288.537720	146.440000
288.630859	146.260000
288.723969	146.400000
288.817078	146.900000
288.910187	146.460000
289.003296	145.880000
289.096436	145.760000
289.189545	145.420000
289.282654	145.240000
289.375763	145.660000
289.468903	146.160000
289.562012	146.740000
289.655121	146.660000
289.748260	146.640000
289.841400	147.020000
289.934509	146.840000
290.027649	146.640000
290.120728	146.580000
290.213898	146.480000
290.306976	146.180000
290.400146	146.360000
290.493256	145.840000
290.586395	145.880000
290.679535	146.420000
290.772644	146.120000
290.865784	145.100000
290.958893	145.340000
291.052032	145.160000
291.145172	144.920000
291.238281	144.840000
291.331421	145.560000
291.424561	146.120000
291.517670	145.720000
291.610809	146.000000
291.703949	145.840000
291.797089	146.220000
291.890228	145.440000
291.983337	146.060000
292.076477	145.680000
292.169617	146.220000
292.262756	145.740000
292.355927	146.140000
292.449036	145.880000
292.542206	145.820000
292.635315	145.780000
292.728485	146.000000
292.821625	145.540000
292.914764	146.420000
293.007904	146.800000
293.101044	146.700000
293.194183	146.640000
293.287323	146.880000
293.380463	146.080000
293.473602	145.660000
293.566742	146.080000
293.659882	146.460000
293.753021	146.660000
293.846191	146.580000
293.939331	146.460000
294.032471	145.980000
294.125610	145.440000
294.218781	146.100000
294.311920	146.560000
294.405060	146.920000
294.498230	146.840000
294.591370	147.080000
294.684540	146.060000
294.777679	145.540000
294.870850	145.760000
294.963959	145.740000
295.057159	145.660000
295.150299	146.380000
295.243469	146.380000
295.336609	145.400000
295.429779	145.480000
295.522919	145.680000
295.616089	145.420000
295.709229	145.980000
295.802399	146.580000
295.895569	146.300000
295.988708	146.020000
296.081879	146.220000
296.175018	145.740000
296.268188	145.740000
296.361359	146.440000
296.454529	146.380000
296.547668	146.080000
296.640839	146.380000
296.734009	146.120000
296.827179	146.080000
296.920319	146.320000
297.013519	146.080000
297.106659	145.960000
297.199860	146.040000
297.292999	145.800000
297.386200	145.520000
297.479309	145.500000
297.572510	145.460000
297.665680	145.480000
297.758850	145.660000
297.852020	145.940000
297.945190	146.020000
298.038361	145.780000
298.131531	146.620000
298.224701	146.220000
298.317871	145.520000
298.411072	145.160000
298.504242	145.200000
298.597412	144.480000
298.690582	144.820000
298.783752	145.320000
298.876923	145.800000
298.970093	145.760000
299.063293	146.160000
299.156464	146.440000
299.249634	146.540000
299.342834	146.640000
299.436005	147.060000
299.529205	146.860000
299.622345	146.860000
299.715576	146.400000
299.808716	146.460000
299.901917	146.360000
299.995117	146.580000
300.088287	146.600000
300.181488	146.800000
300.274658	146.400000
300.367828	146.360000
300.461029	146.200000
300.554199	146.040000
300.647400	146.140000
300.740601	146.840000
300.833771	146.580000
300.926971	146.580000
301.020142	146.100000
301.113342	146.040000
301.206512	145.740000
301.299713	146.180000
301.392914	145.900000
301.486084	146.040000
301.579285	146.120000
301.672516	146.320000
301.765686	145.960000
301.858887	146.360000
301.952057	146.220000
302.045288	146.020000
302.138458	146.000000
302.231659	145.860000
302.324860	145.300000
302.418060	145.340000
302.511261	145.440000
302.604462	145.480000
302.697662	145.480000
302.790863	145.720000
302.884064	145.440000
302.977264	145.700000
303.070465	145.560000
303.163666	146.280000
303.256866	146.600000
303.350067	146.680000
303.443268	146.520000
303.536469	146.920000
303.629669	146.380000
303.722870	146.120000
303.816071	146.400000
303.909271	146.360000
304.002472	145.260000
304.095673	145.000000
304.188934	144.740000
304.282104	145.340000
304.375336	145.380000
304.468506	145.820000
304.561768	145.740000
304.654968	146.360000
304.748169	145.980000
304.841370	145.980000
304.934601	146.620000
305.027802	146.660000
305.121002	146.120000
305.214233	145.880000
305.307434	146.020000
305.400665	146.120000
305.493866	146.020000
