Model Number: SPM-002-B   
Serial Number: 70087108
Firmware Version: 004.15.4
Exposure Time: 100000.000000us
Data Taken on: 11-12-2020 19:30:51.143
Wavelength	Amplitude
221.570786	0.000000
221.663406	0.000000
221.756027	0.000000
221.848648	0.000000
221.941269	0.000000
222.033905	0.000000
222.126526	0.000000
222.219162	0.000000
222.311798	0.000000
222.404419	0.000000
222.497055	0.000000
222.589676	0.000000
222.682312	0.000000
222.774933	0.000000
222.867569	0.000000
222.960205	0.000000
223.052841	0.000000
223.145462	0.000000
223.238098	0.000000
223.330734	0.000000
223.423386	0.000000
223.516022	0.000000
223.608658	0.000000
223.701309	0.000000
223.793945	0.000000
223.886581	0.000000
223.979218	0.000000
224.071869	0.000000
224.164505	0.000000
224.257156	0.000000
224.349792	0.000000
224.442444	0.000000
224.535095	0.000000
224.627747	0.000000
224.720398	0.000000
224.813034	0.000000
224.905685	0.000000
224.998337	146.100000
225.090988	145.640000
225.183640	145.500000
225.276291	145.380000
225.368942	146.080000
225.461594	146.300000
225.554245	146.600000
225.646912	146.640000
225.739578	147.220000
225.832230	147.620000
225.924896	147.000000
226.017548	147.060000
226.110199	147.420000
226.202866	146.520000
226.295532	146.000000
226.388184	146.080000
226.480850	145.680000
226.573517	145.500000
226.666168	146.100000
226.758835	146.480000
226.851501	146.800000
226.944183	146.980000
227.036850	146.540000
227.129517	146.500000
227.222183	146.420000
227.314850	146.220000
227.407516	146.680000
227.500198	147.680000
227.592865	146.980000
227.685532	146.320000
227.778214	146.240000
227.870880	146.180000
227.963562	146.340000
228.056229	147.200000
228.148926	147.540000
228.241592	148.000000
228.334274	147.720000
228.426956	147.360000
228.519638	147.160000
228.612305	146.960000
228.704987	146.960000
228.797668	147.160000
228.890350	146.820000
228.983032	146.380000
229.075714	146.820000
229.168396	146.420000
229.261108	146.020000
229.353790	145.960000
229.446472	146.400000
229.539169	146.200000
229.631851	146.060000
229.724533	146.260000
229.817230	146.480000
229.909912	147.000000
230.002609	147.180000
230.095306	147.480000
230.187988	147.560000
230.280685	147.320000
230.373383	146.400000
230.466095	145.920000
230.558792	145.860000
230.651474	145.560000
230.744171	145.260000
230.836868	145.260000
230.929581	145.600000
231.022278	145.580000
231.114975	146.000000
231.207672	146.320000
231.300369	146.860000
231.393082	146.960000
231.485779	146.760000
231.578506	146.580000
231.671204	146.720000
231.763916	146.640000
231.856613	146.640000
231.949326	147.180000
232.042023	146.940000
232.134735	146.680000
232.227448	146.040000
232.320160	145.820000
232.412872	145.700000
232.505585	146.580000
232.598297	147.100000
232.691010	147.260000
232.783722	147.120000
232.876450	147.300000
232.969162	146.520000
233.061874	145.740000
233.154587	145.700000
233.247314	146.120000
233.340027	145.560000
233.432739	146.360000
233.525467	146.440000
233.618179	146.820000
233.710907	146.480000
233.803635	146.820000
233.896347	146.080000
233.989090	146.620000
234.081818	146.500000
234.174545	146.840000
234.267258	146.720000
234.359985	147.020000
234.452713	146.860000
234.545441	146.760000
234.638168	146.580000
234.730896	146.960000
234.823639	146.800000
234.916367	147.080000
235.009094	146.940000
235.101822	146.960000
235.194580	146.540000
235.287308	146.580000
235.380051	146.180000
235.472778	146.860000
235.565521	146.940000
235.658249	146.660000
235.750992	146.760000
235.843719	146.620000
235.936462	146.340000
236.029205	146.180000
236.121948	146.260000
236.214691	146.360000
236.307449	147.160000
236.400192	147.020000
236.492935	146.700000
236.585678	146.980000
236.678421	147.020000
236.771164	146.620000
236.863907	147.280000
236.956665	147.660000
237.049408	149.160000
237.142151	148.680000
237.234909	149.000000
237.327652	148.480000
237.420410	148.100000
237.513153	147.060000
237.605927	147.080000
237.698669	146.660000
237.791428	146.080000
237.884186	146.740000
237.976944	146.260000
238.069702	146.800000
238.162445	146.560000
238.255203	146.740000
238.347961	146.580000
238.440720	146.300000
238.533478	145.820000
238.626266	145.640000
238.719025	146.040000
238.811783	145.720000
238.904541	145.720000
238.997314	145.560000
239.090073	145.440000
239.182831	145.720000
239.275604	146.760000
239.368362	146.720000
239.461136	147.040000
239.553909	147.060000
239.646667	146.360000
239.739441	145.740000
239.832214	146.160000
239.925003	146.360000
240.017761	147.020000
240.110535	147.980000
240.203308	147.400000
240.296082	147.540000
240.388855	147.420000
240.481628	147.140000
240.574417	147.000000
240.667191	147.560000
240.759964	147.060000
240.852737	146.860000
240.945526	146.840000
241.038315	146.400000
241.131088	146.440000
241.223877	146.700000
241.316650	146.460000
241.409439	146.620000
241.502228	146.120000
241.595001	146.320000
241.687790	146.220000
241.780579	146.480000
241.873367	146.660000
241.966141	147.260000
242.058929	146.520000
242.151718	146.540000
242.244507	146.840000
242.337311	146.200000
242.430099	146.540000
242.522903	147.120000
242.615692	146.960000
242.708481	146.740000
242.801270	147.240000
242.894073	146.840000
242.986862	146.660000
243.079651	147.280000
243.172455	146.980000
243.265244	146.940000
243.358063	146.460000
243.450867	146.780000
243.543655	146.280000
243.636459	146.720000
243.729263	147.160000
243.822067	147.600000
243.914856	147.700000
244.007660	147.820000
244.100464	147.880000
244.193268	147.240000
244.286072	147.300000
244.378876	146.540000
244.471680	146.060000
244.564499	145.920000
244.657318	146.460000
244.750122	146.560000
244.842926	146.160000
244.935745	146.860000
245.028549	146.500000
245.121368	145.860000
245.214172	145.760000
245.306992	146.520000
245.399796	146.160000
245.492615	146.420000
245.585434	146.760000
245.678253	146.780000
245.771072	146.440000
245.863892	147.040000
245.956711	147.300000
246.049530	146.860000
246.142349	146.380000
246.235168	146.280000
246.327988	146.840000
246.420807	146.560000
246.513626	146.660000
246.606445	146.720000
246.699280	147.040000
246.792099	146.000000
246.884918	145.740000
246.977753	145.780000
247.070587	145.960000
247.163422	145.860000
247.256241	146.080000
247.349075	146.600000
247.441895	146.500000
247.534729	146.400000
247.627563	146.180000
247.720383	146.840000
247.813217	146.380000
247.906052	146.380000
247.998886	146.500000
248.091736	146.780000
248.184570	146.300000
248.277405	146.520000
248.370239	147.560000
248.463074	148.480000
248.555908	148.760000
248.648743	148.420000
248.741592	148.620000
248.834427	147.740000
248.927261	146.520000
249.020111	146.780000
249.112946	147.380000
249.205795	147.100000
249.298630	147.040000
249.391495	147.060000
249.484344	146.340000
249.577179	146.000000
249.670029	146.320000
249.762878	146.920000
249.855728	147.100000
249.948563	147.520000
250.041412	147.040000
250.134262	147.120000
250.227112	146.960000
250.319962	147.140000
250.412827	147.020000
250.505692	146.980000
250.598541	146.860000
250.691391	146.600000
250.784241	146.400000
250.877106	146.540000
250.969955	146.440000
251.062805	146.580000
251.155670	147.020000
251.248520	147.020000
251.341385	147.200000
251.434235	147.120000
251.527100	146.860000
251.619965	146.240000
251.712814	146.980000
251.805695	146.700000
251.898560	147.120000
251.991425	147.340000
252.084290	147.500000
252.177155	146.700000
252.270020	146.560000
252.362885	146.480000
252.455750	146.520000
252.548615	146.300000
252.641479	146.440000
252.734360	146.280000
252.827240	146.140000
252.920105	145.880000
253.012970	146.080000
253.105850	146.260000
253.198715	146.300000
253.291595	146.180000
253.384460	145.940000
253.477341	145.780000
253.570221	145.820000
253.663086	145.780000
253.755966	146.400000
253.848846	146.580000
253.941727	146.900000
254.034592	146.680000
254.127472	146.000000
254.220367	146.120000
254.313248	146.240000
254.406128	145.640000
254.499008	145.800000
254.591904	147.040000
254.684784	147.140000
254.777664	146.940000
254.870544	146.980000
254.963440	146.840000
255.056335	146.560000
255.149216	146.060000
255.242111	146.520000
255.334991	146.820000
255.427887	146.860000
255.520767	146.680000
255.613663	146.900000
255.706558	146.140000
255.799438	146.180000
255.892334	146.180000
255.985229	146.220000
256.078125	145.980000
256.171021	146.260000
256.263916	146.420000
256.356812	146.660000
256.449707	146.880000
256.542603	146.520000
256.635498	147.080000
256.728394	146.860000
256.821289	146.520000
256.914215	146.580000
257.007080	147.060000
257.100006	146.800000
257.192932	147.220000
257.285828	147.500000
257.378723	147.160000
257.471619	147.100000
257.564545	146.720000
257.657440	146.660000
257.750336	147.020000
257.843262	146.880000
257.936157	147.760000
258.029053	147.880000
258.121979	147.720000
258.214874	147.020000
258.307800	147.140000
258.400696	146.060000
258.493622	146.200000
258.586517	145.340000
258.679443	145.820000
258.772339	145.280000
258.865265	145.440000
258.958160	145.080000
259.051086	146.220000
259.144012	145.940000
259.236938	147.060000
259.329834	146.880000
259.422791	146.660000
259.515717	146.000000
259.608612	145.800000
259.701538	145.500000
259.794464	145.700000
259.887390	145.800000
259.980316	146.020000
260.073212	146.000000
260.166138	145.280000
260.259064	145.540000
260.351990	146.560000
260.444916	146.480000
260.537842	146.900000
260.630768	147.680000
260.723694	147.540000
260.816620	146.960000
260.909546	146.900000
261.002472	146.580000
261.095398	146.000000
261.188354	145.860000
261.281281	145.460000
261.374207	145.540000
261.467133	146.080000
261.560089	146.440000
261.653015	146.200000
261.745972	146.820000
261.838867	147.220000
261.931824	146.960000
262.024780	146.400000
262.117706	146.880000
262.210663	147.040000
262.303589	146.640000
262.396515	146.820000
262.489471	147.920000
262.582397	147.540000
262.675354	147.300000
262.768280	147.320000
262.861237	147.200000
262.954163	146.780000
263.047119	146.920000
263.140045	146.440000
263.233002	146.660000
263.325958	146.660000
263.418884	146.320000
263.511841	146.660000
263.604797	146.920000
263.697723	146.860000
263.790680	146.640000
263.883636	147.060000
263.976593	146.560000
264.069550	146.480000
264.162476	146.360000
264.255463	146.440000
264.348419	146.240000
264.441376	146.340000
264.534332	146.160000
264.627289	146.440000
264.720245	146.780000
264.813202	146.260000
264.906158	146.480000
264.999115	146.920000
265.092072	146.900000
265.185028	147.240000
265.277985	147.680000
265.370941	147.440000
265.463898	147.380000
265.556854	146.800000
265.649811	145.720000
265.742798	146.040000
265.835754	146.320000
265.928711	146.280000
266.021667	146.520000
266.114655	146.860000
266.207611	146.600000
266.300568	145.920000
266.393585	145.740000
266.486511	146.120000
266.579498	145.580000
266.672485	145.680000
266.765442	145.800000
266.858429	146.260000
266.951385	145.880000
267.044342	146.400000
267.137329	145.900000
267.230316	146.180000
267.323273	145.600000
267.416260	146.080000
267.509216	145.860000
267.602203	146.180000
267.695160	146.520000
267.788147	146.660000
267.881134	146.160000
267.974091	146.580000
268.067078	146.460000
268.160065	146.060000
268.253052	146.000000
268.346008	146.180000
268.438995	145.880000
268.531982	146.020000
268.624969	145.800000
268.717987	146.280000
268.810944	146.160000
268.903961	146.320000
268.996948	145.760000
269.089905	146.560000
269.182892	146.240000
269.275879	146.620000
269.368866	146.060000
269.461853	146.580000
269.554871	146.100000
269.647858	146.360000
269.740845	146.260000
269.833832	147.180000
269.926819	147.080000
270.019806	147.280000
270.112793	146.740000
270.205811	146.940000
270.298798	146.280000
270.391785	146.880000
270.484772	146.800000
270.577789	147.200000
270.670776	146.720000
270.763763	147.020000
270.856750	146.620000
270.949768	146.440000
271.042786	146.560000
271.135773	146.860000
271.228790	146.960000
271.321808	146.400000
271.414795	146.020000
271.507782	145.660000
271.600800	145.080000
271.693817	145.040000
271.786804	145.800000
271.879822	146.100000
271.972809	145.900000
272.065826	146.560000
272.158844	146.120000
272.251831	146.480000
272.344849	146.560000
272.437866	146.440000
272.530853	146.400000
272.623871	146.820000
272.716888	145.760000
272.809906	146.120000
272.902893	146.480000
272.995911	145.940000
273.088928	145.960000
273.181946	146.560000
273.274963	146.060000
273.367981	145.940000
273.460999	146.300000
273.554047	146.460000
273.647003	146.820000
273.740051	146.740000
273.833069	146.940000
273.926086	146.940000
274.019135	146.620000
274.112152	146.040000
274.205170	146.300000
274.298187	146.380000
274.391205	145.880000
274.484222	146.080000
274.577240	146.100000
274.670258	145.860000
274.763306	145.740000
274.856323	146.300000
274.949341	146.080000
275.042358	146.660000
275.135406	146.640000
275.228424	146.660000
275.321442	146.740000
275.414490	146.580000
275.507507	146.540000
275.600525	147.220000
275.693573	147.080000
275.786591	146.900000
275.879669	147.080000
275.972656	146.660000
276.065735	146.160000
276.158752	146.580000
276.251801	147.020000
276.344818	147.260000
276.437866	147.420000
276.530884	147.260000
276.623932	146.500000
276.716980	146.580000
276.809998	146.500000
276.903046	146.520000
276.996094	147.680000
277.089111	148.200000
277.182159	148.340000
277.275208	148.140000
277.368256	147.860000
277.461304	146.940000
277.554321	146.560000
277.647369	146.340000
277.740417	146.200000
277.833466	146.080000
277.926514	145.860000
278.019562	146.340000
278.112610	145.580000
278.205688	145.940000
278.298706	146.180000
278.391785	146.280000
278.484833	146.040000
278.577881	146.100000
278.670929	146.400000
278.763977	146.380000
278.857025	146.800000
278.950073	146.720000
279.043121	146.760000
279.136169	146.360000
279.229248	146.080000
279.322296	146.040000
279.415344	145.800000
279.508392	145.680000
279.601440	145.640000
279.694519	145.980000
279.787567	145.700000
279.880615	145.420000
279.973694	145.580000
280.066742	145.640000
280.159790	145.820000
280.252869	145.700000
280.345917	146.160000
280.438995	146.400000
280.532074	146.420000
280.625122	146.380000
280.718201	147.100000
280.811279	147.400000
280.904327	147.160000
280.997406	147.280000
281.090454	147.220000
281.183533	146.680000
281.276581	146.440000
281.369659	146.300000
281.462738	146.440000
281.555786	146.540000
281.648865	146.380000
281.741943	146.460000
281.835022	147.100000
281.928070	146.500000
282.021149	146.200000
282.114227	146.320000
282.207306	146.120000
282.300385	146.080000
282.393433	146.240000
282.486511	146.360000
282.579590	146.740000
282.672668	147.180000
282.765747	146.420000
282.858856	146.320000
282.951904	146.280000
283.045013	146.080000
283.138062	145.800000
283.231171	146.440000
283.324249	146.840000
283.417328	146.820000
283.510406	146.700000
283.603485	146.540000
283.696564	146.320000
283.789642	146.460000
283.882751	146.320000
283.975830	146.820000
284.068909	146.680000
284.161987	147.080000
284.255066	146.260000
284.348175	146.500000
284.441254	146.000000
284.534332	146.480000
284.627441	145.960000
284.720520	146.020000
284.813599	145.780000
284.906708	145.880000
284.999786	145.480000
285.092896	145.420000
285.185974	146.540000
285.279053	146.240000
285.372192	145.960000
285.465240	146.680000
285.558380	146.880000
285.651459	146.300000
285.744568	147.220000
285.837677	147.200000
285.930756	146.960000
286.023865	146.620000
286.116943	146.200000
286.210052	146.320000
286.303162	146.560000
286.396240	146.460000
286.489349	146.580000
286.582458	147.280000
286.675568	146.780000
286.768646	146.720000
286.861755	146.840000
286.954865	147.700000
287.047974	146.800000
287.141083	146.480000
287.234161	146.180000
287.327271	145.800000
287.420380	145.600000
287.513519	145.960000
287.606598	146.160000
287.699738	146.600000
287.792816	146.620000
287.885956	146.380000
287.979034	146.500000
288.072174	146.460000
288.165283	146.180000
288.258392	146.540000
288.351501	145.980000
288.444611	146.060000
288.537720	146.580000
288.630859	146.560000
288.723969	146.420000
288.817078	146.760000
288.910187	146.620000
289.003296	145.900000
289.096436	145.920000
289.189545	145.620000
289.282654	145.460000
289.375763	146.000000
289.468903	146.360000
289.562012	146.500000
289.655121	146.880000
289.748260	147.000000
289.841400	147.120000
289.934509	147.340000
290.027649	147.620000
290.120728	147.500000
290.213898	147.540000
290.306976	146.900000
290.400146	146.640000
290.493256	146.100000
290.586395	146.020000
290.679535	146.280000
290.772644	146.240000
290.865784	145.620000
290.958893	145.800000
291.052032	145.900000
291.145172	145.600000
291.238281	145.320000
291.331421	145.480000
291.424561	145.920000
291.517670	145.580000
291.610809	146.040000
291.703949	146.080000
291.797089	146.540000
291.890228	146.100000
291.983337	145.880000
292.076477	145.520000
292.169617	145.680000
292.262756	145.660000
292.355927	145.480000
292.449036	145.480000
292.542206	145.600000
292.635315	146.100000
292.728485	146.360000
292.821625	146.380000
292.914764	147.840000
293.007904	147.880000
293.101044	147.660000
293.194183	147.360000
293.287323	147.260000
293.380463	146.360000
293.473602	145.980000
293.566742	146.220000
293.659882	146.720000
293.753021	147.200000
293.846191	147.140000
293.939331	146.860000
294.032471	146.480000
294.125610	145.800000
294.218781	146.280000
294.311920	147.040000
294.405060	147.560000
294.498230	147.660000
294.591370	147.740000
294.684540	146.820000
294.777679	146.040000
294.870850	146.380000
294.963959	146.380000
295.057159	146.320000
295.150299	146.860000
295.243469	146.820000
295.336609	145.940000
295.429779	145.820000
295.522919	146.500000
295.616089	146.220000
295.709229	146.580000
295.802399	147.200000
295.895569	146.740000
295.988708	146.280000
296.081879	146.460000
296.175018	146.180000
296.268188	146.060000
296.361359	147.120000
296.454529	147.200000
296.547668	147.020000
296.640839	147.060000
296.734009	146.780000
296.827179	146.500000
296.920319	146.820000
297.013519	146.620000
297.106659	146.780000
297.199860	147.100000
297.292999	146.840000
297.386200	146.440000
297.479309	146.480000
297.572510	146.480000
297.665680	146.060000
297.758850	146.160000
297.852020	146.040000
297.945190	145.960000
298.038361	145.820000
298.131531	146.900000
298.224701	146.640000
298.317871	146.400000
298.411072	146.200000
298.504242	146.000000
298.597412	145.220000
298.690582	145.840000
298.783752	145.940000
298.876923	146.440000
298.970093	146.500000
299.063293	146.760000
299.156464	146.740000
299.249634	147.240000
299.342834	147.280000
299.436005	147.980000
299.529205	147.860000
299.622345	147.680000
299.715576	147.060000
299.808716	146.800000
299.901917	146.200000
299.995117	146.420000
300.088287	146.500000
300.181488	146.460000
300.274658	146.440000
300.367828	146.580000
300.461029	146.440000
300.554199	146.940000
300.647400	147.240000
300.740601	147.620000
300.833771	147.220000
300.926971	147.580000
301.020142	146.800000
301.113342	146.720000
301.206512	146.540000
301.299713	147.000000
301.392914	146.560000
301.486084	146.920000
301.579285	147.040000
301.672516	147.500000
301.765686	147.420000
301.858887	147.300000
301.952057	147.120000
302.045288	146.980000
302.138458	146.440000
302.231659	146.300000
302.324860	146.140000
302.418060	146.060000
302.511261	146.380000
302.604462	146.980000
302.697662	146.840000
302.790863	146.860000
302.884064	146.520000
302.977264	146.160000
303.070465	146.020000
303.163666	146.980000
303.256866	147.560000
303.350067	147.920000
303.443268	147.920000
303.536469	147.880000
303.629669	146.840000
303.722870	146.800000
303.816071	146.300000
303.909271	146.380000
304.002472	145.480000
304.095673	145.420000
304.188934	144.640000
304.282104	145.720000
304.375336	145.840000
304.468506	146.180000
304.561768	146.060000
304.654968	146.920000
304.748169	146.180000
304.841370	146.120000
304.934601	146.720000
305.027802	146.900000
305.121002	146.600000
305.214233	146.920000
305.307434	146.920000
305.400665	147.460000
305.493866	147.440000
