Model Number: SPM-002-B   
Serial Number: 70087108
Firmware Version: 004.15.4
Exposure Time: 100000.000000us
Data Taken on: 11-12-2020 19:31:24.075
Wavelength	Amplitude
221.570786	0.000000
221.663406	0.000000
221.756027	0.000000
221.848648	0.000000
221.941269	0.000000
222.033905	0.000000
222.126526	0.000000
222.219162	0.000000
222.311798	0.000000
222.404419	0.000000
222.497055	0.000000
222.589676	0.000000
222.682312	0.000000
222.774933	0.000000
222.867569	0.000000
222.960205	0.000000
223.052841	0.000000
223.145462	0.000000
223.238098	0.000000
223.330734	0.000000
223.423386	0.000000
223.516022	0.000000
223.608658	0.000000
223.701309	0.000000
223.793945	0.000000
223.886581	0.000000
223.979218	0.000000
224.071869	0.000000
224.164505	0.000000
224.257156	0.000000
224.349792	0.000000
224.442444	0.000000
224.535095	0.000000
224.627747	0.000000
224.720398	0.000000
224.813034	0.000000
224.905685	0.000000
224.998337	145.560000
225.090988	145.140000
225.183640	145.720000
225.276291	145.460000
225.368942	145.940000
225.461594	146.280000
225.554245	146.880000
225.646912	146.520000
225.739578	147.040000
225.832230	147.100000
225.924896	146.280000
226.017548	146.620000
226.110199	147.200000
226.202866	146.460000
226.295532	146.220000
226.388184	146.300000
226.480850	145.540000
226.573517	145.160000
226.666168	145.400000
226.758835	145.740000
226.851501	146.200000
226.944183	146.420000
227.036850	146.060000
227.129517	146.220000
227.222183	146.260000
227.314850	146.020000
227.407516	146.380000
227.500198	147.040000
227.592865	146.700000
227.685532	146.280000
227.778214	146.200000
227.870880	146.560000
227.963562	147.000000
228.056229	147.300000
228.148926	147.420000
228.241592	148.240000
228.334274	147.660000
228.426956	147.360000
228.519638	147.320000
228.612305	146.840000
228.704987	146.540000
228.797668	146.500000
228.890350	145.800000
228.983032	145.240000
229.075714	146.140000
229.168396	145.760000
229.261108	145.340000
229.353790	145.660000
229.446472	145.880000
229.539169	145.820000
229.631851	145.600000
229.724533	145.800000
229.817230	145.820000
229.909912	146.560000
230.002609	146.100000
230.095306	145.860000
230.187988	146.040000
230.280685	146.060000
230.373383	144.980000
230.466095	144.900000
230.558792	145.180000
230.651474	145.160000
230.744171	144.960000
230.836868	145.280000
230.929581	145.720000
231.022278	145.840000
231.114975	145.780000
231.207672	145.640000
231.300369	145.940000
231.393082	145.900000
231.485779	145.720000
231.578506	145.740000
231.671204	146.300000
231.763916	146.500000
231.856613	146.520000
231.949326	146.760000
232.042023	146.640000
232.134735	146.100000
232.227448	145.760000
232.320160	145.780000
232.412872	145.620000
232.505585	146.520000
232.598297	147.180000
232.691010	146.960000
232.783722	146.700000
232.876450	147.400000
232.969162	146.860000
233.061874	146.260000
233.154587	146.340000
233.247314	146.660000
233.340027	145.940000
233.432739	146.340000
233.525467	146.360000
233.618179	146.700000
233.710907	146.340000
233.803635	147.080000
233.896347	146.380000
233.989090	146.960000
234.081818	146.620000
234.174545	146.840000
234.267258	146.020000
234.359985	146.200000
234.452713	146.060000
234.545441	146.140000
234.638168	145.840000
234.730896	146.300000
234.823639	146.160000
234.916367	146.420000
235.009094	146.720000
235.101822	146.660000
235.194580	146.360000
235.287308	146.420000
235.380051	145.800000
235.472778	145.640000
235.565521	146.080000
235.658249	145.800000
235.750992	145.860000
235.843719	145.900000
235.936462	146.280000
236.029205	145.780000
236.121948	145.760000
236.214691	146.280000
236.307449	147.240000
236.400192	147.040000
236.492935	147.060000
236.585678	147.220000
236.678421	147.120000
236.771164	146.520000
236.863907	146.520000
236.956665	146.860000
237.049408	148.460000
237.142151	147.900000
237.234909	148.500000
237.327652	148.700000
237.420410	148.500000
237.513153	147.400000
237.605927	147.560000
237.698669	147.000000
237.791428	146.420000
237.884186	146.880000
237.976944	146.460000
238.069702	146.820000
238.162445	146.180000
238.255203	146.200000
238.347961	146.160000
238.440720	146.200000
238.533478	145.820000
238.626266	145.740000
238.719025	146.240000
238.811783	145.860000
238.904541	145.940000
238.997314	145.900000
239.090073	145.820000
239.182831	145.760000
239.275604	146.780000
239.368362	146.520000
239.461136	146.640000
239.553909	146.900000
239.646667	146.540000
239.739441	145.900000
239.832214	146.420000
239.925003	146.520000
240.017761	147.160000
240.110535	147.760000
240.203308	147.380000
240.296082	147.160000
240.388855	147.060000
240.481628	146.880000
240.574417	146.840000
240.667191	147.060000
240.759964	147.040000
240.852737	147.060000
240.945526	146.580000
241.038315	146.120000
241.131088	146.220000
241.223877	146.500000
241.316650	145.920000
241.409439	146.300000
241.502228	146.160000
241.595001	146.400000
241.687790	146.120000
241.780579	146.560000
241.873367	146.780000
241.966141	147.220000
242.058929	146.480000
242.151718	146.660000
242.244507	146.980000
242.337311	145.920000
242.430099	146.100000
242.522903	146.520000
242.615692	146.020000
242.708481	145.720000
242.801270	146.580000
242.894073	146.300000
242.986862	146.640000
243.079651	147.380000
243.172455	147.360000
243.265244	147.480000
243.358063	147.060000
243.450867	146.980000
243.543655	146.700000
243.636459	146.800000
243.729263	146.880000
243.822067	147.420000
243.914856	147.700000
244.007660	147.740000
244.100464	147.920000
244.193268	147.260000
244.286072	146.940000
244.378876	145.960000
244.471680	145.780000
244.564499	145.760000
244.657318	146.800000
244.750122	146.860000
244.842926	146.640000
244.935745	146.780000
245.028549	146.620000
245.121368	146.200000
245.214172	146.380000
245.306992	147.120000
245.399796	146.460000
245.492615	146.560000
245.585434	146.320000
245.678253	146.520000
245.771072	146.400000
245.863892	147.120000
245.956711	147.220000
246.049530	147.120000
246.142349	146.640000
246.235168	146.560000
246.327988	147.300000
246.420807	147.260000
246.513626	147.320000
246.606445	147.240000
246.699280	147.380000
246.792099	146.720000
246.884918	145.980000
246.977753	145.760000
247.070587	146.060000
247.163422	145.840000
247.256241	145.760000
247.349075	146.600000
247.441895	146.760000
247.534729	146.380000
247.627563	146.340000
247.720383	146.860000
247.813217	146.740000
247.906052	146.620000
247.998886	146.780000
248.091736	147.020000
248.184570	146.480000
248.277405	146.300000
248.370239	147.160000
248.463074	148.060000
248.555908	148.000000
248.648743	148.040000
248.741592	148.140000
248.834427	147.380000
248.927261	146.600000
249.020111	146.980000
249.112946	147.560000
249.205795	147.320000
249.298630	147.300000
249.391495	147.220000
249.484344	146.860000
249.577179	146.640000
249.670029	146.760000
249.762878	147.400000
249.855728	147.300000
249.948563	147.300000
250.041412	146.280000
250.134262	146.680000
250.227112	146.600000
250.319962	146.760000
250.412827	146.800000
250.505692	146.880000
250.598541	146.720000
250.691391	146.040000
250.784241	145.880000
250.877106	145.800000
250.969955	145.780000
251.062805	146.320000
251.155670	147.160000
251.248520	147.400000
251.341385	147.680000
251.434235	147.900000
251.527100	147.220000
251.619965	146.780000
251.712814	147.460000
251.805695	147.460000
251.898560	147.700000
251.991425	148.200000
252.084290	148.460000
252.177155	147.800000
252.270020	147.360000
252.362885	147.220000
252.455750	146.820000
252.548615	146.220000
252.641479	146.020000
252.734360	146.060000
252.827240	146.080000
252.920105	146.380000
253.012970	146.480000
253.105850	146.480000
253.198715	146.460000
253.291595	146.460000
253.384460	145.760000
253.477341	145.640000
253.570221	145.900000
253.663086	145.720000
253.755966	146.380000
253.848846	146.640000
253.941727	147.440000
254.034592	147.340000
254.127472	146.940000
254.220367	146.580000
254.313248	146.900000
254.406128	146.020000
254.499008	146.240000
254.591904	147.280000
254.684784	147.680000
254.777664	147.560000
254.870544	147.660000
254.963440	147.500000
255.056335	147.480000
255.149216	146.880000
255.242111	147.180000
255.334991	147.720000
255.427887	147.760000
255.520767	147.460000
255.613663	147.620000
255.706558	146.900000
255.799438	146.300000
255.892334	146.000000
255.985229	146.020000
256.078125	145.860000
256.171021	146.260000
256.263916	146.720000
256.356812	147.100000
256.449707	147.520000
256.542603	147.620000
256.635498	147.960000
256.728394	147.780000
256.821289	147.320000
256.914215	147.140000
257.007080	147.180000
257.100006	147.100000
257.192932	147.540000
257.285828	147.840000
257.378723	147.700000
257.471619	147.700000
257.564545	146.960000
257.657440	146.780000
257.750336	147.340000
257.843262	146.960000
257.936157	147.840000
258.029053	148.620000
258.121979	148.440000
258.214874	147.860000
258.307800	147.840000
258.400696	146.700000
258.493622	146.120000
258.586517	145.600000
258.679443	145.800000
258.772339	145.700000
258.865265	145.760000
258.958160	145.640000
259.051086	146.600000
259.144012	146.300000
259.236938	147.120000
259.329834	147.080000
259.422791	146.880000
259.515717	145.980000
259.608612	146.120000
259.701538	146.120000
259.794464	146.160000
259.887390	146.480000
259.980316	146.620000
260.073212	146.180000
260.166138	144.820000
260.259064	144.980000
260.351990	145.560000
260.444916	145.680000
260.537842	146.460000
260.630768	147.560000
260.723694	147.480000
260.816620	146.940000
260.909546	146.980000
261.002472	146.220000
261.095398	145.560000
261.188354	145.560000
261.281281	145.300000
261.374207	145.560000
261.467133	146.420000
261.560089	146.660000
261.653015	146.360000
261.745972	147.260000
261.838867	147.380000
261.931824	147.160000
262.024780	146.760000
262.117706	147.200000
262.210663	146.820000
262.303589	146.440000
262.396515	146.200000
262.489471	147.080000
262.582397	146.960000
262.675354	146.460000
262.768280	146.620000
262.861237	147.240000
262.954163	147.100000
263.047119	147.080000
263.140045	146.940000
263.233002	147.040000
263.325958	146.440000
263.418884	146.000000
263.511841	146.380000
263.604797	146.900000
263.697723	146.580000
263.790680	146.260000
263.883636	146.760000
263.976593	146.040000
264.069550	145.840000
264.162476	145.580000
264.255463	145.760000
264.348419	145.420000
264.441376	145.980000
264.534332	145.720000
264.627289	145.800000
264.720245	146.280000
264.813202	145.820000
264.906158	145.900000
264.999115	146.560000
265.092072	146.700000
265.185028	147.180000
265.277985	147.520000
265.370941	147.360000
265.463898	147.280000
265.556854	147.360000
265.649811	146.220000
265.742798	146.460000
265.835754	146.620000
265.928711	146.660000
266.021667	146.580000
266.114655	146.960000
266.207611	147.300000
266.300568	146.820000
266.393585	146.140000
266.486511	146.580000
266.579498	145.940000
266.672485	145.680000
266.765442	145.720000
266.858429	146.560000
266.951385	146.000000
267.044342	146.340000
267.137329	146.060000
267.230316	146.200000
267.323273	145.640000
267.416260	146.380000
267.509216	146.360000
267.602203	146.600000
267.695160	146.920000
267.788147	147.180000
267.881134	146.300000
267.974091	146.680000
268.067078	146.640000
268.160065	146.620000
268.253052	146.340000
268.346008	146.740000
268.438995	146.380000
268.531982	146.500000
268.624969	146.280000
268.717987	146.680000
268.810944	146.740000
268.903961	147.020000
268.996948	146.660000
269.089905	146.880000
269.182892	146.860000
269.275879	146.920000
269.368866	146.380000
269.461853	146.580000
269.554871	146.600000
269.647858	146.420000
269.740845	146.660000
269.833832	147.040000
269.926819	147.000000
270.019806	146.920000
270.112793	146.400000
270.205811	146.480000
270.298798	146.400000
270.391785	146.840000
270.484772	146.560000
270.577789	147.240000
270.670776	146.480000
270.763763	146.400000
270.856750	146.060000
270.949768	145.820000
271.042786	145.920000
271.135773	146.440000
271.228790	146.800000
271.321808	146.460000
271.414795	146.420000
271.507782	146.040000
271.600800	145.560000
271.693817	145.580000
271.786804	145.940000
271.879822	146.060000
271.972809	146.100000
272.065826	146.520000
272.158844	145.960000
272.251831	146.780000
272.344849	146.760000
272.437866	146.480000
272.530853	146.500000
272.623871	147.100000
272.716888	145.740000
272.809906	146.260000
272.902893	146.400000
272.995911	146.120000
273.088928	145.880000
273.181946	146.560000
273.274963	146.080000
273.367981	146.180000
273.460999	146.200000
273.554047	146.500000
273.647003	146.940000
273.740051	147.240000
273.833069	147.580000
273.926086	147.800000
274.019135	147.660000
274.112152	146.960000
274.205170	146.980000
274.298187	147.020000
274.391205	146.480000
274.484222	146.260000
274.577240	146.280000
274.670258	145.860000
274.763306	145.280000
274.856323	145.940000
274.949341	146.120000
275.042358	146.660000
275.135406	146.620000
275.228424	146.520000
275.321442	146.260000
275.414490	146.040000
275.507507	146.100000
275.600525	146.820000
275.693573	146.940000
275.786591	146.580000
275.879669	146.680000
275.972656	146.240000
276.065735	146.000000
276.158752	146.800000
276.251801	147.800000
276.344818	148.140000
276.437866	148.200000
276.530884	147.860000
276.623932	146.980000
276.716980	146.820000
276.809998	146.900000
276.903046	146.760000
276.996094	147.780000
277.089111	148.540000
277.182159	148.760000
277.275208	148.220000
277.368256	148.300000
277.461304	147.720000
277.554321	147.020000
277.647369	146.700000
277.740417	146.980000
277.833466	147.020000
277.926514	146.560000
278.019562	147.240000
278.112610	146.560000
278.205688	146.620000
278.298706	146.700000
278.391785	146.700000
278.484833	145.980000
278.577881	146.160000
278.670929	146.340000
278.763977	146.520000
278.857025	146.740000
278.950073	147.040000
279.043121	147.160000
279.136169	146.840000
279.229248	146.320000
279.322296	146.480000
279.415344	146.520000
279.508392	146.380000
279.601440	146.260000
279.694519	146.400000
279.787567	146.320000
279.880615	145.980000
279.973694	145.980000
280.066742	146.160000
280.159790	146.400000
280.252869	146.260000
280.345917	146.460000
280.438995	146.860000
280.532074	146.660000
280.625122	146.660000
280.718201	147.460000
280.811279	147.560000
280.904327	147.100000
280.997406	147.220000
281.090454	146.940000
281.183533	146.000000
281.276581	145.820000
281.369659	146.000000
281.462738	146.120000
281.555786	146.380000
281.648865	146.760000
281.741943	146.680000
281.835022	147.220000
281.928070	146.860000
282.021149	146.780000
282.114227	146.660000
282.207306	146.840000
282.300385	146.780000
282.393433	147.100000
282.486511	147.040000
282.579590	147.540000
282.672668	147.800000
282.765747	147.140000
282.858856	146.980000
282.951904	147.260000
283.045013	146.980000
283.138062	147.220000
283.231171	147.780000
283.324249	148.120000
283.417328	147.920000
283.510406	147.660000
283.603485	147.360000
283.696564	147.220000
283.789642	147.240000
283.882751	147.120000
283.975830	147.540000
284.068909	147.300000
284.161987	147.800000
284.255066	147.020000
284.348175	147.020000
284.441254	146.700000
284.534332	147.080000
284.627441	146.500000
284.720520	146.840000
284.813599	147.000000
284.906708	147.260000
284.999786	146.600000
285.092896	146.260000
285.185974	146.980000
285.279053	146.600000
285.372192	146.760000
285.465240	147.720000
285.558380	147.600000
285.651459	147.240000
285.744568	148.020000
285.837677	147.400000
285.930756	146.780000
286.023865	147.160000
286.116943	146.900000
286.210052	146.760000
286.303162	147.040000
286.396240	147.300000
286.489349	147.040000
286.582458	147.240000
286.675568	146.780000
286.768646	146.640000
286.861755	146.880000
286.954865	147.640000
287.047974	147.060000
287.141083	146.980000
287.234161	146.780000
287.327271	146.340000
287.420380	146.520000
287.513519	146.540000
287.606598	146.740000
287.699738	147.080000
287.792816	146.980000
287.885956	146.520000
287.979034	146.680000
288.072174	146.580000
288.165283	146.240000
288.258392	146.540000
288.351501	145.840000
288.444611	146.120000
288.537720	146.400000
288.630859	146.500000
288.723969	146.440000
288.817078	146.920000
288.910187	146.700000
289.003296	146.400000
289.096436	146.200000
289.189545	146.200000
289.282654	145.620000
289.375763	146.240000
289.468903	146.440000
289.562012	146.700000
289.655121	146.720000
289.748260	147.240000
289.841400	147.320000
289.934509	147.320000
290.027649	147.620000
290.120728	147.360000
290.213898	147.320000
290.306976	146.800000
290.400146	146.840000
290.493256	146.280000
290.586395	146.400000
290.679535	146.820000
290.772644	146.760000
290.865784	145.960000
290.958893	146.000000
291.052032	145.840000
291.145172	145.460000
291.238281	145.080000
291.331421	145.480000
291.424561	146.040000
291.517670	145.940000
291.610809	146.220000
291.703949	146.440000
291.797089	146.960000
291.890228	146.320000
291.983337	146.320000
292.076477	145.860000
292.169617	146.260000
292.262756	146.100000
292.355927	145.920000
292.449036	146.000000
292.542206	146.220000
292.635315	146.360000
292.728485	146.620000
292.821625	146.700000
292.914764	147.740000
293.007904	147.700000
293.101044	147.320000
293.194183	147.060000
293.287323	147.340000
293.380463	146.460000
293.473602	146.260000
293.566742	146.620000
293.659882	146.900000
293.753021	146.940000
293.846191	146.820000
293.939331	146.760000
294.032471	146.520000
294.125610	145.880000
294.218781	146.200000
294.311920	146.840000
294.405060	147.120000
294.498230	146.800000
294.591370	147.060000
294.684540	146.420000
294.777679	145.820000
294.870850	146.040000
294.963959	146.080000
295.057159	146.040000
295.150299	146.360000
295.243469	146.440000
295.336609	145.800000
295.429779	146.260000
295.522919	146.720000
295.616089	147.080000
295.709229	147.540000
295.802399	148.000000
295.895569	147.580000
295.988708	147.320000
296.081879	147.280000
296.175018	146.900000
296.268188	146.880000
296.361359	147.080000
296.454529	147.060000
296.547668	146.640000
296.640839	146.900000
296.734009	146.740000
296.827179	146.960000
296.920319	147.160000
297.013519	147.020000
297.106659	146.820000
297.199860	147.180000
297.292999	146.880000
297.386200	146.640000
297.479309	146.480000
297.572510	146.460000
297.665680	145.800000
297.758850	146.060000
297.852020	145.840000
297.945190	145.960000
298.038361	146.060000
298.131531	147.040000
298.224701	146.900000
298.317871	146.700000
298.411072	146.400000
298.504242	146.040000
298.597412	145.340000
298.690582	145.460000
298.783752	145.520000
298.876923	146.400000
298.970093	146.420000
299.063293	147.140000
299.156464	147.520000
299.249634	148.020000
299.342834	147.780000
299.436005	148.400000
299.529205	147.580000
299.622345	147.060000
299.715576	146.360000
299.808716	146.320000
299.901917	145.940000
299.995117	146.600000
300.088287	146.960000
300.181488	147.060000
300.274658	147.120000
300.367828	147.060000
300.461029	146.720000
300.554199	146.740000
300.647400	146.900000
300.740601	147.140000
300.833771	146.840000
300.926971	147.020000
301.020142	146.660000
301.113342	146.760000
301.206512	146.600000
301.299713	147.260000
301.392914	147.340000
301.486084	147.360000
301.579285	147.400000
301.672516	147.720000
301.765686	147.140000
301.858887	146.960000
301.952057	147.220000
302.045288	146.920000
302.138458	146.520000
302.231659	146.560000
302.324860	146.400000
302.418060	145.800000
302.511261	145.940000
302.604462	146.340000
302.697662	146.260000
302.790863	146.280000
302.884064	146.020000
302.977264	145.840000
303.070465	145.780000
303.163666	146.280000
303.256866	146.500000
303.350067	146.920000
303.443268	147.220000
303.536469	147.120000
303.629669	146.940000
303.722870	146.920000
303.816071	146.700000
303.909271	146.740000
304.002472	145.860000
304.095673	145.240000
304.188934	144.680000
304.282104	145.560000
304.375336	145.660000
304.468506	146.020000
304.561768	146.260000
304.654968	146.900000
304.748169	146.160000
304.841370	145.880000
304.934601	146.360000
305.027802	146.220000
305.121002	145.820000
305.214233	145.900000
305.307434	146.080000
305.400665	146.640000
305.493866	146.640000
