Model Number: SPM-002-B   
Serial Number: 70087108
Firmware Version: 004.15.4
Exposure Time: 100000.000000us
Data Taken on: 11-12-2020 19:31:41.177
Wavelength	Amplitude
221.570786	0.000000
221.663406	0.000000
221.756027	0.000000
221.848648	0.000000
221.941269	0.000000
222.033905	0.000000
222.126526	0.000000
222.219162	0.000000
222.311798	0.000000
222.404419	0.000000
222.497055	0.000000
222.589676	0.000000
222.682312	0.000000
222.774933	0.000000
222.867569	0.000000
222.960205	0.000000
223.052841	0.000000
223.145462	0.000000
223.238098	0.000000
223.330734	0.000000
223.423386	0.000000
223.516022	0.000000
223.608658	0.000000
223.701309	0.000000
223.793945	0.000000
223.886581	0.000000
223.979218	0.000000
224.071869	0.000000
224.164505	0.000000
224.257156	0.000000
224.349792	0.000000
224.442444	0.000000
224.535095	0.000000
224.627747	0.000000
224.720398	0.000000
224.813034	0.000000
224.905685	0.000000
224.998337	145.680000
225.090988	145.480000
225.183640	145.540000
225.276291	145.240000
225.368942	145.460000
225.461594	146.300000
225.554245	146.300000
225.646912	146.340000
225.739578	146.740000
225.832230	146.880000
225.924896	145.680000
226.017548	146.280000
226.110199	146.560000
226.202866	146.060000
226.295532	145.960000
226.388184	146.000000
226.480850	145.480000
226.573517	144.840000
226.666168	145.040000
226.758835	145.180000
226.851501	145.620000
226.944183	145.520000
227.036850	145.380000
227.129517	145.400000
227.222183	145.580000
227.314850	145.560000
227.407516	146.080000
227.500198	146.960000
227.592865	146.600000
227.685532	146.020000
227.778214	145.680000
227.870880	145.860000
227.963562	145.860000
228.056229	146.620000
228.148926	146.880000
228.241592	147.900000
228.334274	147.320000
228.426956	147.180000
228.519638	146.820000
228.612305	146.460000
228.704987	146.380000
228.797668	146.720000
228.890350	146.420000
228.983032	145.800000
229.075714	146.620000
229.168396	145.760000
229.261108	145.300000
229.353790	145.340000
229.446472	145.940000
229.539169	145.660000
229.631851	145.520000
229.724533	145.900000
229.817230	146.100000
229.909912	147.060000
230.002609	147.040000
230.095306	147.220000
230.187988	147.000000
230.280685	146.920000
230.373383	145.520000
230.466095	145.300000
230.558792	145.640000
230.651474	145.620000
230.744171	145.220000
230.836868	145.060000
230.929581	145.560000
231.022278	145.520000
231.114975	145.680000
231.207672	145.920000
231.300369	146.520000
231.393082	146.260000
231.485779	145.980000
231.578506	146.180000
231.671204	146.320000
231.763916	146.540000
231.856613	146.400000
231.949326	146.580000
232.042023	146.120000
232.134735	145.980000
232.227448	145.540000
232.320160	145.760000
232.412872	145.580000
232.505585	146.320000
232.598297	146.780000
232.691010	146.860000
232.783722	146.320000
232.876450	146.920000
232.969162	146.140000
233.061874	145.540000
233.154587	145.300000
233.247314	145.800000
233.340027	145.260000
233.432739	145.980000
233.525467	145.900000
233.618179	146.320000
233.710907	145.840000
233.803635	146.080000
233.896347	145.740000
233.989090	146.480000
234.081818	146.420000
234.174545	146.760000
234.267258	146.540000
234.359985	146.560000
234.452713	146.340000
234.545441	146.040000
234.638168	145.860000
234.730896	146.280000
234.823639	146.000000
234.916367	146.000000
235.009094	145.820000
235.101822	146.060000
235.194580	145.860000
235.287308	146.120000
235.380051	145.920000
235.472778	146.480000
235.565521	146.400000
235.658249	146.200000
235.750992	146.400000
235.843719	146.660000
235.936462	146.660000
236.029205	146.240000
236.121948	146.240000
236.214691	146.400000
236.307449	146.780000
236.400192	146.500000
236.492935	146.720000
236.585678	146.800000
236.678421	146.720000
236.771164	146.320000
236.863907	146.700000
236.956665	146.880000
237.049408	148.440000
237.142151	147.900000
237.234909	148.660000
237.327652	148.380000
237.420410	147.940000
237.513153	146.760000
237.605927	146.720000
237.698669	145.820000
237.791428	145.560000
237.884186	146.440000
237.976944	145.880000
238.069702	146.220000
238.162445	145.840000
238.255203	145.840000
238.347961	145.680000
238.440720	145.800000
238.533478	145.860000
238.626266	145.780000
238.719025	146.180000
238.811783	146.000000
238.904541	145.880000
238.997314	145.560000
239.090073	145.420000
239.182831	145.500000
239.275604	146.280000
239.368362	146.240000
239.461136	146.360000
239.553909	146.660000
239.646667	146.560000
239.739441	145.740000
239.832214	145.800000
239.925003	146.040000
240.017761	146.980000
240.110535	147.360000
240.203308	147.040000
240.296082	147.420000
240.388855	147.300000
240.481628	146.820000
240.574417	146.620000
240.667191	146.680000
240.759964	146.100000
240.852737	146.120000
240.945526	145.820000
241.038315	145.620000
241.131088	145.880000
241.223877	146.460000
241.316650	146.120000
241.409439	146.660000
241.502228	146.580000
241.595001	147.040000
241.687790	146.540000
241.780579	146.800000
241.873367	146.620000
241.966141	146.920000
242.058929	146.060000
242.151718	146.240000
242.244507	146.460000
242.337311	145.620000
242.430099	145.740000
242.522903	146.040000
242.615692	145.700000
242.708481	145.660000
242.801270	146.220000
242.894073	146.020000
242.986862	146.140000
243.079651	147.000000
243.172455	146.260000
243.265244	146.740000
243.358063	146.060000
243.450867	146.220000
243.543655	146.020000
243.636459	146.360000
243.729263	146.320000
243.822067	146.920000
243.914856	147.140000
244.007660	147.080000
244.100464	147.360000
244.193268	146.760000
244.286072	146.500000
244.378876	145.600000
244.471680	145.620000
244.564499	145.880000
244.657318	146.820000
244.750122	147.020000
244.842926	147.240000
244.935745	147.260000
245.028549	146.840000
245.121368	146.140000
245.214172	146.120000
245.306992	146.900000
245.399796	146.300000
245.492615	146.300000
245.585434	146.200000
245.678253	146.600000
245.771072	146.200000
245.863892	146.880000
245.956711	147.000000
246.049530	146.620000
246.142349	145.920000
246.235168	145.880000
246.327988	146.400000
246.420807	146.380000
246.513626	146.700000
246.606445	146.780000
246.699280	146.560000
246.792099	145.940000
246.884918	145.440000
246.977753	145.160000
247.070587	145.400000
247.163422	145.480000
247.256241	145.360000
247.349075	145.760000
247.441895	145.960000
247.534729	145.800000
247.627563	145.540000
247.720383	146.140000
247.813217	146.000000
247.906052	146.060000
247.998886	146.140000
248.091736	146.240000
248.184570	145.640000
248.277405	145.880000
248.370239	146.760000
248.463074	147.620000
248.555908	147.920000
248.648743	147.920000
248.741592	148.120000
248.834427	147.060000
248.927261	145.840000
249.020111	146.100000
249.112946	146.640000
249.205795	146.080000
249.298630	146.580000
249.391495	146.940000
249.484344	146.280000
249.577179	146.000000
249.670029	146.180000
249.762878	146.420000
249.855728	146.540000
249.948563	146.900000
250.041412	146.320000
250.134262	146.800000
250.227112	146.740000
250.319962	146.540000
250.412827	146.700000
250.505692	146.540000
250.598541	145.860000
250.691391	145.360000
250.784241	145.400000
250.877106	145.480000
250.969955	145.660000
251.062805	146.640000
251.155670	147.240000
251.248520	147.280000
251.341385	147.300000
251.434235	147.180000
251.527100	146.540000
251.619965	146.120000
251.712814	146.840000
251.805695	146.800000
251.898560	146.980000
251.991425	147.100000
252.084290	147.120000
252.177155	146.140000
252.270020	145.540000
252.362885	145.740000
252.455750	145.840000
252.548615	145.640000
252.641479	145.940000
252.734360	146.300000
252.827240	146.220000
252.920105	146.400000
253.012970	146.340000
253.105850	146.380000
253.198715	145.700000
253.291595	145.460000
253.384460	144.880000
253.477341	144.760000
253.570221	144.800000
253.663086	145.260000
253.755966	145.960000
253.848846	146.140000
253.941727	146.560000
254.034592	146.500000
254.127472	145.800000
254.220367	145.760000
254.313248	145.720000
254.406128	145.660000
254.499008	145.920000
254.591904	147.360000
254.684784	147.820000
254.777664	148.080000
254.870544	147.440000
254.963440	147.160000
255.056335	146.840000
255.149216	146.160000
255.242111	146.520000
255.334991	147.260000
255.427887	147.260000
255.520767	147.340000
255.613663	147.720000
255.706558	147.220000
255.799438	147.000000
255.892334	146.900000
255.985229	146.640000
256.078125	146.200000
256.171021	146.240000
256.263916	146.480000
256.356812	146.760000
256.449707	147.060000
256.542603	147.000000
256.635498	147.280000
256.728394	147.200000
256.821289	146.920000
256.914215	146.720000
257.007080	146.980000
257.100006	146.820000
257.192932	146.940000
257.285828	147.200000
257.378723	147.140000
257.471619	146.840000
257.564545	146.400000
257.657440	147.020000
257.750336	147.400000
257.843262	147.380000
257.936157	148.480000
258.029053	148.780000
258.121979	148.260000
258.214874	147.640000
258.307800	147.660000
258.400696	146.680000
258.493622	146.900000
258.586517	146.060000
258.679443	146.360000
258.772339	145.880000
258.865265	145.700000
258.958160	145.120000
259.051086	146.080000
259.144012	145.880000
259.236938	146.800000
259.329834	146.960000
259.422791	146.820000
259.515717	145.980000
259.608612	145.720000
259.701538	145.580000
259.794464	145.460000
259.887390	145.580000
259.980316	145.740000
260.073212	145.680000
260.166138	144.800000
260.259064	145.220000
260.351990	146.000000
260.444916	146.100000
260.537842	146.700000
260.630768	147.460000
260.723694	147.240000
260.816620	146.680000
260.909546	146.840000
261.002472	146.460000
261.095398	145.760000
261.188354	145.660000
261.281281	145.560000
261.374207	145.580000
261.467133	146.200000
261.560089	146.640000
261.653015	146.300000
261.745972	146.980000
261.838867	147.540000
261.931824	147.560000
262.024780	147.040000
262.117706	147.580000
262.210663	147.140000
262.303589	146.560000
262.396515	146.200000
262.489471	147.300000
262.582397	146.840000
262.675354	146.480000
262.768280	146.480000
262.861237	146.560000
262.954163	146.080000
263.047119	146.560000
263.140045	146.620000
263.233002	146.740000
263.325958	146.360000
263.418884	145.880000
263.511841	145.740000
263.604797	145.800000
263.697723	145.460000
263.790680	145.580000
263.883636	146.140000
263.976593	146.040000
264.069550	146.140000
264.162476	146.060000
264.255463	146.160000
264.348419	145.880000
264.441376	145.900000
264.534332	145.440000
264.627289	145.660000
264.720245	145.960000
264.813202	145.560000
264.906158	145.780000
264.999115	146.680000
265.092072	146.700000
265.185028	146.960000
265.277985	147.460000
265.370941	147.380000
265.463898	146.840000
265.556854	146.960000
265.649811	146.180000
265.742798	146.180000
265.835754	146.200000
265.928711	146.920000
266.021667	146.480000
266.114655	146.640000
266.207611	146.840000
266.300568	146.080000
266.393585	145.420000
266.486511	145.900000
266.579498	145.320000
266.672485	145.000000
266.765442	145.240000
266.858429	145.580000
266.951385	145.080000
267.044342	145.260000
267.137329	145.200000
267.230316	145.500000
267.323273	144.960000
267.416260	145.640000
267.509216	145.780000
267.602203	145.700000
267.695160	146.220000
267.788147	146.320000
267.881134	145.480000
267.974091	145.700000
268.067078	145.480000
268.160065	145.000000
268.253052	145.120000
268.346008	145.480000
268.438995	145.160000
268.531982	145.700000
268.624969	145.380000
268.717987	145.520000
268.810944	145.480000
268.903961	145.700000
268.996948	145.000000
269.089905	145.880000
269.182892	146.180000
269.275879	146.540000
269.368866	146.080000
269.461853	146.540000
269.554871	146.080000
269.647858	146.060000
269.740845	146.140000
269.833832	146.740000
269.926819	146.480000
270.019806	146.600000
270.112793	146.120000
270.205811	145.940000
270.298798	145.840000
270.391785	146.700000
270.484772	146.140000
270.577789	146.140000
270.670776	146.280000
270.763763	146.280000
270.856750	146.060000
270.949768	146.340000
271.042786	146.480000
271.135773	145.900000
271.228790	146.080000
271.321808	145.480000
271.414795	145.300000
271.507782	145.100000
271.600800	145.380000
271.693817	145.360000
271.786804	146.000000
271.879822	146.260000
271.972809	146.180000
272.065826	146.700000
272.158844	146.300000
272.251831	146.520000
272.344849	146.440000
272.437866	146.300000
272.530853	145.740000
272.623871	146.120000
272.716888	145.280000
272.809906	145.740000
272.902893	146.120000
272.995911	145.780000
273.088928	145.740000
273.181946	146.200000
273.274963	145.620000
273.367981	145.320000
273.460999	145.740000
273.554047	146.420000
273.647003	146.900000
273.740051	147.160000
273.833069	147.440000
273.926086	147.560000
274.019135	146.580000
274.112152	146.060000
274.205170	146.180000
274.298187	146.500000
274.391205	145.900000
274.484222	145.980000
274.577240	145.840000
274.670258	145.800000
274.763306	145.580000
274.856323	146.280000
274.949341	146.600000
275.042358	147.040000
275.135406	146.680000
275.228424	146.640000
275.321442	146.580000
275.414490	145.980000
275.507507	146.480000
275.600525	147.140000
275.693573	146.780000
275.786591	146.300000
275.879669	146.900000
275.972656	146.080000
276.065735	145.660000
276.158752	146.280000
276.251801	147.420000
276.344818	147.260000
276.437866	147.080000
276.530884	146.820000
276.623932	145.980000
276.716980	145.720000
276.809998	145.760000
276.903046	146.320000
276.996094	147.080000
277.089111	147.980000
277.182159	148.020000
277.275208	147.940000
277.368256	147.160000
277.461304	146.760000
277.554321	145.740000
277.647369	145.880000
277.740417	145.800000
277.833466	145.960000
277.926514	145.680000
278.019562	146.600000
278.112610	145.460000
278.205688	145.660000
278.298706	145.840000
278.391785	145.980000
278.484833	145.360000
278.577881	145.680000
278.670929	145.860000
278.763977	145.900000
278.857025	146.080000
278.950073	146.460000
279.043121	146.380000
279.136169	146.120000
279.229248	145.860000
279.322296	145.560000
279.415344	145.260000
279.508392	145.100000
279.601440	145.080000
279.694519	145.220000
279.787567	144.980000
279.880615	144.780000
279.973694	145.040000
280.066742	145.140000
280.159790	145.160000
280.252869	145.160000
280.345917	145.540000
280.438995	145.700000
280.532074	145.740000
280.625122	146.060000
280.718201	147.160000
280.811279	147.000000
280.904327	146.880000
280.997406	146.920000
281.090454	146.840000
281.183533	146.100000
281.276581	146.140000
281.369659	145.900000
281.462738	145.760000
281.555786	145.660000
281.648865	145.860000
281.741943	145.620000
281.835022	146.060000
281.928070	146.020000
282.021149	145.780000
282.114227	145.320000
282.207306	145.360000
282.300385	145.660000
282.393433	145.840000
282.486511	146.040000
282.579590	146.740000
282.672668	147.240000
282.765747	146.660000
282.858856	146.460000
282.951904	146.420000
283.045013	146.280000
283.138062	146.200000
283.231171	146.300000
283.324249	146.520000
283.417328	146.860000
283.510406	146.480000
283.603485	146.360000
283.696564	146.380000
283.789642	146.360000
283.882751	145.880000
283.975830	146.220000
284.068909	146.000000
284.161987	146.360000
284.255066	145.600000
284.348175	145.680000
284.441254	145.700000
284.534332	146.200000
284.627441	145.740000
284.720520	145.980000
284.813599	146.260000
284.906708	146.420000
284.999786	145.980000
285.092896	145.700000
285.185974	146.680000
285.279053	146.080000
285.372192	145.860000
285.465240	146.500000
285.558380	146.540000
285.651459	145.860000
285.744568	146.860000
285.837677	146.460000
285.930756	146.100000
286.023865	146.440000
286.116943	146.000000
286.210052	145.740000
286.303162	145.820000
286.396240	146.000000
286.489349	145.820000
286.582458	146.320000
286.675568	146.060000
286.768646	146.340000
286.861755	146.580000
286.954865	147.120000
287.047974	146.580000
287.141083	146.200000
287.234161	145.900000
287.327271	145.460000
287.420380	145.680000
287.513519	145.760000
287.606598	146.120000
287.699738	146.120000
287.792816	146.200000
287.885956	145.880000
287.979034	146.220000
288.072174	146.200000
288.165283	146.260000
288.258392	146.340000
288.351501	145.680000
288.444611	145.840000
288.537720	146.220000
288.630859	146.160000
288.723969	146.200000
288.817078	146.720000
288.910187	146.760000
289.003296	146.320000
289.096436	146.360000
289.189545	146.040000
289.282654	145.440000
289.375763	145.600000
289.468903	146.000000
289.562012	146.020000
289.655121	146.280000
289.748260	146.700000
289.841400	146.860000
289.934509	146.500000
290.027649	146.800000
290.120728	146.620000
290.213898	146.520000
290.306976	145.980000
290.400146	146.360000
290.493256	145.900000
290.586395	146.100000
290.679535	146.260000
290.772644	146.340000
290.865784	145.380000
290.958893	145.460000
291.052032	144.980000
291.145172	145.000000
291.238281	144.540000
291.331421	145.040000
291.424561	145.480000
291.517670	145.680000
291.610809	145.780000
291.703949	145.820000
291.797089	145.940000
291.890228	145.460000
291.983337	145.300000
292.076477	145.160000
292.169617	145.840000
292.262756	145.780000
292.355927	145.720000
292.449036	145.360000
292.542206	145.620000
292.635315	145.560000
292.728485	145.800000
292.821625	145.560000
292.914764	146.900000
293.007904	147.040000
293.101044	146.760000
293.194183	146.340000
293.287323	146.840000
293.380463	145.940000
293.473602	145.180000
293.566742	145.580000
293.659882	145.780000
293.753021	145.640000
293.846191	145.720000
293.939331	145.660000
294.032471	145.300000
294.125610	145.160000
294.218781	145.740000
294.311920	146.140000
294.405060	146.460000
294.498230	146.680000
294.591370	147.120000
294.684540	146.200000
294.777679	145.640000
294.870850	146.020000
294.963959	145.840000
295.057159	145.300000
295.150299	145.920000
295.243469	146.140000
295.336609	145.560000
295.429779	145.460000
295.522919	146.160000
295.616089	145.940000
295.709229	146.340000
295.802399	146.840000
295.895569	146.760000
295.988708	146.200000
296.081879	146.440000
296.175018	145.900000
296.268188	145.720000
296.361359	146.080000
296.454529	146.180000
296.547668	145.820000
296.640839	146.000000
296.734009	145.640000
296.827179	145.720000
296.920319	146.000000
297.013519	146.140000
297.106659	146.540000
297.199860	146.620000
297.292999	146.600000
297.386200	146.260000
297.479309	146.040000
297.572510	145.820000
297.665680	145.620000
297.758850	145.580000
297.852020	145.820000
297.945190	145.940000
298.038361	145.580000
298.131531	146.900000
298.224701	146.580000
298.317871	146.180000
298.411072	145.700000
298.504242	145.400000
298.597412	144.340000
298.690582	144.600000
298.783752	144.700000
298.876923	145.280000
298.970093	145.740000
299.063293	146.440000
299.156464	146.700000
299.249634	146.900000
299.342834	147.020000
299.436005	147.400000
299.529205	147.100000
299.622345	146.980000
299.715576	146.420000
299.808716	146.240000
299.901917	145.980000
299.995117	146.180000
300.088287	146.200000
300.181488	146.060000
300.274658	145.960000
300.367828	145.960000
300.461029	145.560000
300.554199	145.500000
300.647400	145.760000
300.740601	146.160000
300.833771	145.560000
300.926971	146.140000
301.020142	145.760000
301.113342	145.980000
301.206512	145.800000
301.299713	146.360000
301.392914	146.020000
301.486084	146.400000
301.579285	146.100000
301.672516	146.300000
301.765686	146.200000
301.858887	146.000000
301.952057	146.020000
302.045288	146.440000
302.138458	146.200000
302.231659	146.100000
302.324860	146.140000
302.418060	145.660000
302.511261	145.240000
302.604462	145.400000
302.697662	145.400000
302.790863	145.400000
302.884064	145.360000
302.977264	145.500000
303.070465	145.800000
303.163666	146.540000
303.256866	146.780000
303.350067	147.100000
303.443268	147.340000
303.536469	147.320000
303.629669	146.560000
303.722870	146.720000
303.816071	146.380000
303.909271	146.260000
304.002472	145.240000
304.095673	145.000000
304.188934	144.100000
304.282104	145.200000
304.375336	145.220000
304.468506	145.660000
304.561768	145.660000
304.654968	146.240000
304.748169	145.380000
304.841370	145.080000
304.934601	145.260000
305.027802	145.180000
305.121002	144.800000
305.214233	144.760000
305.307434	145.100000
305.400665	145.780000
305.493866	145.540000
