Model Number: SPM-002-B   
Serial Number: 70087108
Firmware Version: 004.15.4
Exposure Time: 100000.000000us
Data Taken on: 11-12-2020 19:31:52.546
Wavelength	Amplitude
221.570786	0.000000
221.663406	0.000000
221.756027	0.000000
221.848648	0.000000
221.941269	0.000000
222.033905	0.000000
222.126526	0.000000
222.219162	0.000000
222.311798	0.000000
222.404419	0.000000
222.497055	0.000000
222.589676	0.000000
222.682312	0.000000
222.774933	0.000000
222.867569	0.000000
222.960205	0.000000
223.052841	0.000000
223.145462	0.000000
223.238098	0.000000
223.330734	0.000000
223.423386	0.000000
223.516022	0.000000
223.608658	0.000000
223.701309	0.000000
223.793945	0.000000
223.886581	0.000000
223.979218	0.000000
224.071869	0.000000
224.164505	0.000000
224.257156	0.000000
224.349792	0.000000
224.442444	0.000000
224.535095	0.000000
224.627747	0.000000
224.720398	0.000000
224.813034	0.000000
224.905685	0.000000
224.998337	145.120000
225.090988	144.580000
225.183640	144.540000
225.276291	144.720000
225.368942	145.260000
225.461594	145.740000
225.554245	145.960000
225.646912	146.020000
225.739578	146.260000
225.832230	146.280000
225.924896	145.480000
226.017548	145.960000
226.110199	146.560000
226.202866	146.220000
226.295532	145.980000
226.388184	146.000000
226.480850	145.380000
226.573517	144.860000
226.666168	145.000000
226.758835	145.520000
226.851501	146.340000
226.944183	146.580000
227.036850	146.080000
227.129517	146.260000
227.222183	146.080000
227.314850	145.780000
227.407516	146.020000
227.500198	146.960000
227.592865	146.260000
227.685532	146.060000
227.778214	145.820000
227.870880	146.200000
227.963562	146.400000
228.056229	147.120000
228.148926	146.900000
228.241592	147.660000
228.334274	147.080000
228.426956	146.640000
228.519638	146.540000
228.612305	145.980000
228.704987	145.640000
228.797668	145.440000
228.890350	145.380000
228.983032	144.680000
229.075714	145.940000
229.168396	145.360000
229.261108	145.340000
229.353790	145.220000
229.446472	145.740000
229.539169	145.320000
229.631851	145.300000
229.724533	145.520000
229.817230	145.840000
229.909912	146.660000
230.002609	146.760000
230.095306	146.980000
230.187988	147.140000
230.280685	146.900000
230.373383	145.940000
230.466095	145.520000
230.558792	145.680000
230.651474	145.520000
230.744171	145.360000
230.836868	145.300000
230.929581	145.580000
231.022278	145.540000
231.114975	145.620000
231.207672	145.540000
231.300369	145.860000
231.393082	146.000000
231.485779	145.580000
231.578506	145.600000
231.671204	145.900000
231.763916	145.840000
231.856613	145.780000
231.949326	146.420000
232.042023	146.320000
232.134735	146.040000
232.227448	145.760000
232.320160	145.860000
232.412872	145.780000
232.505585	146.420000
232.598297	147.080000
232.691010	147.000000
232.783722	146.500000
232.876450	146.720000
232.969162	146.200000
233.061874	145.640000
233.154587	145.580000
233.247314	146.100000
233.340027	145.680000
233.432739	146.180000
233.525467	146.140000
233.618179	146.720000
233.710907	146.440000
233.803635	146.860000
233.896347	146.280000
233.989090	146.860000
234.081818	146.640000
234.174545	146.780000
234.267258	146.060000
234.359985	146.440000
234.452713	146.240000
234.545441	145.900000
234.638168	145.920000
234.730896	146.760000
234.823639	146.360000
234.916367	146.420000
235.009094	146.640000
235.101822	146.700000
235.194580	146.180000
235.287308	146.120000
235.380051	145.620000
235.472778	146.000000
235.565521	146.020000
235.658249	146.000000
235.750992	146.060000
235.843719	146.140000
235.936462	146.020000
236.029205	145.880000
236.121948	145.860000
236.214691	146.480000
236.307449	147.040000
236.400192	146.740000
236.492935	146.080000
236.585678	146.000000
236.678421	145.880000
236.771164	145.500000
236.863907	146.060000
236.956665	146.860000
237.049408	148.520000
237.142151	148.040000
237.234909	148.720000
237.327652	148.600000
237.420410	148.200000
237.513153	147.080000
237.605927	147.040000
237.698669	146.380000
237.791428	145.900000
237.884186	146.440000
237.976944	145.740000
238.069702	145.820000
238.162445	145.440000
238.255203	145.620000
238.347961	145.960000
238.440720	146.100000
238.533478	146.180000
238.626266	145.960000
238.719025	146.240000
238.811783	145.940000
238.904541	145.900000
238.997314	145.820000
239.090073	146.060000
239.182831	145.960000
239.275604	146.380000
239.368362	146.320000
239.461136	146.520000
239.553909	146.540000
239.646667	146.440000
239.739441	146.020000
239.832214	146.180000
239.925003	146.280000
240.017761	147.000000
240.110535	147.660000
240.203308	147.160000
240.296082	147.340000
240.388855	146.740000
240.481628	146.580000
240.574417	146.140000
240.667191	146.240000
240.759964	145.920000
240.852737	146.160000
240.945526	145.740000
241.038315	145.600000
241.131088	145.700000
241.223877	145.920000
241.316650	145.540000
241.409439	145.860000
241.502228	145.580000
241.595001	146.060000
241.687790	145.840000
241.780579	146.120000
241.873367	146.160000
241.966141	146.580000
242.058929	146.060000
242.151718	146.600000
242.244507	147.140000
242.337311	146.380000
242.430099	146.860000
242.522903	146.980000
242.615692	146.320000
242.708481	145.860000
242.801270	146.640000
242.894073	146.400000
242.986862	146.600000
243.079651	147.120000
243.172455	146.880000
243.265244	146.800000
243.358063	145.840000
243.450867	146.080000
243.543655	145.840000
243.636459	145.980000
243.729263	146.100000
243.822067	146.660000
243.914856	146.680000
244.007660	146.820000
244.100464	146.880000
244.193268	146.440000
244.286072	146.300000
244.378876	145.660000
244.471680	145.460000
244.564499	145.660000
244.657318	146.440000
244.750122	146.720000
244.842926	146.440000
244.935745	146.880000
245.028549	146.540000
245.121368	145.720000
245.214172	145.440000
245.306992	145.860000
245.399796	145.320000
245.492615	145.560000
245.585434	145.540000
245.678253	145.480000
245.771072	145.300000
245.863892	145.880000
245.956711	146.060000
246.049530	145.940000
246.142349	145.880000
246.235168	145.820000
246.327988	146.040000
246.420807	145.340000
246.513626	145.620000
246.606445	145.400000
246.699280	145.440000
246.792099	145.000000
246.884918	145.260000
246.977753	145.260000
247.070587	145.540000
247.163422	145.520000
247.256241	145.680000
247.349075	146.000000
247.441895	145.920000
247.534729	146.200000
247.627563	146.120000
247.720383	146.600000
247.813217	146.300000
247.906052	146.220000
247.998886	145.960000
248.091736	146.120000
248.184570	145.460000
248.277405	145.720000
248.370239	146.480000
248.463074	147.380000
248.555908	147.580000
248.648743	147.420000
248.741592	147.340000
248.834427	146.860000
248.927261	145.480000
249.020111	145.800000
249.112946	146.600000
249.205795	146.360000
249.298630	146.340000
249.391495	146.880000
249.484344	146.560000
249.577179	146.180000
249.670029	146.460000
249.762878	146.660000
249.855728	146.680000
249.948563	146.800000
250.041412	146.060000
250.134262	146.140000
250.227112	146.160000
250.319962	146.040000
250.412827	145.740000
250.505692	145.520000
250.598541	145.440000
250.691391	144.900000
250.784241	145.020000
250.877106	145.320000
250.969955	145.460000
251.062805	146.080000
251.155670	147.120000
251.248520	147.120000
251.341385	147.260000
251.434235	147.340000
251.527100	146.740000
251.619965	146.040000
251.712814	146.480000
251.805695	146.360000
251.898560	146.720000
251.991425	147.080000
252.084290	147.300000
252.177155	146.660000
252.270020	146.180000
252.362885	146.200000
252.455750	146.380000
252.548615	146.000000
252.641479	145.820000
252.734360	145.920000
252.827240	145.480000
252.920105	145.080000
253.012970	145.040000
253.105850	145.480000
253.198715	145.200000
253.291595	145.580000
253.384460	145.140000
253.477341	144.980000
253.570221	144.780000
253.663086	145.060000
253.755966	145.820000
253.848846	146.220000
253.941727	146.620000
254.034592	147.000000
254.127472	146.460000
254.220367	145.960000
254.313248	145.920000
254.406128	145.380000
254.499008	145.220000
254.591904	146.100000
254.684784	146.700000
254.777664	146.600000
254.870544	146.540000
254.963440	146.480000
255.056335	146.540000
255.149216	145.920000
255.242111	146.600000
255.334991	147.140000
255.427887	147.260000
255.520767	147.160000
255.613663	147.260000
255.706558	146.400000
255.799438	146.120000
255.892334	145.820000
255.985229	145.580000
256.078125	145.340000
256.171021	145.820000
256.263916	146.400000
256.356812	146.820000
256.449707	147.080000
256.542603	146.920000
256.635498	146.920000
256.728394	146.780000
256.821289	146.200000
256.914215	146.340000
257.007080	146.640000
257.100006	146.700000
257.192932	146.820000
257.285828	147.040000
257.378723	146.680000
257.471619	146.500000
257.564545	145.820000
257.657440	145.860000
257.750336	146.320000
257.843262	146.240000
257.936157	147.040000
258.029053	147.500000
258.121979	147.440000
258.214874	147.040000
258.307800	146.960000
258.400696	145.920000
258.493622	145.900000
258.586517	145.040000
258.679443	145.460000
258.772339	145.380000
258.865265	145.440000
258.958160	145.020000
259.051086	146.020000
259.144012	145.560000
259.236938	146.140000
259.329834	146.420000
259.422791	146.460000
259.515717	145.740000
259.608612	145.580000
259.701538	145.600000
259.794464	145.400000
259.887390	145.580000
259.980316	145.780000
260.073212	145.700000
260.166138	144.640000
260.259064	145.100000
260.351990	145.820000
260.444916	145.880000
260.537842	146.480000
260.630768	147.520000
260.723694	147.360000
260.816620	146.860000
260.909546	146.880000
261.002472	146.180000
261.095398	145.700000
261.188354	145.340000
261.281281	145.020000
261.374207	145.120000
261.467133	146.080000
261.560089	146.220000
261.653015	146.400000
261.745972	146.820000
261.838867	146.900000
261.931824	146.700000
262.024780	146.140000
262.117706	146.260000
262.210663	146.340000
262.303589	146.080000
262.396515	145.900000
262.489471	147.220000
262.582397	147.140000
262.675354	146.660000
262.768280	146.760000
262.861237	146.880000
262.954163	146.400000
263.047119	146.580000
263.140045	146.580000
263.233002	146.380000
263.325958	146.180000
263.418884	145.620000
263.511841	145.200000
263.604797	145.260000
263.697723	145.260000
263.790680	145.320000
263.883636	145.920000
263.976593	145.620000
264.069550	145.980000
264.162476	146.000000
264.255463	145.920000
264.348419	145.420000
264.441376	146.080000
264.534332	145.680000
264.627289	145.820000
264.720245	146.180000
264.813202	145.760000
264.906158	146.000000
264.999115	146.580000
265.092072	146.520000
265.185028	146.680000
265.277985	147.240000
265.370941	146.820000
265.463898	146.460000
265.556854	146.220000
265.649811	145.500000
265.742798	145.560000
265.835754	145.580000
265.928711	145.840000
266.021667	145.900000
266.114655	146.280000
266.207611	146.500000
266.300568	146.160000
266.393585	145.460000
266.486511	146.040000
266.579498	145.280000
266.672485	145.080000
266.765442	145.240000
266.858429	146.260000
266.951385	145.520000
267.044342	145.840000
267.137329	145.780000
267.230316	146.040000
267.323273	144.960000
267.416260	145.660000
267.509216	145.620000
267.602203	145.540000
267.695160	145.920000
267.788147	146.220000
267.881134	145.780000
267.974091	146.240000
268.067078	146.340000
268.160065	146.000000
268.253052	146.020000
268.346008	145.960000
268.438995	145.480000
268.531982	145.500000
268.624969	145.220000
268.717987	145.740000
268.810944	145.800000
268.903961	146.100000
268.996948	145.740000
269.089905	146.280000
269.182892	146.120000
269.275879	146.480000
269.368866	145.840000
269.461853	146.440000
269.554871	146.100000
269.647858	146.040000
269.740845	146.240000
269.833832	146.960000
269.926819	146.360000
270.019806	146.480000
270.112793	146.100000
270.205811	146.100000
270.298798	145.960000
270.391785	146.560000
270.484772	146.360000
270.577789	146.280000
270.670776	145.700000
270.763763	145.700000
270.856750	145.360000
270.949768	145.020000
271.042786	145.220000
271.135773	145.560000
271.228790	145.900000
271.321808	145.720000
271.414795	145.560000
271.507782	145.260000
271.600800	144.760000
271.693817	144.660000
271.786804	145.300000
271.879822	145.900000
271.972809	146.140000
272.065826	146.660000
272.158844	146.100000
272.251831	146.100000
272.344849	146.140000
272.437866	146.180000
272.530853	146.060000
272.623871	146.520000
272.716888	145.620000
272.809906	145.540000
272.902893	145.220000
272.995911	144.840000
273.088928	144.680000
273.181946	145.100000
273.274963	145.020000
273.367981	145.380000
273.460999	145.740000
273.554047	146.280000
273.647003	146.960000
273.740051	147.420000
273.833069	147.600000
273.926086	147.880000
274.019135	147.200000
274.112152	146.860000
274.205170	146.460000
274.298187	146.800000
274.391205	145.940000
274.484222	146.480000
274.577240	146.140000
274.670258	146.180000
274.763306	145.760000
274.856323	146.440000
274.949341	145.960000
275.042358	146.660000
275.135406	146.500000
275.228424	146.520000
275.321442	146.480000
275.414490	146.360000
275.507507	146.160000
275.600525	146.580000
275.693573	146.420000
275.786591	146.180000
275.879669	146.540000
275.972656	146.080000
276.065735	145.700000
276.158752	146.140000
276.251801	146.760000
276.344818	146.900000
276.437866	147.240000
276.530884	146.900000
276.623932	146.060000
276.716980	145.980000
276.809998	145.660000
276.903046	145.520000
276.996094	146.700000
277.089111	147.540000
277.182159	148.040000
277.275208	147.860000
277.368256	147.860000
277.461304	147.340000
277.554321	146.560000
277.647369	145.900000
277.740417	145.980000
277.833466	146.200000
277.926514	145.980000
278.019562	146.660000
278.112610	146.240000
278.205688	146.560000
278.298706	146.340000
278.391785	146.020000
278.484833	145.600000
278.577881	145.560000
278.670929	145.740000
278.763977	145.880000
278.857025	146.560000
278.950073	146.600000
279.043121	146.500000
279.136169	146.140000
279.229248	145.700000
279.322296	145.260000
279.415344	145.060000
279.508392	145.300000
279.601440	145.200000
279.694519	145.380000
279.787567	145.320000
279.880615	145.280000
279.973694	145.300000
280.066742	145.300000
280.159790	145.240000
280.252869	144.980000
280.345917	145.360000
280.438995	144.980000
280.532074	144.880000
280.625122	145.060000
280.718201	146.260000
280.811279	146.060000
280.904327	146.380000
280.997406	146.640000
281.090454	146.660000
281.183533	145.800000
281.276581	145.860000
281.369659	145.600000
281.462738	145.660000
281.555786	145.620000
281.648865	145.740000
281.741943	145.460000
281.835022	146.220000
281.928070	146.140000
282.021149	146.260000
282.114227	146.020000
282.207306	146.260000
282.300385	146.080000
282.393433	146.280000
282.486511	146.040000
282.579590	146.700000
282.672668	146.920000
282.765747	146.720000
282.858856	146.460000
282.951904	146.880000
283.045013	146.960000
283.138062	147.160000
283.231171	147.240000
283.324249	147.560000
283.417328	147.640000
283.510406	146.960000
283.603485	146.700000
283.696564	146.660000
283.789642	146.260000
283.882751	145.800000
283.975830	146.560000
284.068909	146.400000
284.161987	146.580000
284.255066	146.140000
284.348175	146.320000
284.441254	145.820000
284.534332	146.300000
284.627441	145.940000
284.720520	146.260000
284.813599	146.400000
284.906708	146.180000
284.999786	145.280000
285.092896	145.080000
285.185974	145.820000
285.279053	145.080000
285.372192	145.220000
285.465240	146.240000
285.558380	146.340000
285.651459	145.820000
285.744568	146.560000
285.837677	146.160000
285.930756	145.820000
286.023865	145.860000
286.116943	145.700000
286.210052	145.760000
286.303162	146.100000
286.396240	146.040000
286.489349	146.040000
286.582458	146.200000
286.675568	145.720000
286.768646	145.740000
286.861755	145.920000
286.954865	146.400000
287.047974	146.100000
287.141083	146.160000
287.234161	145.800000
287.327271	145.580000
287.420380	145.760000
287.513519	145.900000
287.606598	146.040000
287.699738	146.240000
287.792816	146.180000
287.885956	145.980000
287.979034	145.980000
288.072174	146.180000
288.165283	146.200000
288.258392	146.480000
288.351501	146.100000
288.444611	146.460000
288.537720	146.600000
288.630859	146.500000
288.723969	146.620000
288.817078	146.820000
288.910187	146.520000
289.003296	145.860000
289.096436	145.540000
289.189545	145.140000
289.282654	144.680000
289.375763	145.260000
289.468903	145.920000
289.562012	146.420000
289.655121	146.640000
289.748260	146.860000
289.841400	146.780000
289.934509	146.520000
290.027649	146.580000
290.120728	146.400000
290.213898	146.480000
290.306976	146.320000
290.400146	146.640000
290.493256	146.280000
290.586395	146.520000
290.679535	146.780000
290.772644	146.220000
290.865784	145.260000
290.958893	145.440000
291.052032	144.940000
291.145172	144.380000
291.238281	144.440000
291.331421	144.920000
291.424561	145.360000
291.517670	145.440000
291.610809	145.960000
291.703949	146.020000
291.797089	145.940000
291.890228	145.600000
291.983337	145.540000
292.076477	145.240000
292.169617	145.500000
292.262756	145.560000
292.355927	145.560000
292.449036	145.420000
292.542206	145.520000
292.635315	145.840000
292.728485	146.140000
292.821625	145.920000
292.914764	147.160000
293.007904	147.280000
293.101044	147.000000
293.194183	147.020000
293.287323	147.220000
293.380463	146.560000
293.473602	146.300000
293.566742	146.560000
293.659882	146.680000
293.753021	146.840000
293.846191	146.520000
293.939331	146.300000
294.032471	146.000000
294.125610	145.660000
294.218781	145.880000
294.311920	146.460000
294.405060	146.620000
294.498230	146.500000
294.591370	146.400000
294.684540	145.760000
294.777679	145.260000
294.870850	145.860000
294.963959	145.980000
295.057159	145.700000
295.150299	145.880000
295.243469	145.840000
295.336609	145.300000
295.429779	145.300000
295.522919	146.060000
295.616089	146.080000
295.709229	146.360000
295.802399	146.460000
295.895569	146.040000
295.988708	145.480000
296.081879	145.720000
296.175018	145.460000
296.268188	145.440000
296.361359	146.240000
296.454529	146.520000
296.547668	146.520000
296.640839	146.700000
296.734009	146.460000
296.827179	146.300000
296.920319	146.400000
297.013519	145.880000
297.106659	145.800000
297.199860	145.700000
297.292999	145.460000
297.386200	145.260000
297.479309	145.140000
297.572510	145.200000
297.665680	145.120000
297.758850	145.080000
297.852020	145.060000
297.945190	145.240000
298.038361	144.500000
298.131531	145.480000
298.224701	145.500000
298.317871	145.160000
298.411072	144.540000
298.504242	144.960000
298.597412	144.380000
298.690582	144.340000
298.783752	144.500000
298.876923	145.480000
298.970093	145.500000
299.063293	145.940000
299.156464	146.400000
299.249634	146.500000
299.342834	146.680000
299.436005	147.120000
299.529205	146.900000
299.622345	146.780000
299.715576	146.340000
299.808716	145.900000
299.901917	145.640000
299.995117	145.680000
300.088287	145.580000
300.181488	145.700000
300.274658	145.640000
300.367828	145.600000
300.461029	145.380000
300.554199	145.840000
300.647400	145.900000
300.740601	146.240000
300.833771	146.320000
300.926971	146.880000
301.020142	145.900000
301.113342	145.860000
301.206512	145.960000
301.299713	146.100000
301.392914	145.920000
301.486084	146.280000
301.579285	146.380000
301.672516	146.580000
301.765686	146.360000
301.858887	146.120000
301.952057	146.120000
302.045288	146.140000
302.138458	145.700000
302.231659	145.460000
302.324860	145.400000
302.418060	145.280000
302.511261	145.420000
302.604462	145.860000
302.697662	145.940000
302.790863	145.760000
302.884064	145.620000
302.977264	145.660000
303.070465	145.760000
303.163666	146.400000
303.256866	146.840000
303.350067	146.860000
303.443268	146.640000
303.536469	146.680000
303.629669	146.220000
303.722870	146.400000
303.816071	146.620000
303.909271	146.940000
304.002472	146.020000
304.095673	145.600000
304.188934	144.600000
304.282104	145.400000
304.375336	145.200000
304.468506	145.340000
304.561768	145.500000
304.654968	146.180000
304.748169	145.500000
304.841370	145.220000
304.934601	145.580000
305.027802	145.340000
305.121002	145.160000
305.214233	145.400000
305.307434	145.440000
305.400665	145.940000
305.493866	146.220000
