Model Number: SPM-002-B   
Serial Number: 70087108
Firmware Version: 004.15.4
Exposure Time: 100000.000000us
Data Taken on: 11-12-2020 19:32:22.695
Wavelength	Amplitude
221.570786	0.000000
221.663406	0.000000
221.756027	0.000000
221.848648	0.000000
221.941269	0.000000
222.033905	0.000000
222.126526	0.000000
222.219162	0.000000
222.311798	0.000000
222.404419	0.000000
222.497055	0.000000
222.589676	0.000000
222.682312	0.000000
222.774933	0.000000
222.867569	0.000000
222.960205	0.000000
223.052841	0.000000
223.145462	0.000000
223.238098	0.000000
223.330734	0.000000
223.423386	0.000000
223.516022	0.000000
223.608658	0.000000
223.701309	0.000000
223.793945	0.000000
223.886581	0.000000
223.979218	0.000000
224.071869	0.000000
224.164505	0.000000
224.257156	0.000000
224.349792	0.000000
224.442444	0.000000
224.535095	0.000000
224.627747	0.000000
224.720398	0.000000
224.813034	0.000000
224.905685	0.000000
224.998337	144.320000
225.090988	144.060000
225.183640	144.180000
225.276291	144.260000
225.368942	144.960000
225.461594	145.280000
225.554245	145.760000
225.646912	145.420000
225.739578	146.240000
225.832230	146.520000
225.924896	145.720000
226.017548	145.800000
226.110199	146.640000
226.202866	145.600000
226.295532	145.200000
226.388184	145.300000
226.480850	144.740000
226.573517	144.260000
226.666168	144.540000
226.758835	144.980000
226.851501	145.340000
226.944183	145.640000
227.036850	145.320000
227.129517	145.560000
227.222183	145.360000
227.314850	145.120000
227.407516	145.280000
227.500198	145.960000
227.592865	145.520000
227.685532	145.260000
227.778214	145.180000
227.870880	145.260000
227.963562	145.580000
228.056229	145.900000
228.148926	145.980000
228.241592	146.840000
228.334274	146.800000
228.426956	146.360000
228.519638	146.560000
228.612305	146.320000
228.704987	145.900000
228.797668	145.760000
228.890350	145.640000
228.983032	144.980000
229.075714	145.820000
229.168396	145.820000
229.261108	145.580000
229.353790	145.420000
229.446472	146.140000
229.539169	145.720000
229.631851	145.160000
229.724533	145.360000
229.817230	145.720000
229.909912	146.300000
230.002609	146.140000
230.095306	146.180000
230.187988	146.040000
230.280685	145.740000
230.373383	144.360000
230.466095	144.500000
230.558792	144.800000
230.651474	145.060000
230.744171	145.020000
230.836868	145.260000
230.929581	145.400000
231.022278	145.520000
231.114975	145.380000
231.207672	145.220000
231.300369	145.600000
231.393082	145.540000
231.485779	145.460000
231.578506	145.560000
231.671204	145.900000
231.763916	146.000000
231.856613	145.720000
231.949326	145.760000
232.042023	145.640000
232.134735	145.380000
232.227448	144.960000
232.320160	145.380000
232.412872	145.320000
232.505585	146.220000
232.598297	146.540000
232.691010	146.580000
232.783722	146.200000
232.876450	146.780000
232.969162	145.940000
233.061874	145.540000
233.154587	145.560000
233.247314	145.620000
233.340027	145.020000
233.432739	145.480000
233.525467	145.740000
233.618179	146.080000
233.710907	145.740000
233.803635	146.200000
233.896347	145.880000
233.989090	146.180000
234.081818	145.700000
234.174545	146.220000
234.267258	145.260000
234.359985	145.440000
234.452713	145.300000
234.545441	145.440000
234.638168	145.140000
234.730896	146.240000
234.823639	146.080000
234.916367	146.340000
235.009094	146.400000
235.101822	146.520000
235.194580	146.040000
235.287308	146.000000
235.380051	145.200000
235.472778	145.320000
235.565521	145.280000
235.658249	145.000000
235.750992	145.140000
235.843719	145.460000
235.936462	145.620000
236.029205	145.340000
236.121948	145.060000
236.214691	145.160000
236.307449	145.580000
236.400192	145.280000
236.492935	145.340000
236.585678	145.660000
236.678421	145.560000
236.771164	145.060000
236.863907	145.640000
236.956665	145.980000
237.049408	147.580000
237.142151	146.800000
237.234909	147.580000
237.327652	147.200000
237.420410	146.900000
237.513153	145.820000
237.605927	145.960000
237.698669	145.340000
237.791428	144.660000
237.884186	145.040000
237.976944	144.480000
238.069702	145.100000
238.162445	144.980000
238.255203	145.320000
238.347961	145.680000
238.440720	145.680000
238.533478	145.640000
238.626266	145.580000
238.719025	145.860000
238.811783	145.460000
238.904541	145.700000
238.997314	145.180000
239.090073	144.940000
239.182831	145.160000
239.275604	146.000000
239.368362	145.720000
239.461136	146.180000
239.553909	146.300000
239.646667	145.920000
239.739441	145.220000
239.832214	145.620000
239.925003	145.820000
240.017761	146.400000
240.110535	146.900000
240.203308	146.320000
240.296082	146.240000
240.388855	145.640000
240.481628	145.580000
240.574417	145.580000
240.667191	146.060000
240.759964	145.740000
240.852737	146.220000
240.945526	145.720000
241.038315	145.380000
241.131088	145.300000
241.223877	145.740000
241.316650	145.140000
241.409439	145.840000
241.502228	145.580000
241.595001	146.040000
241.687790	145.860000
241.780579	146.080000
241.873367	146.020000
241.966141	146.460000
242.058929	145.640000
242.151718	146.000000
242.244507	146.320000
242.337311	145.500000
242.430099	145.920000
242.522903	146.500000
242.615692	146.020000
242.708481	146.100000
242.801270	146.800000
242.894073	146.320000
242.986862	146.500000
243.079651	146.840000
243.172455	146.320000
243.265244	146.380000
243.358063	145.900000
243.450867	145.700000
243.543655	145.660000
243.636459	146.000000
243.729263	146.060000
243.822067	146.440000
243.914856	146.640000
244.007660	146.460000
244.100464	146.520000
244.193268	146.060000
244.286072	146.200000
244.378876	145.620000
244.471680	145.440000
244.564499	145.700000
244.657318	146.280000
244.750122	146.060000
244.842926	145.740000
244.935745	146.100000
245.028549	145.720000
245.121368	145.340000
245.214172	145.500000
245.306992	145.980000
245.399796	145.560000
245.492615	145.840000
245.585434	145.740000
245.678253	145.500000
245.771072	145.220000
245.863892	146.040000
245.956711	146.060000
246.049530	145.840000
246.142349	145.960000
246.235168	146.020000
246.327988	146.060000
246.420807	145.580000
246.513626	145.760000
246.606445	145.360000
246.699280	145.480000
246.792099	144.860000
246.884918	144.880000
246.977753	144.720000
247.070587	144.900000
247.163422	145.000000
247.256241	145.120000
247.349075	145.620000
247.441895	145.520000
247.534729	145.640000
247.627563	145.480000
247.720383	146.320000
247.813217	145.920000
247.906052	145.880000
247.998886	145.660000
248.091736	145.760000
248.184570	145.020000
248.277405	145.080000
248.370239	146.380000
248.463074	147.280000
248.555908	147.640000
248.648743	147.220000
248.741592	147.200000
248.834427	146.140000
248.927261	145.100000
249.020111	145.180000
249.112946	146.100000
249.205795	145.840000
249.298630	146.120000
249.391495	146.460000
249.484344	145.860000
249.577179	145.720000
249.670029	146.160000
249.762878	146.600000
249.855728	146.700000
249.948563	147.140000
250.041412	146.280000
250.134262	146.400000
250.227112	146.000000
250.319962	146.000000
250.412827	145.800000
250.505692	145.680000
250.598541	145.540000
250.691391	145.480000
250.784241	145.520000
250.877106	145.740000
250.969955	145.780000
251.062805	146.500000
251.155670	146.820000
251.248520	146.560000
251.341385	146.880000
251.434235	147.000000
251.527100	146.360000
251.619965	145.980000
251.712814	147.020000
251.805695	146.560000
251.898560	146.940000
251.991425	147.180000
252.084290	147.360000
252.177155	146.300000
252.270020	146.100000
252.362885	145.900000
252.455750	145.520000
252.548615	145.180000
252.641479	145.180000
252.734360	145.020000
252.827240	145.120000
252.920105	145.120000
253.012970	145.160000
253.105850	145.120000
253.198715	145.100000
253.291595	145.060000
253.384460	144.820000
253.477341	144.560000
253.570221	145.000000
253.663086	144.780000
253.755966	145.320000
253.848846	145.560000
253.941727	145.980000
254.034592	146.060000
254.127472	145.960000
254.220367	145.620000
254.313248	145.820000
254.406128	145.780000
254.499008	145.620000
254.591904	146.480000
254.684784	146.860000
254.777664	146.720000
254.870544	146.220000
254.963440	146.060000
255.056335	145.980000
255.149216	145.520000
255.242111	145.780000
255.334991	146.300000
255.427887	146.660000
255.520767	146.540000
255.613663	146.820000
255.706558	146.220000
255.799438	145.920000
255.892334	145.440000
255.985229	145.400000
256.078125	145.340000
256.171021	145.580000
256.263916	145.980000
256.356812	146.220000
256.449707	146.500000
256.542603	145.940000
256.635498	146.540000
256.728394	146.200000
256.821289	146.120000
256.914215	146.200000
257.007080	146.700000
257.100006	146.400000
257.192932	146.880000
257.285828	147.120000
257.378723	146.660000
257.471619	146.380000
257.564545	146.220000
257.657440	146.120000
257.750336	146.820000
257.843262	146.940000
257.936157	148.120000
258.029053	148.160000
258.121979	148.160000
258.214874	147.340000
258.307800	147.260000
258.400696	145.940000
258.493622	146.160000
258.586517	145.240000
258.679443	145.420000
258.772339	145.060000
258.865265	145.100000
258.958160	144.400000
259.051086	145.520000
259.144012	145.340000
259.236938	146.220000
259.329834	146.240000
259.422791	146.240000
259.515717	145.700000
259.608612	145.400000
259.701538	145.320000
259.794464	145.380000
259.887390	145.220000
259.980316	145.200000
260.073212	145.140000
260.166138	144.000000
260.259064	144.240000
260.351990	145.160000
260.444916	144.920000
260.537842	145.260000
260.630768	146.180000
260.723694	146.260000
260.816620	146.000000
260.909546	146.380000
261.002472	145.980000
261.095398	145.660000
261.188354	145.400000
261.281281	144.700000
261.374207	144.760000
261.467133	145.700000
261.560089	145.760000
261.653015	145.820000
261.745972	146.800000
261.838867	147.180000
261.931824	146.980000
262.024780	146.600000
262.117706	146.720000
262.210663	146.480000
262.303589	146.180000
262.396515	146.080000
262.489471	146.920000
262.582397	147.020000
262.675354	146.580000
262.768280	146.340000
262.861237	146.280000
262.954163	146.060000
263.047119	145.840000
263.140045	146.100000
263.233002	146.220000
263.325958	146.060000
263.418884	145.600000
263.511841	145.660000
263.604797	145.520000
263.697723	145.380000
263.790680	145.320000
263.883636	145.980000
263.976593	145.560000
264.069550	145.540000
264.162476	145.360000
264.255463	145.180000
264.348419	144.560000
264.441376	145.180000
264.534332	144.920000
264.627289	145.260000
264.720245	146.040000
264.813202	145.760000
264.906158	145.660000
264.999115	146.340000
265.092072	145.920000
265.185028	145.920000
265.277985	146.540000
265.370941	146.580000
265.463898	146.120000
265.556854	146.000000
265.649811	145.080000
265.742798	144.940000
265.835754	144.840000
265.928711	145.060000
266.021667	145.140000
266.114655	145.620000
266.207611	145.680000
266.300568	144.920000
266.393585	144.820000
266.486511	145.420000
266.579498	145.000000
266.672485	145.100000
266.765442	145.460000
266.858429	145.900000
266.951385	145.240000
267.044342	145.420000
267.137329	145.260000
267.230316	145.520000
267.323273	144.860000
267.416260	145.860000
267.509216	145.580000
267.602203	145.420000
267.695160	145.700000
267.788147	145.780000
267.881134	145.020000
267.974091	145.620000
268.067078	145.580000
268.160065	145.400000
268.253052	145.140000
268.346008	145.300000
268.438995	145.100000
268.531982	145.580000
268.624969	145.580000
268.717987	146.080000
268.810944	146.020000
268.903961	145.840000
268.996948	145.400000
269.089905	145.760000
269.182892	146.020000
269.275879	146.600000
269.368866	146.240000
269.461853	146.540000
269.554871	146.340000
269.647858	145.960000
269.740845	145.900000
269.833832	146.500000
269.926819	146.040000
270.019806	146.080000
270.112793	145.680000
270.205811	145.500000
270.298798	145.280000
270.391785	146.060000
270.484772	145.580000
270.577789	145.880000
270.670776	145.320000
270.763763	145.340000
270.856750	144.960000
270.949768	144.960000
271.042786	144.820000
271.135773	145.240000
271.228790	145.760000
271.321808	145.160000
271.414795	144.960000
271.507782	145.040000
271.600800	144.600000
271.693817	144.100000
271.786804	144.940000
271.879822	145.460000
271.972809	145.580000
272.065826	146.140000
272.158844	145.940000
272.251831	145.940000
272.344849	145.980000
272.437866	145.720000
272.530853	145.560000
272.623871	145.900000
272.716888	144.960000
272.809906	145.060000
272.902893	145.400000
272.995911	144.880000
273.088928	145.020000
273.181946	145.820000
273.274963	145.300000
273.367981	145.060000
273.460999	145.420000
273.554047	145.640000
273.647003	146.040000
273.740051	146.180000
273.833069	146.700000
273.926086	146.880000
274.019135	146.400000
274.112152	145.940000
274.205170	146.060000
274.298187	146.060000
274.391205	145.560000
274.484222	145.500000
274.577240	145.260000
274.670258	144.940000
274.763306	144.540000
274.856323	144.880000
274.949341	145.000000
275.042358	145.460000
275.135406	145.440000
275.228424	145.560000
275.321442	145.560000
275.414490	145.320000
275.507507	145.480000
275.600525	146.060000
275.693573	145.840000
275.786591	145.560000
275.879669	145.660000
275.972656	145.440000
276.065735	144.900000
276.158752	145.520000
276.251801	146.160000
276.344818	146.540000
276.437866	146.280000
276.530884	146.360000
276.623932	145.640000
276.716980	145.660000
276.809998	145.560000
276.903046	145.960000
276.996094	147.020000
277.089111	147.580000
277.182159	148.040000
277.275208	147.540000
277.368256	147.220000
277.461304	146.400000
277.554321	145.700000
277.647369	145.300000
277.740417	145.380000
277.833466	145.280000
277.926514	145.260000
278.019562	146.300000
278.112610	145.640000
278.205688	145.980000
278.298706	146.300000
278.391785	146.060000
278.484833	145.180000
278.577881	145.420000
278.670929	145.720000
278.763977	145.920000
278.857025	146.320000
278.950073	146.620000
279.043121	146.480000
279.136169	146.160000
279.229248	145.340000
279.322296	145.540000
279.415344	145.300000
279.508392	144.900000
279.601440	145.000000
279.694519	145.120000
279.787567	144.700000
279.880615	144.480000
279.973694	144.840000
280.066742	144.760000
280.159790	145.140000
280.252869	145.020000
280.345917	145.260000
280.438995	145.180000
280.532074	145.100000
280.625122	145.340000
280.718201	146.240000
280.811279	146.460000
280.904327	146.820000
280.997406	146.940000
281.090454	146.640000
281.183533	145.920000
281.276581	145.700000
281.369659	145.160000
281.462738	145.440000
281.555786	145.560000
281.648865	145.520000
281.741943	145.800000
281.835022	146.820000
281.928070	146.500000
282.021149	146.140000
282.114227	146.140000
282.207306	146.000000
282.300385	146.080000
282.393433	146.140000
282.486511	146.220000
282.579590	146.580000
282.672668	147.080000
282.765747	146.180000
282.858856	146.000000
282.951904	146.440000
283.045013	146.360000
283.138062	146.220000
283.231171	146.500000
283.324249	146.820000
283.417328	146.740000
283.510406	146.320000
283.603485	146.020000
283.696564	145.960000
283.789642	146.040000
283.882751	145.780000
283.975830	146.260000
284.068909	145.980000
284.161987	146.360000
284.255066	146.100000
284.348175	146.220000
284.441254	146.000000
284.534332	146.880000
284.627441	146.480000
284.720520	145.780000
284.813599	145.960000
284.906708	146.040000
284.999786	145.040000
285.092896	144.840000
285.185974	146.160000
285.279053	145.440000
285.372192	145.480000
285.465240	146.240000
285.558380	146.180000
285.651459	145.440000
285.744568	146.400000
285.837677	145.900000
285.930756	145.560000
286.023865	145.740000
286.116943	145.620000
286.210052	145.420000
286.303162	145.720000
286.396240	145.580000
286.489349	145.540000
286.582458	145.880000
286.675568	145.480000
286.768646	145.380000
286.861755	145.700000
286.954865	146.260000
287.047974	145.480000
287.141083	145.440000
287.234161	145.220000
287.327271	144.980000
287.420380	145.180000
287.513519	145.660000
287.606598	145.860000
287.699738	146.240000
287.792816	146.200000
287.885956	145.760000
287.979034	145.680000
288.072174	145.500000
288.165283	145.600000
288.258392	146.120000
288.351501	145.740000
288.444611	146.160000
288.537720	146.820000
288.630859	146.620000
288.723969	146.280000
288.817078	146.520000
288.910187	146.100000
289.003296	145.340000
289.096436	145.060000
289.189545	144.940000
289.282654	144.620000
289.375763	145.040000
289.468903	145.240000
289.562012	145.860000
289.655121	145.840000
289.748260	146.120000
289.841400	146.220000
289.934509	146.300000
290.027649	145.880000
290.120728	145.860000
290.213898	145.900000
290.306976	145.380000
290.400146	145.220000
290.493256	145.100000
290.586395	145.040000
290.679535	145.120000
290.772644	145.200000
290.865784	144.680000
290.958893	144.940000
291.052032	144.960000
291.145172	145.020000
291.238281	144.880000
291.331421	145.360000
291.424561	146.000000
291.517670	145.720000
291.610809	145.860000
291.703949	145.620000
291.797089	145.740000
291.890228	144.620000
291.983337	144.980000
292.076477	144.700000
292.169617	144.880000
292.262756	144.900000
292.355927	145.280000
292.449036	145.240000
292.542206	145.340000
292.635315	145.720000
292.728485	145.880000
292.821625	145.560000
292.914764	146.340000
293.007904	146.220000
293.101044	146.100000
293.194183	146.220000
293.287323	146.640000
293.380463	146.020000
293.473602	145.820000
293.566742	146.060000
293.659882	146.380000
293.753021	146.480000
293.846191	146.540000
293.939331	146.180000
294.032471	146.120000
294.125610	145.740000
294.218781	145.980000
294.311920	146.220000
294.405060	146.880000
294.498230	146.780000
294.591370	146.540000
294.684540	145.640000
294.777679	145.240000
294.870850	145.520000
294.963959	145.200000
295.057159	145.040000
295.150299	145.580000
295.243469	145.620000
295.336609	144.920000
295.429779	145.300000
295.522919	145.720000
295.616089	145.680000
295.709229	145.940000
295.802399	146.260000
295.895569	145.760000
295.988708	145.400000
296.081879	145.500000
296.175018	145.140000
296.268188	145.240000
296.361359	146.020000
296.454529	146.160000
296.547668	146.100000
296.640839	146.480000
296.734009	146.160000
296.827179	146.140000
296.920319	146.260000
297.013519	145.860000
297.106659	145.840000
297.199860	146.000000
297.292999	145.880000
297.386200	145.500000
297.479309	145.760000
297.572510	145.460000
297.665680	145.100000
297.758850	144.760000
297.852020	144.760000
297.945190	144.280000
298.038361	143.860000
298.131531	144.880000
298.224701	145.000000
298.317871	145.140000
298.411072	145.000000
298.504242	145.220000
298.597412	144.640000
298.690582	144.540000
298.783752	144.260000
298.876923	144.880000
298.970093	144.800000
299.063293	144.980000
299.156464	145.140000
299.249634	145.520000
299.342834	145.500000
299.436005	146.020000
299.529205	145.920000
299.622345	146.120000
299.715576	145.600000
299.808716	145.440000
299.901917	145.320000
299.995117	145.620000
300.088287	145.460000
300.181488	145.340000
300.274658	145.580000
300.367828	145.500000
300.461029	145.220000
300.554199	145.540000
300.647400	146.040000
300.740601	146.360000
300.833771	146.140000
300.926971	146.080000
301.020142	145.360000
301.113342	145.280000
301.206512	145.140000
301.299713	145.380000
301.392914	145.480000
301.486084	145.900000
301.579285	145.980000
301.672516	146.380000
301.765686	146.100000
301.858887	146.180000
301.952057	146.100000
302.045288	146.080000
302.138458	145.420000
302.231659	145.240000
302.324860	145.040000
302.418060	144.760000
302.511261	144.660000
302.604462	144.880000
302.697662	145.100000
302.790863	145.080000
302.884064	144.980000
302.977264	145.100000
303.070465	145.260000
303.163666	145.780000
303.256866	145.960000
303.350067	146.180000
303.443268	146.080000
303.536469	146.020000
303.629669	145.500000
303.722870	145.460000
303.816071	145.320000
303.909271	145.460000
304.002472	144.860000
304.095673	144.920000
304.188934	144.180000
304.282104	145.000000
304.375336	144.780000
304.468506	145.000000
304.561768	144.860000
304.654968	145.740000
304.748169	145.100000
304.841370	145.020000
304.934601	145.400000
305.027802	145.520000
305.121002	145.060000
305.214233	145.180000
305.307434	145.240000
305.400665	145.540000
305.493866	145.140000
