Model Number: SPM-001-M   
Serial Number: 10090201
Firmware Version: 004.17.6
Exposure Time: 300000.000000us
Data Taken on: 11-02-2021 10:52:21.422
Wavelength	Amplitude
733.770752	0.000000
733.808716	0.000000
733.846619	0.000000
733.884583	0.000000
733.922546	0.000000
733.960449	0.000000
733.998413	0.000000
734.036377	0.000000
734.074219	0.000000
734.112183	0.000000
734.150085	0.000000
734.188049	0.000000
734.226013	0.000000
734.263916	0.000000
734.301819	0.000000
734.339783	0.000000
734.377686	0.000000
734.415588	0.000000
734.453552	0.000000
734.491455	0.000000
734.529419	0.000000
734.567322	0.000000
734.605225	0.000000
734.643127	0.000000
734.681091	0.000000
734.718994	0.000000
734.756897	0.000000
734.794800	0.000000
734.832703	0.000000
734.870667	0.000000
734.908508	0.000000
734.946472	0.000000
734.984375	0.000000
735.022278	0.000000
735.060181	0.000000
735.098083	0.000000
735.135986	0.000000
735.173889	0.000000
735.211792	0.000000
735.249695	0.000000
735.287598	0.000000
735.325439	0.000000
735.363403	0.000000
735.401306	0.000000
735.439148	0.000000
735.477051	0.000000
735.515015	0.000000
735.552856	0.000000
735.590759	0.000000
735.628662	0.000000
735.666504	0.000000
735.704407	0.000000
735.742310	0.000000
735.780212	0.000000
735.818115	0.000000
735.856018	0.000000
735.893860	0.000000
735.931763	0.000000
735.969604	0.000000
736.007507	0.000000
736.045410	0.000000
736.083252	0.000000
736.121094	0.000000
736.158997	0.000000
736.196838	0.000000
736.234741	0.000000
736.272644	0.000000
736.310486	0.000000
736.348389	0.000000
736.386230	0.000000
736.424072	0.000000
736.461975	0.000000
736.499878	0.000000
736.537720	0.000000
736.575562	0.000000
736.613403	0.000000
736.651306	0.000000
736.689148	0.000000
736.726990	0.000000
736.764893	0.000000
736.802734	0.000000
736.840576	0.000000
736.878418	0.000000
736.916321	0.000000
736.954102	0.000000
736.992004	0.000000
737.029846	0.000000
737.067688	0.000000
737.105530	0.000000
737.143372	0.000000
737.181213	0.000000
737.219116	0.000000
737.256897	0.000000
737.294739	0.000000
737.332642	0.000000
737.370422	0.000000
737.408325	0.000000
737.446167	0.000000
737.483948	0.000000
737.521790	0.000000
737.559692	0.000000
737.597473	0.000000
737.635315	0.000000
737.673157	0.000000
737.710999	0.000000
737.748840	0.000000
737.786621	0.000000
737.824463	0.000000
737.862305	0.000000
737.900085	0.000000
737.937927	0.000000
737.975769	0.000000
738.013550	0.000000
738.051392	0.000000
738.089233	0.000000
738.127014	0.000000
738.164856	0.000000
738.202698	0.000000
738.240479	0.000000
738.278320	0.000000
738.316162	0.000000
738.353943	0.000000
738.391785	0.000000
738.429565	0.000000
738.467407	0.000000
738.505188	0.000000
738.542969	0.000000
738.580811	0.000000
738.618652	0.000000
738.656372	0.000000
738.694214	0.000000
738.732056	0.000000
738.769836	0.000000
738.807617	0.000000
738.845459	0.000000
738.883240	0.000000
738.921021	0.000000
738.958862	0.000000
738.996582	0.000000
739.034424	0.000000
739.072205	0.000000
739.109985	0.000000
739.147827	0.000000
739.185547	0.000000
739.223389	0.000000
739.261169	0.000000
739.298889	0.000000
739.336731	0.000000
739.374512	0.000000
739.412292	0.000000
739.450073	0.000000
739.487854	0.000000
739.525635	0.000000
739.563416	0.000000
739.601135	0.000000
739.638977	0.000000
739.676758	0.000000
739.714478	0.000000
739.752258	0.000000
739.790100	0.000000
739.827820	0.000000
739.865601	0.000000
739.903381	0.000000
739.941101	0.000000
739.978882	199.400000
740.016724	195.900000
740.054443	198.200000
740.092224	193.000000
740.130005	193.500000
740.167725	193.500000
740.205505	193.700000
740.243225	200.800000
740.281006	196.100000
740.318787	192.200000
740.356506	200.400000
740.394287	198.400000
740.432068	193.100000
740.469727	192.100000
740.507507	198.900000
740.545288	196.000000
740.583008	196.400000
740.620789	195.500000
740.658569	190.000000
740.696228	195.400000
740.734009	200.700000
740.771790	187.100000
740.809509	198.500000
740.847229	192.400000
740.884949	193.600000
740.922729	191.700000
740.960449	194.100000
740.998169	192.700000
741.035950	193.500000
741.073669	196.600000
741.111389	196.700000
741.149170	204.100000
741.186890	204.000000
741.224609	199.000000
741.262329	195.800000
741.300110	202.200000
741.337769	192.400000
741.375549	192.100000
741.413208	196.600000
741.450989	191.900000
741.488708	194.100000
741.526367	193.000000
741.564148	198.700000
741.601868	197.900000
741.639526	194.100000
741.677307	197.300000
741.715027	197.700000
741.752686	191.900000
741.790466	201.400000
741.828186	197.900000
741.865845	192.700000
741.903564	190.700000
741.941345	195.600000
741.979004	193.000000
742.016724	199.000000
742.054382	196.100000
742.092102	198.300000
742.129822	191.200000
742.167480	195.100000
742.205200	194.000000
742.242920	198.500000
742.280640	199.200000
742.318359	191.900000
742.356079	194.500000
742.393738	198.600000
742.431396	193.200000
742.469116	199.400000
742.506775	189.100000
742.544495	197.900000
742.582214	199.700000
742.619873	194.200000
742.657593	199.800000
742.695251	199.400000
742.732971	194.500000
742.770630	196.800000
742.808289	197.300000
742.846008	194.900000
742.883728	197.900000
742.921326	195.000000
742.959045	194.400000
742.996765	193.900000
743.034424	194.900000
743.072083	193.700000
743.109802	194.500000
743.147400	190.600000
743.185120	196.500000
743.222839	195.200000
743.260437	200.700000
743.298157	197.700000
743.335754	189.500000
743.373474	194.900000
743.411133	191.100000
743.448792	196.700000
743.486450	195.300000
743.524170	189.800000
743.561768	196.500000
743.599487	200.400000
743.637146	204.500000
743.674744	194.900000
743.712463	194.600000
743.750122	196.200000
743.787720	197.200000
743.825439	193.500000
743.863037	195.100000
743.900696	195.100000
743.938416	222.100000
743.976013	194.800000
744.013672	202.900000
744.051331	199.400000
744.088928	202.600000
744.126587	199.400000
744.164307	197.800000
744.201904	193.200000
744.239563	197.800000
744.277222	198.600000
744.314819	196.300000
744.352478	200.600000
744.390137	198.000000
744.427734	197.700000
744.465393	194.500000
744.502991	192.500000
744.540649	197.900000
744.578308	195.900000
744.615906	191.900000
744.653564	187.500000
744.691223	198.200000
744.728821	191.700000
744.766418	196.700000
744.804077	198.600000
744.841675	194.100000
744.879333	191.000000
744.916992	195.100000
744.954529	193.500000
744.992187	200.100000
745.029785	193.900000
745.067444	192.200000
745.105042	197.500000
745.142639	197.900000
745.180298	203.700000
745.217896	195.500000
745.255493	195.500000
745.293152	200.200000
745.330750	200.100000
745.368347	201.400000
745.405945	198.800000
745.443604	196.500000
745.481140	199.800000
745.518799	196.000000
745.556396	196.900000
745.593994	198.100000
745.631592	197.200000
745.669189	191.600000
745.706787	196.900000
745.744385	191.500000
745.781982	198.500000
745.819580	193.400000
745.857178	195.500000
745.894775	194.500000
745.932373	197.000000
745.969971	197.100000
746.007568	189.300000
746.045166	202.800000
746.082764	200.800000
746.120300	198.700000
746.157898	197.500000
746.195557	194.900000
746.233093	191.100000
746.270691	197.500000
746.308228	196.200000
746.345825	200.100000
746.383423	199.200000
746.420959	192.600000
746.458557	193.500000
746.496155	192.600000
746.533691	196.600000
746.571289	192.100000
746.608887	195.400000
746.646423	197.000000
746.684021	197.100000
746.721619	193.800000
746.759155	197.900000
746.796753	190.600000
746.834351	191.200000
746.871826	194.400000
746.909424	200.500000
746.946960	196.700000
746.984558	194.800000
747.022156	193.400000
747.059631	202.700000
747.097229	197.400000
747.134827	194.100000
747.172363	201.700000
747.209900	199.500000
747.247498	192.200000
747.285034	200.500000
747.322571	201.000000
747.360168	193.400000
747.397644	190.400000
747.435242	198.000000
747.472778	200.800000
747.510315	194.200000
747.547913	193.700000
747.585388	201.100000
747.622925	194.700000
747.660522	190.300000
747.697998	193.500000
747.735596	195.000000
747.773132	193.900000
747.810669	196.500000
747.848206	199.900000
747.885742	191.800000
747.923279	192.400000
747.960815	198.300000
747.998352	197.500000
748.035889	199.600000
748.073425	198.900000
748.110901	194.100000
748.148437	192.500000
748.185974	196.500000
748.223511	204.400000
748.261047	198.600000
748.298584	196.500000
748.336060	195.400000
748.373596	198.100000
748.411133	219.400000
748.448608	193.700000
748.486145	198.100000
748.523682	200.900000
748.561218	203.000000
748.598755	196.900000
748.636292	197.900000
748.673706	195.100000
748.711243	201.500000
748.748718	195.600000
748.786255	195.700000
748.823792	196.000000
748.861267	192.300000
748.898804	198.200000
748.936340	196.300000
748.973816	193.900000
749.011292	201.800000
749.048828	196.800000
749.086304	197.600000
749.123840	204.100000
749.161316	193.000000
749.198792	203.500000
749.236328	200.000000
749.273743	195.500000
749.311279	195.000000
749.348816	198.200000
749.386230	197.600000
749.423767	186.900000
749.461304	197.500000
749.498718	197.500000
749.536255	201.500000
749.573730	205.100000
749.611206	201.600000
749.648682	195.800000
749.686218	196.800000
749.723633	199.800000
749.761169	194.600000
749.798645	192.700000
749.836060	194.300000
749.873596	192.900000
749.911011	197.600000
749.948547	201.300000
749.986023	195.000000
750.023437	194.300000
750.060913	190.900000
750.098450	192.300000
750.135864	195.200000
750.173340	194.800000
750.210815	199.700000
750.248291	193.800000
750.285767	195.700000
750.323242	199.100000
750.360657	198.100000
750.398132	191.500000
750.435608	198.500000
750.473022	192.500000
750.510498	192.400000
750.547974	192.200000
750.585449	194.800000
750.622925	187.400000
750.660339	206.600000
750.697815	196.700000
750.735291	195.100000
750.772644	199.500000
750.810120	197.900000
750.847595	197.900000
750.885010	191.000000
750.922485	202.800000
750.959961	196.100000
750.997375	202.100000
751.034851	198.400000
751.072266	199.200000
751.109680	190.800000
751.147156	201.300000
751.184570	197.600000
751.221985	195.200000
751.259460	189.300000
751.296875	196.700000
751.334290	196.400000
751.371765	199.700000
751.409180	199.500000
751.446594	201.700000
751.484070	197.200000
751.521423	197.600000
751.558899	197.000000
751.596375	203.300000
751.633728	202.000000
751.671204	205.300000
751.708618	194.300000
751.746033	196.900000
751.783447	191.200000
751.820801	193.500000
751.858276	198.800000
751.895691	196.500000
751.933105	194.300000
751.970520	190.500000
752.007935	194.400000
752.045349	199.500000
752.082764	197.000000
752.120178	193.800000
752.157532	193.900000
752.195007	194.300000
752.232422	199.300000
752.269775	199.100000
752.307190	198.400000
752.344543	193.700000
752.382019	196.000000
752.419434	195.300000
752.456787	198.700000
752.494202	200.700000
752.531616	197.300000
752.568970	198.400000
752.606384	197.200000
752.643799	198.200000
752.681152	202.000000
752.718567	198.200000
752.755981	191.100000
752.793335	198.600000
752.830750	190.200000
752.868164	199.900000
752.905518	191.700000
752.942932	198.400000
752.980225	192.400000
753.017639	198.400000
753.055054	196.700000
753.092407	197.900000
753.129822	200.100000
753.167175	203.400000
753.204529	195.700000
753.241943	193.600000
753.279358	191.900000
753.316650	198.000000
753.354065	196.700000
753.391479	199.500000
753.428772	201.900000
753.466187	198.500000
753.503479	191.900000
753.540894	195.700000
753.578308	191.200000
753.615601	192.500000
753.653015	195.200000
753.690369	194.700000
753.727722	191.600000
753.765076	191.200000
753.802490	192.200000
753.839783	190.600000
753.877136	193.900000
753.914551	206.900000
753.951843	193.100000
753.989258	198.800000
754.026611	197.400000
754.063904	198.600000
754.101257	193.200000
754.138611	189.900000
754.175964	197.300000
754.213318	204.700000
754.250610	190.500000
754.288025	194.100000
754.325378	193.000000
754.362671	199.400000
754.400024	196.900000
754.437378	204.700000
754.474670	203.400000
754.512085	193.300000
754.549438	197.300000
754.586731	194.100000
754.624084	196.200000
754.661438	192.000000
754.698730	202.900000
754.736084	195.900000
754.773376	194.500000
754.810730	197.800000
754.848083	195.900000
754.885315	202.000000
754.922668	191.600000
754.960022	192.800000
754.997314	200.100000
755.034668	198.200000
755.072021	197.500000
755.109253	195.400000
755.146606	202.300000
755.183960	194.600000
755.221252	203.900000
755.258545	199.600000
755.295898	201.400000
755.333191	201.500000
755.370544	199.500000
755.407776	197.200000
755.445129	198.200000
755.482422	201.700000
755.519714	194.500000
755.557068	193.200000
755.594360	191.200000
755.631653	200.200000
755.668945	204.200000
755.706299	200.600000
755.743530	206.900000
755.780884	204.900000
755.818176	202.100000
755.855408	202.500000
755.892761	200.300000
755.930054	197.800000
755.967346	200.900000
756.004639	200.300000
756.041870	198.900000
756.079224	203.900000
756.116516	196.100000
756.153748	203.300000
756.191040	205.400000
756.228394	200.900000
756.265625	195.900000
756.302917	200.700000
756.340210	197.100000
756.377441	201.600000
756.414795	203.600000
756.452087	198.900000
756.489319	195.700000
756.526611	203.800000
756.563843	200.500000
756.601135	206.400000
756.638428	207.300000
756.675659	198.700000
756.712952	203.000000
756.750244	202.400000
756.787476	201.000000
756.824768	205.200000
756.862061	200.100000
756.899292	247.200000
756.936584	204.200000
756.973816	209.800000
757.011047	209.800000
757.048340	201.100000
757.085632	200.200000
757.122864	214.500000
757.160156	199.900000
757.197327	203.300000
757.234619	205.200000
757.271912	199.300000
757.309082	205.400000
757.346375	198.200000
757.383667	207.200000
757.420837	202.800000
757.458130	203.900000
757.495422	200.900000
757.532593	204.800000
757.569885	197.600000
757.607117	198.400000
757.644348	204.100000
757.681580	213.100000
757.718811	193.500000
757.756042	203.200000
757.793335	200.000000
757.830505	208.800000
757.867798	201.900000
757.905029	200.100000
757.942200	202.700000
757.979492	198.900000
758.016724	201.700000
758.053894	201.000000
758.091187	217.000000
758.128418	203.900000
758.165588	202.500000
758.202820	212.500000
758.240112	203.000000
758.277283	212.500000
758.314514	204.600000
758.351685	201.400000
758.388916	210.600000
758.426147	210.500000
758.463379	212.500000
758.500610	206.400000
758.537842	206.200000
758.575012	211.300000
758.612244	202.900000
758.649475	216.100000
758.686646	201.100000
758.723877	211.800000
758.761108	212.700000
758.798279	205.900000
758.835510	208.100000
758.872742	213.000000
758.909851	209.200000
758.947083	210.200000
758.984253	210.000000
759.021484	210.800000
759.058716	212.000000
759.095886	211.800000
759.133057	207.500000
759.170288	210.100000
759.207458	207.100000
759.244690	217.100000
759.281860	216.200000
759.319031	209.500000
759.356262	206.900000
759.393433	207.400000
759.430603	209.500000
759.467773	208.700000
759.505005	213.100000
759.542175	213.900000
759.579346	208.600000
759.616516	210.000000
759.653687	213.000000
759.690918	208.700000
759.728027	211.500000
759.765259	212.200000
759.802429	213.700000
759.839539	212.800000
759.876770	215.600000
759.913940	219.700000
759.951111	212.300000
759.988281	212.700000
760.025452	210.100000
760.062561	208.300000
760.099792	220.000000
760.136963	215.600000
760.174072	211.900000
760.211243	208.600000
760.248413	208.800000
760.285583	208.800000
760.322754	221.900000
760.359863	219.700000
760.397034	219.000000
760.434204	214.800000
760.471375	213.500000
760.508545	211.400000
760.545715	214.200000
760.582825	209.900000
760.619995	216.900000
760.657166	210.100000
760.694275	219.900000
760.731445	217.200000
760.768555	217.500000
760.805664	218.200000
760.842834	215.700000
760.879944	219.000000
760.917114	217.300000
760.954285	215.800000
760.991394	212.000000
761.028564	222.100000
761.065674	218.100000
761.102783	214.700000
761.139954	220.600000
761.177124	220.500000
761.214172	221.800000
761.251343	218.400000
761.288452	217.700000
761.325562	220.200000
761.362732	214.700000
761.399841	219.200000
761.436951	219.600000
761.474121	215.800000
761.511169	218.400000
761.548340	223.800000
761.585449	223.100000
761.622559	224.500000
761.659668	220.400000
761.696838	225.500000
761.733887	222.700000
761.771057	220.300000
761.808167	220.600000
761.845276	225.200000
761.882385	231.500000
761.919434	222.700000
761.956604	236.600000
761.993713	219.500000
762.030762	227.400000
762.067871	222.600000
762.105042	224.200000
762.142090	230.600000
762.179199	224.500000
762.216309	228.800000
762.253418	235.300000
762.290527	231.200000
762.327637	229.000000
762.364685	222.100000
762.401794	228.000000
762.438904	226.900000
762.475952	223.900000
762.513062	223.200000
762.550110	224.500000
762.587219	235.700000
762.624329	234.300000
762.661377	228.600000
762.698486	228.300000
762.735596	227.200000
762.772644	225.500000
762.809753	222.700000
762.846863	226.800000
762.883911	232.900000
762.921021	232.100000
762.958069	230.700000
762.995117	235.100000
763.032227	235.400000
763.069336	227.000000
763.106323	225.000000
763.143433	224.400000
763.180481	229.700000
763.217590	232.400000
763.254639	229.200000
763.291687	231.300000
763.328735	237.500000
763.365845	230.900000
763.402893	230.100000
763.439941	232.700000
763.477051	233.300000
763.514038	233.000000
763.551147	229.100000
763.588196	233.600000
763.625244	233.200000
763.662292	240.000000
763.699402	243.400000
763.736389	238.300000
763.773499	243.800000
763.810486	238.500000
763.847534	236.100000
763.884644	237.700000
763.921631	233.900000
763.958679	242.200000
763.995728	236.000000
764.032776	242.900000
764.069824	233.800000
764.106873	243.200000
764.143860	248.000000
764.180969	240.300000
764.218018	246.200000
764.255005	238.500000
764.292053	240.100000
764.329102	247.800000
764.366089	247.700000
764.403137	246.000000
764.440125	239.900000
764.477173	244.000000
764.514221	246.000000
764.551208	247.500000
764.588257	244.400000
764.625305	250.900000
764.662292	253.500000
764.699341	256.700000
764.736389	250.000000
764.773376	262.000000
764.810425	252.400000
764.847473	256.900000
764.884399	252.100000
764.921448	259.300000
764.958435	258.100000
764.995483	251.500000
765.032532	265.800000
765.069458	253.900000
765.106506	257.600000
765.143555	255.900000
765.180481	257.400000
765.217529	265.400000
765.254578	252.400000
765.291504	261.400000
765.328552	258.100000
765.365540	256.100000
765.402527	265.600000
765.439575	256.700000
765.476501	254.900000
765.513550	256.300000
765.550537	261.600000
765.587463	266.900000
765.624512	261.200000
765.661499	255.300000
765.698486	268.200000
765.735474	257.400000
765.772461	261.100000
765.809448	267.400000
765.846436	267.400000
765.883423	271.800000
765.920410	265.900000
765.957397	262.200000
765.994385	268.800000
766.031311	274.200000
766.068359	268.500000
766.105286	269.000000
766.142273	274.700000
766.179260	269.400000
766.216187	266.400000
766.253174	263.400000
766.290161	271.400000
766.327148	272.900000
766.364136	273.700000
766.401123	282.300000
766.438049	268.600000
766.475037	280.000000
766.512024	276.000000
766.548950	288.100000
766.585937	283.000000
766.622864	279.400000
766.659790	280.600000
766.696777	271.700000
766.733704	283.500000
766.770691	275.300000
766.807678	286.100000
766.844604	280.300000
766.881531	282.100000
766.918518	286.000000
766.955444	285.400000
766.992432	279.400000
767.029358	283.300000
767.066284	286.500000
767.103271	282.800000
767.140198	316.500000
767.177124	297.800000
767.214050	287.900000
767.251038	289.100000
767.287964	285.500000
767.324890	285.800000
767.361816	289.500000
767.398743	293.200000
767.435730	287.100000
767.472595	290.100000
767.509583	293.800000
767.546509	285.700000
767.583374	291.800000
767.620361	285.500000
767.657288	291.100000
767.694214	291.100000
767.731140	290.200000
767.768066	292.300000
767.804993	295.900000
767.841919	288.800000
767.878845	294.600000
767.915710	299.200000
767.952698	291.900000
767.989563	295.600000
768.026489	297.700000
