Model Number: SPM-001-M   
Serial Number: 10090201
Firmware Version: 004.17.6
Exposure Time: 300000.000000us
Data Taken on: 11-02-2021 11:23:11.204
Wavelength	Amplitude
733.770752	0.000000
733.808716	0.000000
733.846619	0.000000
733.884583	0.000000
733.922546	0.000000
733.960449	0.000000
733.998413	0.000000
734.036377	0.000000
734.074219	0.000000
734.112183	0.000000
734.150085	0.000000
734.188049	0.000000
734.226013	0.000000
734.263916	0.000000
734.301819	0.000000
734.339783	0.000000
734.377686	0.000000
734.415588	0.000000
734.453552	0.000000
734.491455	0.000000
734.529419	0.000000
734.567322	0.000000
734.605225	0.000000
734.643127	0.000000
734.681091	0.000000
734.718994	0.000000
734.756897	0.000000
734.794800	0.000000
734.832703	0.000000
734.870667	0.000000
734.908508	0.000000
734.946472	0.000000
734.984375	0.000000
735.022278	0.000000
735.060181	0.000000
735.098083	0.000000
735.135986	0.000000
735.173889	0.000000
735.211792	0.000000
735.249695	0.000000
735.287598	0.000000
735.325439	0.000000
735.363403	0.000000
735.401306	0.000000
735.439148	0.000000
735.477051	0.000000
735.515015	0.000000
735.552856	0.000000
735.590759	0.000000
735.628662	0.000000
735.666504	0.000000
735.704407	0.000000
735.742310	0.000000
735.780212	0.000000
735.818115	0.000000
735.856018	0.000000
735.893860	0.000000
735.931763	0.000000
735.969604	0.000000
736.007507	0.000000
736.045410	0.000000
736.083252	0.000000
736.121094	0.000000
736.158997	0.000000
736.196838	0.000000
736.234741	0.000000
736.272644	0.000000
736.310486	0.000000
736.348389	0.000000
736.386230	0.000000
736.424072	0.000000
736.461975	0.000000
736.499878	0.000000
736.537720	0.000000
736.575562	0.000000
736.613403	0.000000
736.651306	0.000000
736.689148	0.000000
736.726990	0.000000
736.764893	0.000000
736.802734	0.000000
736.840576	0.000000
736.878418	0.000000
736.916321	0.000000
736.954102	0.000000
736.992004	0.000000
737.029846	0.000000
737.067688	0.000000
737.105530	0.000000
737.143372	0.000000
737.181213	0.000000
737.219116	0.000000
737.256897	0.000000
737.294739	0.000000
737.332642	0.000000
737.370422	0.000000
737.408325	0.000000
737.446167	0.000000
737.483948	0.000000
737.521790	0.000000
737.559692	0.000000
737.597473	0.000000
737.635315	0.000000
737.673157	0.000000
737.710999	0.000000
737.748840	0.000000
737.786621	0.000000
737.824463	0.000000
737.862305	0.000000
737.900085	0.000000
737.937927	0.000000
737.975769	0.000000
738.013550	0.000000
738.051392	0.000000
738.089233	0.000000
738.127014	0.000000
738.164856	0.000000
738.202698	0.000000
738.240479	0.000000
738.278320	0.000000
738.316162	0.000000
738.353943	0.000000
738.391785	0.000000
738.429565	0.000000
738.467407	0.000000
738.505188	0.000000
738.542969	0.000000
738.580811	0.000000
738.618652	0.000000
738.656372	0.000000
738.694214	0.000000
738.732056	0.000000
738.769836	0.000000
738.807617	0.000000
738.845459	0.000000
738.883240	0.000000
738.921021	0.000000
738.958862	0.000000
738.996582	0.000000
739.034424	0.000000
739.072205	0.000000
739.109985	0.000000
739.147827	0.000000
739.185547	0.000000
739.223389	0.000000
739.261169	0.000000
739.298889	0.000000
739.336731	0.000000
739.374512	0.000000
739.412292	0.000000
739.450073	0.000000
739.487854	0.000000
739.525635	0.000000
739.563416	0.000000
739.601135	0.000000
739.638977	0.000000
739.676758	0.000000
739.714478	0.000000
739.752258	0.000000
739.790100	0.000000
739.827820	0.000000
739.865601	0.000000
739.903381	0.000000
739.941101	0.000000
739.978882	196.900000
740.016724	192.000000
740.054443	197.000000
740.092224	192.400000
740.130005	191.500000
740.167725	190.600000
740.205505	190.400000
740.243225	198.400000
740.281006	195.600000
740.318787	189.000000
740.356506	199.800000
740.394287	198.900000
740.432068	191.700000
740.469727	188.600000
740.507507	197.300000
740.545288	194.200000
740.583008	196.600000
740.620789	194.700000
740.658569	188.200000
740.696228	194.200000
740.734009	197.800000
740.771790	185.900000
740.809509	196.700000
740.847229	190.500000
740.884949	191.300000
740.922729	187.700000
740.960449	191.800000
740.998169	190.800000
741.035950	190.500000
741.073669	195.100000
741.111389	194.500000
741.149170	201.300000
741.186890	199.700000
741.224609	197.300000
741.262329	195.400000
741.300110	200.900000
741.337769	190.100000
741.375549	188.700000
741.413208	194.600000
741.450989	190.700000
741.488708	192.200000
741.526367	192.500000
741.564148	196.500000
741.601868	196.600000
741.639526	192.700000
741.677307	196.100000
741.715027	195.600000
741.752686	191.000000
741.790466	200.600000
741.828186	195.100000
741.865845	189.900000
741.903564	189.100000
741.941345	193.900000
741.979004	190.100000
742.016724	196.900000
742.054382	194.500000
742.092102	198.400000
742.129822	189.900000
742.167480	191.400000
742.205200	192.300000
742.242920	196.100000
742.280640	197.600000
742.318359	189.900000
742.356079	192.300000
742.393738	196.800000
742.431396	192.100000
742.469116	197.700000
742.506775	188.400000
742.544495	196.100000
742.582214	198.200000
742.619873	193.000000
742.657593	199.800000
742.695251	199.400000
742.732971	192.900000
742.770630	196.300000
742.808289	194.600000
742.846008	194.200000
742.883728	194.100000
742.921326	194.400000
742.959045	192.500000
742.996765	193.300000
743.034424	194.200000
743.072083	192.800000
743.109802	193.800000
743.147400	189.000000
743.185120	194.000000
743.222839	194.900000
743.260437	200.300000
743.298157	195.800000
743.335754	188.100000
743.373474	194.400000
743.411133	189.500000
743.448792	193.800000
743.486450	193.500000
743.524170	189.700000
743.561768	194.000000
743.599487	200.000000
743.637146	203.900000
743.674744	193.600000
743.712463	191.500000
743.750122	194.900000
743.787720	195.800000
743.825439	192.600000
743.863037	193.100000
743.900696	192.600000
743.938416	219.800000
743.976013	192.900000
744.013672	200.800000
744.051331	198.000000
744.088928	202.100000
744.126587	197.900000
744.164307	196.700000
744.201904	190.600000
744.239563	196.400000
744.277222	196.800000
744.314819	194.600000
744.352478	199.600000
744.390137	195.500000
744.427734	195.600000
744.465393	193.500000
744.502991	190.700000
744.540649	196.500000
744.578308	194.500000
744.615906	190.900000
744.653564	186.700000
744.691223	196.000000
744.728821	189.400000
744.766418	195.100000
744.804077	195.700000
744.841675	191.700000
744.879333	189.700000
744.916992	193.600000
744.954529	192.500000
744.992187	198.300000
745.029785	193.600000
745.067444	192.200000
745.105042	195.400000
745.142639	195.000000
745.180298	201.700000
745.217896	191.700000
745.255493	193.200000
745.293152	197.100000
745.330750	198.300000
745.368347	199.900000
745.405945	197.100000
745.443604	194.100000
745.481140	198.000000
745.518799	193.500000
745.556396	196.800000
745.593994	196.500000
745.631592	194.000000
745.669189	189.800000
745.706787	195.300000
745.744385	190.900000
745.781982	197.200000
745.819580	192.500000
745.857178	194.400000
745.894775	193.900000
745.932373	196.600000
745.969971	196.100000
746.007568	189.100000
746.045166	200.200000
746.082764	199.400000
746.120300	196.800000
746.157898	195.500000
746.195557	194.400000
746.233093	190.400000
746.270691	196.500000
746.308228	195.900000
746.345825	197.700000
746.383423	197.500000
746.420959	191.200000
746.458557	192.300000
746.496155	192.300000
746.533691	195.400000
746.571289	190.300000
746.608887	193.400000
746.646423	194.300000
746.684021	194.500000
746.721619	191.400000
746.759155	196.700000
746.796753	190.300000
746.834351	188.800000
746.871826	191.600000
746.909424	199.200000
746.946960	195.400000
746.984558	193.400000
747.022156	192.800000
747.059631	201.300000
747.097229	197.300000
747.134827	192.800000
747.172363	198.700000
747.209900	196.500000
747.247498	190.100000
747.285034	198.300000
747.322571	200.300000
747.360168	193.300000
747.397644	188.000000
747.435242	199.000000
747.472778	198.300000
747.510315	193.400000
747.547913	193.800000
747.585388	199.500000
747.622925	193.500000
747.660522	189.500000
747.697998	192.600000
747.735596	194.400000
747.773132	192.900000
747.810669	194.000000
747.848206	198.000000
747.885742	191.000000
747.923279	189.700000
747.960815	196.800000
747.998352	194.800000
748.035889	198.500000
748.073425	197.200000
748.110901	192.500000
748.148437	191.100000
748.185974	193.500000
748.223511	200.200000
748.261047	196.400000
748.298584	195.000000
748.336060	192.600000
748.373596	196.100000
748.411133	218.800000
748.448608	193.100000
748.486145	197.100000
748.523682	198.800000
748.561218	201.300000
748.598755	195.200000
748.636292	196.200000
748.673706	193.000000
748.711243	199.400000
748.748718	195.300000
748.786255	195.500000
748.823792	194.900000
748.861267	191.400000
748.898804	196.100000
748.936340	196.800000
748.973816	190.600000
749.011292	198.400000
749.048828	195.300000
749.086304	196.400000
749.123840	203.400000
749.161316	192.100000
749.198792	201.400000
749.236328	199.400000
749.273743	195.000000
749.311279	193.700000
749.348816	197.200000
749.386230	195.300000
749.423767	185.600000
749.461304	197.300000
749.498718	194.400000
749.536255	200.100000
749.573730	203.700000
749.611206	200.700000
749.648682	194.300000
749.686218	194.800000
749.723633	195.500000
749.761169	192.900000
749.798645	190.800000
749.836060	192.500000
749.873596	191.300000
749.911011	196.700000
749.948547	198.600000
749.986023	193.700000
750.023437	194.400000
750.060913	189.900000
750.098450	189.900000
750.135864	193.400000
750.173340	195.400000
750.210815	198.500000
750.248291	191.400000
750.285767	194.600000
750.323242	199.900000
750.360657	195.700000
750.398132	190.200000
750.435608	197.200000
750.473022	191.300000
750.510498	192.200000
750.547974	190.700000
750.585449	192.600000
750.622925	186.300000
750.660339	204.700000
750.697815	196.500000
750.735291	193.200000
750.772644	197.900000
750.810120	196.600000
750.847595	197.900000
750.885010	190.600000
750.922485	201.100000
750.959961	194.000000
750.997375	201.100000
751.034851	197.100000
751.072266	197.900000
751.109680	189.500000
751.147156	201.100000
751.184570	196.300000
751.221985	195.500000
751.259460	188.900000
751.296875	194.800000
751.334290	194.500000
751.371765	198.500000
751.409180	197.600000
751.446594	198.000000
751.484070	196.000000
751.521423	195.700000
751.558899	194.700000
751.596375	202.100000
751.633728	199.900000
751.671204	204.100000
751.708618	192.200000
751.746033	195.800000
751.783447	190.800000
751.820801	191.400000
751.858276	198.100000
751.895691	194.600000
751.933105	193.900000
751.970520	190.300000
752.007935	193.400000
752.045349	197.500000
752.082764	195.400000
752.120178	190.800000
752.157532	192.000000
752.195007	192.700000
752.232422	196.300000
752.269775	198.300000
752.307190	196.300000
752.344543	191.700000
752.382019	193.900000
752.419434	193.600000
752.456787	197.100000
752.494202	198.000000
752.531616	194.600000
752.568970	197.200000
752.606384	197.100000
752.643799	196.700000
752.681152	200.300000
752.718567	196.200000
752.755981	189.700000
752.793335	196.500000
752.830750	189.000000
752.868164	198.600000
752.905518	192.100000
752.942932	198.200000
752.980225	191.100000
753.017639	197.500000
753.055054	194.000000
753.092407	195.800000
753.129822	197.900000
753.167175	201.700000
753.204529	195.100000
753.241943	191.800000
753.279358	190.700000
753.316650	197.600000
753.354065	196.600000
753.391479	198.500000
753.428772	199.900000
753.466187	197.300000
753.503479	192.000000
753.540894	194.900000
753.578308	189.700000
753.615601	190.700000
753.653015	194.500000
753.690369	193.500000
753.727722	191.900000
753.765076	191.700000
753.802490	190.000000
753.839783	188.300000
753.877136	192.100000
753.914551	205.200000
753.951843	191.500000
753.989258	198.100000
754.026611	194.000000
754.063904	195.000000
754.101257	190.600000
754.138611	189.800000
754.175964	195.500000
754.213318	202.300000
754.250610	189.300000
754.288025	193.500000
754.325378	190.700000
754.362671	197.100000
754.400024	194.700000
754.437378	202.400000
754.474670	201.200000
754.512085	192.600000
754.549438	195.900000
754.586731	192.900000
754.624084	194.500000
754.661438	190.600000
754.698730	201.900000
754.736084	194.500000
754.773376	194.800000
754.810730	196.500000
754.848083	194.200000
754.885315	199.100000
754.922668	189.700000
754.960022	191.500000
754.997314	199.300000
755.034668	194.500000
755.072021	196.500000
755.109253	193.300000
755.146606	201.300000
755.183960	193.000000
755.221252	201.900000
755.258545	197.400000
755.295898	199.300000
755.333191	198.700000
755.370544	197.100000
755.407776	195.100000
755.445129	196.700000
755.482422	198.900000
755.519714	193.800000
755.557068	190.200000
755.594360	188.800000
755.631653	198.300000
755.668945	201.700000
755.706299	195.500000
755.743530	205.700000
755.780884	201.200000
755.818176	200.500000
755.855408	200.200000
755.892761	197.300000
755.930054	197.500000
755.967346	199.500000
756.004639	198.700000
756.041870	196.800000
756.079224	202.200000
756.116516	195.100000
756.153748	199.900000
756.191040	202.700000
756.228394	198.200000
756.265625	192.500000
756.302917	197.800000
756.340210	195.100000
756.377441	201.800000
756.414795	201.900000
756.452087	197.600000
756.489319	192.000000
756.526611	202.300000
756.563843	197.100000
756.601135	203.800000
756.638428	205.100000
756.675659	196.600000
756.712952	199.900000
756.750244	200.200000
756.787476	198.500000
756.824768	202.400000
756.862061	196.600000
756.899292	246.500000
756.936584	201.500000
756.973816	205.800000
757.011047	206.900000
757.048340	198.300000
757.085632	199.600000
757.122864	213.600000
757.160156	197.000000
757.197327	201.400000
757.234619	203.700000
757.271912	198.000000
757.309082	202.900000
757.346375	197.000000
757.383667	203.400000
757.420837	200.200000
757.458130	200.600000
757.495422	197.600000
757.532593	200.800000
757.569885	195.200000
757.607117	198.000000
757.644348	201.100000
757.681580	210.300000
757.718811	191.900000
757.756042	202.800000
757.793335	196.800000
757.830505	202.000000
757.867798	197.300000
757.905029	197.500000
757.942200	199.700000
757.979492	199.900000
758.016724	199.600000
758.053894	198.800000
758.091187	215.100000
758.128418	202.500000
758.165588	199.600000
758.202820	209.800000
758.240112	198.900000
758.277283	210.200000
758.314514	203.300000
758.351685	200.400000
758.388916	208.200000
758.426147	207.600000
758.463379	209.500000
758.500610	204.300000
758.537842	201.900000
758.575012	209.000000
758.612244	198.800000
758.649475	212.500000
758.686646	198.300000
758.723877	209.500000
758.761108	208.700000
758.798279	202.900000
758.835510	204.600000
758.872742	208.300000
758.909851	204.400000
758.947083	204.600000
758.984253	206.200000
759.021484	207.100000
759.058716	206.300000
759.095886	208.400000
759.133057	204.400000
759.170288	208.300000
759.207458	204.200000
759.244690	213.000000
759.281860	212.600000
759.319031	205.900000
759.356262	204.400000
759.393433	205.000000
759.430603	205.300000
759.467773	206.200000
759.505005	211.900000
759.542175	211.700000
759.579346	206.500000
759.616516	207.300000
759.653687	211.100000
759.690918	204.200000
759.728027	208.200000
759.765259	208.400000
759.802429	210.300000
759.839539	209.500000
759.876770	213.200000
759.913940	216.300000
759.951111	209.300000
759.988281	209.400000
760.025452	206.400000
760.062561	205.500000
760.099792	217.600000
760.136963	212.100000
760.174072	208.100000
760.211243	204.700000
760.248413	206.200000
760.285583	207.600000
760.322754	218.800000
760.359863	214.700000
760.397034	213.900000
760.434204	209.000000
760.471375	211.900000
760.508545	209.200000
760.545715	211.400000
760.582825	207.000000
760.619995	215.100000
760.657166	206.900000
760.694275	215.800000
760.731445	214.100000
760.768555	212.800000
760.805664	216.600000
760.842834	214.000000
760.879944	215.100000
760.917114	213.100000
760.954285	212.900000
760.991394	207.800000
761.028564	217.600000
761.065674	214.700000
761.102783	211.100000
761.139954	217.800000
761.177124	215.900000
761.214172	218.700000
761.251343	213.900000
761.288452	213.800000
761.325562	217.800000
761.362732	212.400000
761.399841	214.400000
761.436951	215.100000
761.474121	212.700000
761.511169	215.900000
761.548340	219.300000
761.585449	218.100000
761.622559	219.400000
761.659668	216.500000
761.696838	222.200000
761.733887	219.500000
761.771057	215.300000
761.808167	216.500000
761.845276	220.500000
761.882385	225.900000
761.919434	217.900000
761.956604	232.800000
761.993713	215.600000
762.030762	223.500000
762.067871	218.100000
762.105042	218.500000
762.142090	225.700000
762.179199	221.500000
762.216309	223.700000
762.253418	231.400000
762.290527	227.400000
762.327637	224.700000
762.364685	216.500000
762.401794	224.200000
762.438904	222.800000
762.475952	219.500000
762.513062	219.500000
762.550110	222.400000
762.587219	231.600000
762.624329	229.400000
762.661377	224.900000
762.698486	223.800000
762.735596	224.500000
762.772644	220.800000
762.809753	217.800000
762.846863	222.900000
762.883911	228.300000
762.921021	227.300000
762.958069	225.600000
762.995117	231.400000
763.032227	228.700000
763.069336	223.000000
763.106323	219.200000
763.143433	220.500000
763.180481	226.500000
763.217590	228.000000
763.254639	226.400000
763.291687	224.900000
763.328735	231.400000
763.365845	224.900000
763.402893	225.000000
763.439941	228.500000
763.477051	229.500000
763.514038	228.600000
763.551147	224.800000
763.588196	228.400000
763.625244	229.300000
763.662292	233.800000
763.699402	237.500000
763.736389	232.300000
763.773499	240.500000
763.810486	233.400000
763.847534	231.400000
763.884644	231.800000
763.921631	228.000000
763.958679	237.500000
763.995728	230.700000
764.032776	237.100000
764.069824	229.800000
764.106873	237.600000
764.143860	244.100000
764.180969	234.300000
764.218018	240.400000
764.255005	234.100000
764.292053	234.900000
764.329102	241.300000
764.366089	242.800000
764.403137	240.100000
764.440125	233.400000
764.477173	234.900000
764.514221	241.700000
764.551208	239.300000
764.588257	236.700000
764.625305	245.500000
764.662292	247.600000
764.699341	251.600000
764.736389	242.700000
764.773376	254.200000
764.810425	244.200000
764.847473	249.600000
764.884399	246.000000
764.921448	252.400000
764.958435	251.300000
764.995483	245.100000
765.032532	258.700000
765.069458	248.200000
765.106506	250.200000
765.143555	249.100000
765.180481	252.300000
765.217529	256.400000
765.254578	245.500000
765.291504	254.500000
765.328552	251.300000
765.365540	249.200000
765.402527	259.400000
765.439575	251.200000
765.476501	248.000000
765.513550	247.700000
765.550537	253.000000
765.587463	260.500000
765.624512	252.700000
765.661499	248.700000
765.698486	261.000000
765.735474	253.300000
765.772461	255.600000
765.809448	261.600000
765.846436	259.300000
765.883423	261.300000
765.920410	257.000000
765.957397	253.600000
765.994385	258.400000
766.031311	267.000000
766.068359	259.800000
766.105286	261.200000
766.142273	267.900000
766.179260	262.200000
766.216187	257.400000
766.253174	255.800000
766.290161	261.600000
766.327148	265.700000
766.364136	264.000000
766.401123	274.700000
766.438049	259.400000
766.475037	271.300000
766.512024	268.500000
766.548950	279.600000
766.585937	276.200000
766.622864	272.300000
766.659790	270.800000
766.696777	261.600000
766.733704	274.300000
766.770691	267.600000
766.807678	278.100000
766.844604	271.800000
766.881531	272.200000
766.918518	275.800000
766.955444	277.300000
766.992432	272.500000
767.029358	274.500000
767.066284	276.000000
767.103271	276.000000
767.140198	307.100000
767.177124	288.200000
767.214050	277.400000
767.251038	280.100000
767.287964	276.400000
767.324890	275.600000
767.361816	278.400000
767.398743	283.100000
767.435730	278.000000
767.472595	281.000000
767.509583	285.500000
767.546509	275.800000
767.583374	280.300000
767.620361	276.700000
767.657288	279.400000
767.694214	280.900000
767.731140	281.300000
767.768066	284.100000
767.804993	285.900000
767.841919	280.400000
767.878845	283.300000
767.915710	289.000000
767.952698	282.200000
767.989563	286.300000
768.026489	287.500000
