Model Number: SPM-001-M   
Serial Number: 10090201
Firmware Version: 004.17.6
Exposure Time: 300000.000000us
Data Taken on: 11-02-2021 10:54:46.619
Wavelength	Amplitude
733.770752	0.000000
733.808716	0.000000
733.846619	0.000000
733.884583	0.000000
733.922546	0.000000
733.960449	0.000000
733.998413	0.000000
734.036377	0.000000
734.074219	0.000000
734.112183	0.000000
734.150085	0.000000
734.188049	0.000000
734.226013	0.000000
734.263916	0.000000
734.301819	0.000000
734.339783	0.000000
734.377686	0.000000
734.415588	0.000000
734.453552	0.000000
734.491455	0.000000
734.529419	0.000000
734.567322	0.000000
734.605225	0.000000
734.643127	0.000000
734.681091	0.000000
734.718994	0.000000
734.756897	0.000000
734.794800	0.000000
734.832703	0.000000
734.870667	0.000000
734.908508	0.000000
734.946472	0.000000
734.984375	0.000000
735.022278	0.000000
735.060181	0.000000
735.098083	0.000000
735.135986	0.000000
735.173889	0.000000
735.211792	0.000000
735.249695	0.000000
735.287598	0.000000
735.325439	0.000000
735.363403	0.000000
735.401306	0.000000
735.439148	0.000000
735.477051	0.000000
735.515015	0.000000
735.552856	0.000000
735.590759	0.000000
735.628662	0.000000
735.666504	0.000000
735.704407	0.000000
735.742310	0.000000
735.780212	0.000000
735.818115	0.000000
735.856018	0.000000
735.893860	0.000000
735.931763	0.000000
735.969604	0.000000
736.007507	0.000000
736.045410	0.000000
736.083252	0.000000
736.121094	0.000000
736.158997	0.000000
736.196838	0.000000
736.234741	0.000000
736.272644	0.000000
736.310486	0.000000
736.348389	0.000000
736.386230	0.000000
736.424072	0.000000
736.461975	0.000000
736.499878	0.000000
736.537720	0.000000
736.575562	0.000000
736.613403	0.000000
736.651306	0.000000
736.689148	0.000000
736.726990	0.000000
736.764893	0.000000
736.802734	0.000000
736.840576	0.000000
736.878418	0.000000
736.916321	0.000000
736.954102	0.000000
736.992004	0.000000
737.029846	0.000000
737.067688	0.000000
737.105530	0.000000
737.143372	0.000000
737.181213	0.000000
737.219116	0.000000
737.256897	0.000000
737.294739	0.000000
737.332642	0.000000
737.370422	0.000000
737.408325	0.000000
737.446167	0.000000
737.483948	0.000000
737.521790	0.000000
737.559692	0.000000
737.597473	0.000000
737.635315	0.000000
737.673157	0.000000
737.710999	0.000000
737.748840	0.000000
737.786621	0.000000
737.824463	0.000000
737.862305	0.000000
737.900085	0.000000
737.937927	0.000000
737.975769	0.000000
738.013550	0.000000
738.051392	0.000000
738.089233	0.000000
738.127014	0.000000
738.164856	0.000000
738.202698	0.000000
738.240479	0.000000
738.278320	0.000000
738.316162	0.000000
738.353943	0.000000
738.391785	0.000000
738.429565	0.000000
738.467407	0.000000
738.505188	0.000000
738.542969	0.000000
738.580811	0.000000
738.618652	0.000000
738.656372	0.000000
738.694214	0.000000
738.732056	0.000000
738.769836	0.000000
738.807617	0.000000
738.845459	0.000000
738.883240	0.000000
738.921021	0.000000
738.958862	0.000000
738.996582	0.000000
739.034424	0.000000
739.072205	0.000000
739.109985	0.000000
739.147827	0.000000
739.185547	0.000000
739.223389	0.000000
739.261169	0.000000
739.298889	0.000000
739.336731	0.000000
739.374512	0.000000
739.412292	0.000000
739.450073	0.000000
739.487854	0.000000
739.525635	0.000000
739.563416	0.000000
739.601135	0.000000
739.638977	0.000000
739.676758	0.000000
739.714478	0.000000
739.752258	0.000000
739.790100	0.000000
739.827820	0.000000
739.865601	0.000000
739.903381	0.000000
739.941101	0.000000
739.978882	198.200000
740.016724	193.600000
740.054443	199.300000
740.092224	192.800000
740.130005	193.100000
740.167725	192.600000
740.205505	193.000000
740.243225	201.900000
740.281006	195.600000
740.318787	191.200000
740.356506	202.000000
740.394287	199.100000
740.432068	193.300000
740.469727	190.100000
740.507507	198.400000
740.545288	195.100000
740.583008	197.100000
740.620789	194.200000
740.658569	189.700000
740.696228	195.200000
740.734009	200.300000
740.771790	186.700000
740.809509	199.500000
740.847229	191.700000
740.884949	194.200000
740.922729	189.900000
740.960449	195.400000
740.998169	191.000000
741.035950	193.600000
741.073669	194.600000
741.111389	198.600000
741.149170	203.800000
741.186890	202.100000
741.224609	196.900000
741.262329	197.800000
741.300110	201.500000
741.337769	193.400000
741.375549	190.500000
741.413208	196.300000
741.450989	192.600000
741.488708	194.900000
741.526367	193.100000
741.564148	199.400000
741.601868	198.900000
741.639526	195.300000
741.677307	196.100000
741.715027	197.500000
741.752686	191.400000
741.790466	202.800000
741.828186	198.600000
741.865845	192.200000
741.903564	190.900000
741.941345	194.700000
741.979004	192.100000
742.016724	199.000000
742.054382	195.900000
742.092102	198.400000
742.129822	191.700000
742.167480	193.800000
742.205200	195.100000
742.242920	196.400000
742.280640	199.700000
742.318359	192.400000
742.356079	194.100000
742.393738	198.900000
742.431396	194.500000
742.469116	199.200000
742.506775	188.600000
742.544495	197.400000
742.582214	199.800000
742.619873	194.500000
742.657593	201.400000
742.695251	198.300000
742.732971	195.800000
742.770630	196.100000
742.808289	196.400000
742.846008	195.300000
742.883728	197.800000
742.921326	195.200000
742.959045	194.300000
742.996765	194.300000
743.034424	194.700000
743.072083	193.900000
743.109802	194.800000
743.147400	191.400000
743.185120	197.200000
743.222839	195.200000
743.260437	200.300000
743.298157	197.000000
743.335754	188.600000
743.373474	195.700000
743.411133	189.000000
743.448792	195.400000
743.486450	195.700000
743.524170	190.200000
743.561768	195.400000
743.599487	199.700000
743.637146	204.000000
743.674744	195.300000
743.712463	192.900000
743.750122	196.600000
743.787720	195.600000
743.825439	194.400000
743.863037	194.000000
743.900696	196.800000
743.938416	221.700000
743.976013	196.900000
744.013672	200.900000
744.051331	199.700000
744.088928	202.900000
744.126587	200.800000
744.164307	196.400000
744.201904	192.800000
744.239563	198.300000
744.277222	199.500000
744.314819	196.600000
744.352478	200.800000
744.390137	196.700000
744.427734	198.800000
744.465393	193.700000
744.502991	192.900000
744.540649	197.400000
744.578308	196.400000
744.615906	192.300000
744.653564	188.000000
744.691223	198.000000
744.728821	190.100000
744.766418	196.200000
744.804077	196.500000
744.841675	194.300000
744.879333	190.400000
744.916992	194.400000
744.954529	193.200000
744.992187	200.700000
745.029785	194.100000
745.067444	194.700000
745.105042	195.100000
745.142639	198.600000
745.180298	203.900000
745.217896	194.300000
745.255493	194.800000
745.293152	199.300000
745.330750	199.300000
745.368347	202.600000
745.405945	197.300000
745.443604	197.200000
745.481140	198.400000
745.518799	196.100000
745.556396	197.400000
745.593994	198.800000
745.631592	195.400000
745.669189	192.900000
745.706787	195.400000
745.744385	194.200000
745.781982	197.400000
745.819580	194.800000
745.857178	195.400000
745.894775	195.400000
745.932373	196.900000
745.969971	197.400000
746.007568	190.700000
746.045166	202.900000
746.082764	201.200000
746.120300	197.900000
746.157898	198.400000
746.195557	195.900000
746.233093	191.100000
746.270691	197.500000
746.308228	197.500000
746.345825	199.000000
746.383423	199.200000
746.420959	193.200000
746.458557	194.100000
746.496155	193.900000
746.533691	196.500000
746.571289	191.700000
746.608887	196.300000
746.646423	196.900000
746.684021	197.800000
746.721619	193.900000
746.759155	198.100000
746.796753	190.500000
746.834351	191.700000
746.871826	192.900000
746.909424	200.800000
746.946960	196.700000
746.984558	195.700000
747.022156	193.900000
747.059631	204.200000
747.097229	197.500000
747.134827	194.900000
747.172363	200.100000
747.209900	201.800000
747.247498	191.800000
747.285034	201.700000
747.322571	202.300000
747.360168	196.100000
747.397644	190.400000
747.435242	199.300000
747.472778	201.200000
747.510315	194.400000
747.547913	195.200000
747.585388	201.200000
747.622925	195.300000
747.660522	189.800000
747.697998	195.100000
747.735596	194.000000
747.773132	193.300000
747.810669	196.400000
747.848206	198.400000
747.885742	192.500000
747.923279	192.000000
747.960815	197.000000
747.998352	197.400000
748.035889	199.500000
748.073425	199.200000
748.110901	193.000000
748.148437	192.800000
748.185974	195.300000
748.223511	204.800000
748.261047	197.300000
748.298584	197.700000
748.336060	194.400000
748.373596	199.700000
748.411133	220.000000
748.448608	194.100000
748.486145	198.200000
748.523682	200.200000
748.561218	201.400000
748.598755	197.300000
748.636292	197.100000
748.673706	196.200000
748.711243	202.600000
748.748718	197.300000
748.786255	195.200000
748.823792	196.100000
748.861267	192.600000
748.898804	198.900000
748.936340	197.600000
748.973816	195.000000
749.011292	200.600000
749.048828	196.700000
749.086304	197.600000
749.123840	203.800000
749.161316	193.100000
749.198792	203.000000
749.236328	200.900000
749.273743	194.900000
749.311279	195.000000
749.348816	198.500000
749.386230	196.600000
749.423767	187.600000
749.461304	198.800000
749.498718	196.400000
749.536255	201.200000
749.573730	204.800000
749.611206	202.200000
749.648682	196.200000
749.686218	196.000000
749.723633	197.400000
749.761169	196.700000
749.798645	192.200000
749.836060	195.200000
749.873596	192.400000
749.911011	198.100000
749.948547	199.800000
749.986023	196.300000
750.023437	195.000000
750.060913	192.300000
750.098450	192.100000
750.135864	196.300000
750.173340	196.800000
750.210815	200.400000
750.248291	191.600000
750.285767	195.600000
750.323242	199.800000
750.360657	199.400000
750.398132	193.000000
750.435608	198.200000
750.473022	193.400000
750.510498	192.000000
750.547974	191.000000
750.585449	194.100000
750.622925	188.400000
750.660339	205.700000
750.697815	195.900000
750.735291	195.800000
750.772644	199.900000
750.810120	196.100000
750.847595	198.700000
750.885010	191.600000
750.922485	204.900000
750.959961	196.400000
750.997375	202.600000
751.034851	198.300000
751.072266	198.100000
751.109680	189.800000
751.147156	203.300000
751.184570	196.600000
751.221985	197.300000
751.259460	189.700000
751.296875	196.900000
751.334290	195.000000
751.371765	200.200000
751.409180	197.700000
751.446594	201.500000
751.484070	197.200000
751.521423	198.700000
751.558899	195.800000
751.596375	205.800000
751.633728	201.200000
751.671204	205.500000
751.708618	193.800000
751.746033	197.100000
751.783447	191.400000
751.820801	192.400000
751.858276	200.000000
751.895691	197.500000
751.933105	194.500000
751.970520	192.200000
752.007935	194.200000
752.045349	199.700000
752.082764	197.000000
752.120178	194.200000
752.157532	194.300000
752.195007	193.900000
752.232422	197.800000
752.269775	198.600000
752.307190	198.900000
752.344543	190.700000
752.382019	195.900000
752.419434	194.300000
752.456787	199.200000
752.494202	199.400000
752.531616	198.000000
752.568970	198.700000
752.606384	199.000000
752.643799	197.100000
752.681152	201.700000
752.718567	198.100000
752.755981	191.800000
752.793335	199.900000
752.830750	191.100000
752.868164	199.200000
752.905518	193.700000
752.942932	198.700000
752.980225	193.600000
753.017639	197.700000
753.055054	197.400000
753.092407	197.000000
753.129822	200.400000
753.167175	203.700000
753.204529	197.000000
753.241943	191.900000
753.279358	192.200000
753.316650	199.000000
753.354065	198.100000
753.391479	199.500000
753.428772	202.600000
753.466187	197.800000
753.503479	192.200000
753.540894	195.200000
753.578308	191.000000
753.615601	193.200000
753.653015	196.300000
753.690369	195.400000
753.727722	192.600000
753.765076	192.300000
753.802490	191.600000
753.839783	190.700000
753.877136	193.800000
753.914551	207.300000
753.951843	192.400000
753.989258	200.100000
754.026611	196.900000
754.063904	199.600000
754.101257	191.400000
754.138611	191.800000
754.175964	197.900000
754.213318	204.900000
754.250610	191.100000
754.288025	195.400000
754.325378	190.700000
754.362671	200.800000
754.400024	196.000000
754.437378	205.000000
754.474670	202.200000
754.512085	193.900000
754.549438	196.600000
754.586731	194.400000
754.624084	195.100000
754.661438	194.000000
754.698730	203.800000
754.736084	196.100000
754.773376	194.900000
754.810730	198.700000
754.848083	196.400000
754.885315	201.400000
754.922668	192.300000
754.960022	193.500000
754.997314	200.300000
755.034668	195.900000
755.072021	198.400000
755.109253	195.800000
755.146606	202.000000
755.183960	196.100000
755.221252	203.400000
755.258545	199.900000
755.295898	201.400000
755.333191	201.100000
755.370544	200.100000
755.407776	197.800000
755.445129	199.100000
755.482422	200.600000
755.519714	196.600000
755.557068	192.200000
755.594360	192.100000
755.631653	201.200000
755.668945	204.500000
755.706299	198.600000
755.743530	209.100000
755.780884	202.900000
755.818176	202.700000
755.855408	202.500000
755.892761	200.400000
755.930054	198.400000
755.967346	201.900000
756.004639	200.700000
756.041870	199.600000
756.079224	203.100000
756.116516	196.300000
756.153748	201.200000
756.191040	206.800000
756.228394	201.100000
756.265625	196.400000
756.302917	198.600000
756.340210	196.900000
756.377441	203.100000
756.414795	205.500000
756.452087	198.900000
756.489319	194.100000
756.526611	202.600000
756.563843	199.500000
756.601135	206.700000
756.638428	206.000000
756.675659	198.900000
756.712952	203.000000
756.750244	202.400000
756.787476	198.800000
756.824768	205.700000
756.862061	199.000000
756.899292	248.200000
756.936584	204.500000
756.973816	209.600000
757.011047	208.300000
757.048340	200.300000
757.085632	199.900000
757.122864	215.900000
757.160156	198.300000
757.197327	203.300000
757.234619	203.500000
757.271912	199.500000
757.309082	205.100000
757.346375	199.400000
757.383667	204.800000
757.420837	203.500000
757.458130	201.300000
757.495422	200.300000
757.532593	203.200000
757.569885	197.200000
757.607117	199.600000
757.644348	204.700000
757.681580	211.600000
757.718811	194.300000
757.756042	202.800000
757.793335	199.900000
757.830505	204.200000
757.867798	199.100000
757.905029	198.900000
757.942200	202.300000
757.979492	201.700000
758.016724	201.100000
758.053894	199.700000
758.091187	217.200000
758.128418	203.900000
758.165588	201.000000
758.202820	213.800000
758.240112	201.600000
758.277283	213.300000
758.314514	204.400000
758.351685	202.300000
758.388916	211.600000
758.426147	209.700000
758.463379	210.300000
758.500610	207.100000
758.537842	204.700000
758.575012	210.800000
758.612244	200.200000
758.649475	215.700000
758.686646	199.700000
758.723877	211.900000
758.761108	212.200000
758.798279	205.100000
758.835510	206.100000
758.872742	212.600000
758.909851	208.500000
758.947083	209.300000
758.984253	207.600000
759.021484	210.600000
759.058716	208.600000
759.095886	210.500000
759.133057	205.800000
759.170288	210.400000
759.207458	205.200000
759.244690	215.200000
759.281860	215.400000
759.319031	209.400000
759.356262	206.700000
759.393433	206.700000
759.430603	208.100000
759.467773	208.100000
759.505005	213.700000
759.542175	212.400000
759.579346	208.000000
759.616516	209.400000
759.653687	213.000000
759.690918	207.700000
759.728027	211.600000
759.765259	210.800000
759.802429	214.000000
759.839539	212.600000
759.876770	214.900000
759.913940	218.200000
759.951111	211.700000
759.988281	210.400000
760.025452	209.600000
760.062561	208.600000
760.099792	222.300000
760.136963	214.600000
760.174072	212.300000
760.211243	207.300000
760.248413	209.200000
760.285583	208.800000
760.322754	221.000000
760.359863	216.200000
760.397034	217.100000
760.434204	212.700000
760.471375	213.900000
760.508545	212.100000
760.545715	214.100000
760.582825	209.100000
760.619995	217.600000
760.657166	209.200000
760.694275	221.000000
760.731445	215.200000
760.768555	216.900000
760.805664	217.500000
760.842834	216.500000
760.879944	217.600000
760.917114	216.400000
760.954285	213.400000
760.991394	210.900000
761.028564	219.600000
761.065674	218.000000
761.102783	213.800000
761.139954	219.900000
761.177124	219.200000
761.214172	220.300000
761.251343	217.400000
761.288452	216.600000
761.325562	220.400000
761.362732	214.600000
761.399841	217.700000
761.436951	218.900000
761.474121	214.700000
761.511169	218.100000
761.548340	221.300000
761.585449	219.000000
761.622559	222.300000
761.659668	219.800000
761.696838	225.400000
761.733887	220.000000
761.771057	218.300000
761.808167	219.300000
761.845276	224.500000
761.882385	229.400000
761.919434	222.300000
761.956604	235.000000
761.993713	219.200000
762.030762	226.100000
762.067871	222.400000
762.105042	221.700000
762.142090	229.500000
762.179199	223.300000
762.216309	227.300000
762.253418	235.300000
762.290527	229.900000
762.327637	226.000000
762.364685	219.000000
762.401794	226.900000
762.438904	227.100000
762.475952	223.300000
762.513062	221.900000
762.550110	223.400000
762.587219	234.600000
762.624329	231.800000
762.661377	226.100000
762.698486	227.100000
762.735596	227.000000
762.772644	222.300000
762.809753	220.500000
762.846863	227.000000
762.883911	231.100000
762.921021	232.300000
762.958069	228.100000
762.995117	234.100000
763.032227	233.300000
763.069336	224.900000
763.106323	221.200000
763.143433	223.600000
763.180481	228.600000
763.217590	230.700000
763.254639	228.400000
763.291687	230.700000
763.328735	235.900000
763.365845	230.700000
763.402893	227.500000
763.439941	231.400000
763.477051	232.900000
763.514038	234.000000
763.551147	227.700000
763.588196	230.800000
763.625244	231.600000
763.662292	239.000000
763.699402	240.100000
763.736389	235.600000
763.773499	241.600000
763.810486	235.800000
763.847534	232.300000
763.884644	234.700000
763.921631	231.900000
763.958679	240.700000
763.995728	233.300000
764.032776	239.400000
764.069824	232.800000
764.106873	241.300000
764.143860	244.700000
764.180969	237.100000
764.218018	242.900000
764.255005	236.300000
764.292053	238.500000
764.329102	244.600000
764.366089	245.400000
764.403137	241.400000
764.440125	238.100000
764.477173	241.000000
764.514221	245.300000
764.551208	243.700000
764.588257	239.500000
764.625305	246.700000
764.662292	253.100000
764.699341	254.800000
764.736389	247.300000
764.773376	259.300000
764.810425	248.700000
764.847473	252.700000
764.884399	250.900000
764.921448	254.400000
764.958435	255.400000
764.995483	248.000000
765.032532	263.600000
765.069458	252.300000
765.106506	255.100000
765.143555	252.900000
765.180481	254.900000
765.217529	263.000000
765.254578	252.200000
765.291504	257.900000
765.328552	255.900000
765.365540	251.300000
765.402527	265.000000
765.439575	254.600000
765.476501	253.300000
765.513550	254.400000
765.550537	258.100000
765.587463	265.800000
765.624512	256.900000
765.661499	252.500000
765.698486	263.700000
765.735474	256.500000
765.772461	258.100000
765.809448	265.100000
765.846436	262.000000
765.883423	266.300000
765.920410	261.600000
765.957397	259.400000
765.994385	262.300000
766.031311	271.200000
766.068359	264.600000
766.105286	267.300000
766.142273	271.100000
766.179260	266.600000
766.216187	262.400000
766.253174	261.600000
766.290161	266.300000
766.327148	270.700000
766.364136	269.000000
766.401123	281.100000
766.438049	264.000000
766.475037	276.500000
766.512024	272.300000
766.548950	285.600000
766.585937	280.200000
766.622864	276.300000
766.659790	276.600000
766.696777	268.900000
766.733704	280.000000
766.770691	272.600000
766.807678	281.600000
766.844604	277.600000
766.881531	278.100000
766.918518	281.900000
766.955444	283.700000
766.992432	276.400000
767.029358	279.300000
767.066284	281.600000
767.103271	278.700000
767.140198	312.200000
767.177124	293.100000
767.214050	284.700000
767.251038	286.300000
767.287964	283.600000
767.324890	282.400000
767.361816	283.600000
767.398743	291.500000
767.435730	282.800000
767.472595	286.800000
767.509583	289.700000
767.546509	282.000000
767.583374	287.400000
767.620361	281.300000
767.657288	286.200000
767.694214	288.000000
767.731140	287.100000
767.768066	289.000000
767.804993	288.500000
767.841919	283.800000
767.878845	287.900000
767.915710	295.500000
767.952698	287.200000
767.989563	291.600000
768.026489	293.100000
