Model Number: SPM-001-M   
Serial Number: 10090201
Firmware Version: 004.17.6
Exposure Time: 300000.000000us
Data Taken on: 11-02-2021 10:58:08.219
Wavelength	Amplitude
733.770752	0.000000
733.808716	0.000000
733.846619	0.000000
733.884583	0.000000
733.922546	0.000000
733.960449	0.000000
733.998413	0.000000
734.036377	0.000000
734.074219	0.000000
734.112183	0.000000
734.150085	0.000000
734.188049	0.000000
734.226013	0.000000
734.263916	0.000000
734.301819	0.000000
734.339783	0.000000
734.377686	0.000000
734.415588	0.000000
734.453552	0.000000
734.491455	0.000000
734.529419	0.000000
734.567322	0.000000
734.605225	0.000000
734.643127	0.000000
734.681091	0.000000
734.718994	0.000000
734.756897	0.000000
734.794800	0.000000
734.832703	0.000000
734.870667	0.000000
734.908508	0.000000
734.946472	0.000000
734.984375	0.000000
735.022278	0.000000
735.060181	0.000000
735.098083	0.000000
735.135986	0.000000
735.173889	0.000000
735.211792	0.000000
735.249695	0.000000
735.287598	0.000000
735.325439	0.000000
735.363403	0.000000
735.401306	0.000000
735.439148	0.000000
735.477051	0.000000
735.515015	0.000000
735.552856	0.000000
735.590759	0.000000
735.628662	0.000000
735.666504	0.000000
735.704407	0.000000
735.742310	0.000000
735.780212	0.000000
735.818115	0.000000
735.856018	0.000000
735.893860	0.000000
735.931763	0.000000
735.969604	0.000000
736.007507	0.000000
736.045410	0.000000
736.083252	0.000000
736.121094	0.000000
736.158997	0.000000
736.196838	0.000000
736.234741	0.000000
736.272644	0.000000
736.310486	0.000000
736.348389	0.000000
736.386230	0.000000
736.424072	0.000000
736.461975	0.000000
736.499878	0.000000
736.537720	0.000000
736.575562	0.000000
736.613403	0.000000
736.651306	0.000000
736.689148	0.000000
736.726990	0.000000
736.764893	0.000000
736.802734	0.000000
736.840576	0.000000
736.878418	0.000000
736.916321	0.000000
736.954102	0.000000
736.992004	0.000000
737.029846	0.000000
737.067688	0.000000
737.105530	0.000000
737.143372	0.000000
737.181213	0.000000
737.219116	0.000000
737.256897	0.000000
737.294739	0.000000
737.332642	0.000000
737.370422	0.000000
737.408325	0.000000
737.446167	0.000000
737.483948	0.000000
737.521790	0.000000
737.559692	0.000000
737.597473	0.000000
737.635315	0.000000
737.673157	0.000000
737.710999	0.000000
737.748840	0.000000
737.786621	0.000000
737.824463	0.000000
737.862305	0.000000
737.900085	0.000000
737.937927	0.000000
737.975769	0.000000
738.013550	0.000000
738.051392	0.000000
738.089233	0.000000
738.127014	0.000000
738.164856	0.000000
738.202698	0.000000
738.240479	0.000000
738.278320	0.000000
738.316162	0.000000
738.353943	0.000000
738.391785	0.000000
738.429565	0.000000
738.467407	0.000000
738.505188	0.000000
738.542969	0.000000
738.580811	0.000000
738.618652	0.000000
738.656372	0.000000
738.694214	0.000000
738.732056	0.000000
738.769836	0.000000
738.807617	0.000000
738.845459	0.000000
738.883240	0.000000
738.921021	0.000000
738.958862	0.000000
738.996582	0.000000
739.034424	0.000000
739.072205	0.000000
739.109985	0.000000
739.147827	0.000000
739.185547	0.000000
739.223389	0.000000
739.261169	0.000000
739.298889	0.000000
739.336731	0.000000
739.374512	0.000000
739.412292	0.000000
739.450073	0.000000
739.487854	0.000000
739.525635	0.000000
739.563416	0.000000
739.601135	0.000000
739.638977	0.000000
739.676758	0.000000
739.714478	0.000000
739.752258	0.000000
739.790100	0.000000
739.827820	0.000000
739.865601	0.000000
739.903381	0.000000
739.941101	0.000000
739.978882	198.300000
740.016724	194.300000
740.054443	198.600000
740.092224	193.500000
740.130005	194.200000
740.167725	194.100000
740.205505	193.200000
740.243225	200.700000
740.281006	196.100000
740.318787	190.300000
740.356506	201.100000
740.394287	198.800000
740.432068	192.300000
740.469727	190.300000
740.507507	198.100000
740.545288	194.800000
740.583008	197.600000
740.620789	195.400000
740.658569	189.600000
740.696228	194.100000
740.734009	198.700000
740.771790	187.200000
740.809509	197.500000
740.847229	193.100000
740.884949	193.300000
740.922729	191.100000
740.960449	194.400000
740.998169	192.200000
741.035950	191.700000
741.073669	197.200000
741.111389	195.700000
741.149170	204.200000
741.186890	203.000000
741.224609	198.100000
741.262329	197.400000
741.300110	203.900000
741.337769	193.900000
741.375549	191.900000
741.413208	196.700000
741.450989	192.600000
741.488708	193.400000
741.526367	193.500000
741.564148	198.500000
741.601868	199.100000
741.639526	194.100000
741.677307	197.500000
741.715027	197.800000
741.752686	192.100000
741.790466	199.600000
741.828186	197.000000
741.865845	192.200000
741.903564	189.800000
741.941345	195.400000
741.979004	191.300000
742.016724	200.000000
742.054382	195.500000
742.092102	198.400000
742.129822	191.300000
742.167480	195.100000
742.205200	193.500000
742.242920	197.200000
742.280640	198.500000
742.318359	191.000000
742.356079	195.400000
742.393738	198.300000
742.431396	194.500000
742.469116	199.500000
742.506775	187.700000
742.544495	199.400000
742.582214	200.300000
742.619873	195.300000
742.657593	201.000000
742.695251	200.300000
742.732971	194.600000
742.770630	197.200000
742.808289	197.600000
742.846008	197.000000
742.883728	196.900000
742.921326	195.400000
742.959045	194.200000
742.996765	194.900000
743.034424	194.900000
743.072083	194.300000
743.109802	194.200000
743.147400	190.300000
743.185120	194.800000
743.222839	195.500000
743.260437	201.600000
743.298157	196.600000
743.335754	189.100000
743.373474	194.600000
743.411133	189.500000
743.448792	194.800000
743.486450	195.600000
743.524170	189.400000
743.561768	194.900000
743.599487	200.300000
743.637146	203.900000
743.674744	193.200000
743.712463	194.300000
743.750122	195.800000
743.787720	196.900000
743.825439	193.200000
743.863037	195.200000
743.900696	194.400000
743.938416	222.300000
743.976013	194.600000
744.013672	202.300000
744.051331	198.400000
744.088928	202.200000
744.126587	199.600000
744.164307	197.700000
744.201904	193.200000
744.239563	198.900000
744.277222	197.600000
744.314819	197.300000
744.352478	200.800000
744.390137	197.500000
744.427734	196.500000
744.465393	193.500000
744.502991	193.800000
744.540649	199.000000
744.578308	196.000000
744.615906	191.200000
744.653564	188.300000
744.691223	197.200000
744.728821	190.100000
744.766418	195.000000
744.804077	197.800000
744.841675	193.900000
744.879333	191.300000
744.916992	195.000000
744.954529	194.700000
744.992187	198.300000
745.029785	191.900000
745.067444	192.300000
745.105042	195.700000
745.142639	196.300000
745.180298	204.400000
745.217896	194.700000
745.255493	194.300000
745.293152	197.000000
745.330750	199.400000
745.368347	201.700000
745.405945	198.500000
745.443604	195.200000
745.481140	199.500000
745.518799	195.400000
745.556396	199.000000
745.593994	198.300000
745.631592	196.500000
745.669189	191.200000
745.706787	196.200000
745.744385	193.300000
745.781982	199.700000
745.819580	193.400000
745.857178	196.500000
745.894775	196.300000
745.932373	197.400000
745.969971	197.300000
746.007568	190.600000
746.045166	201.900000
746.082764	201.900000
746.120300	198.000000
746.157898	196.700000
746.195557	195.600000
746.233093	191.000000
746.270691	198.200000
746.308228	199.000000
746.345825	199.200000
746.383423	198.800000
746.420959	192.400000
746.458557	194.300000
746.496155	194.100000
746.533691	197.000000
746.571289	191.100000
746.608887	195.100000
746.646423	196.700000
746.684021	196.600000
746.721619	193.000000
746.759155	197.800000
746.796753	191.300000
746.834351	191.100000
746.871826	192.600000
746.909424	200.700000
746.946960	196.200000
746.984558	193.700000
747.022156	194.100000
747.059631	201.100000
747.097229	197.200000
747.134827	195.400000
747.172363	200.600000
747.209900	200.100000
747.247498	192.700000
747.285034	201.400000
747.322571	202.200000
747.360168	195.400000
747.397644	190.700000
747.435242	199.600000
747.472778	200.900000
747.510315	194.000000
747.547913	194.400000
747.585388	199.500000
747.622925	195.500000
747.660522	189.900000
747.697998	193.100000
747.735596	193.400000
747.773132	192.500000
747.810669	195.500000
747.848206	198.700000
747.885742	191.700000
747.923279	191.700000
747.960815	197.400000
747.998352	196.200000
748.035889	199.500000
748.073425	198.600000
748.110901	193.300000
748.148437	192.400000
748.185974	195.800000
748.223511	202.900000
748.261047	197.700000
748.298584	196.200000
748.336060	195.000000
748.373596	197.500000
748.411133	220.300000
748.448608	193.000000
748.486145	197.900000
748.523682	200.200000
748.561218	202.600000
748.598755	197.100000
748.636292	197.800000
748.673706	194.500000
748.711243	202.200000
748.748718	196.400000
748.786255	196.700000
748.823792	196.500000
748.861267	193.300000
748.898804	198.600000
748.936340	197.400000
748.973816	194.000000
749.011292	202.200000
749.048828	196.900000
749.086304	197.200000
749.123840	203.800000
749.161316	193.600000
749.198792	202.700000
749.236328	200.400000
749.273743	195.600000
749.311279	194.300000
749.348816	199.200000
749.386230	195.100000
749.423767	188.300000
749.461304	199.300000
749.498718	196.100000
749.536255	199.000000
749.573730	204.800000
749.611206	202.200000
749.648682	194.900000
749.686218	195.700000
749.723633	199.600000
749.761169	194.400000
749.798645	194.200000
749.836060	194.100000
749.873596	192.600000
749.911011	197.200000
749.948547	200.800000
749.986023	195.200000
750.023437	195.700000
750.060913	192.500000
750.098450	191.400000
750.135864	195.300000
750.173340	196.200000
750.210815	199.700000
750.248291	192.800000
750.285767	195.000000
750.323242	200.500000
750.360657	197.900000
750.398132	194.000000
750.435608	198.200000
750.473022	194.400000
750.510498	191.900000
750.547974	192.100000
750.585449	195.400000
750.622925	187.800000
750.660339	205.500000
750.697815	197.100000
750.735291	195.400000
750.772644	200.700000
750.810120	194.400000
750.847595	198.300000
750.885010	192.500000
750.922485	202.000000
750.959961	195.500000
750.997375	202.400000
751.034851	199.200000
751.072266	198.700000
751.109680	190.600000
751.147156	201.100000
751.184570	198.300000
751.221985	196.000000
751.259460	190.100000
751.296875	195.700000
751.334290	195.700000
751.371765	200.800000
751.409180	200.200000
751.446594	201.500000
751.484070	198.500000
751.521423	197.200000
751.558899	197.400000
751.596375	205.300000
751.633728	201.400000
751.671204	205.100000
751.708618	194.200000
751.746033	197.700000
751.783447	191.900000
751.820801	194.800000
751.858276	199.800000
751.895691	195.600000
751.933105	194.900000
751.970520	191.800000
752.007935	194.800000
752.045349	200.100000
752.082764	196.200000
752.120178	193.900000
752.157532	192.700000
752.195007	193.600000
752.232422	197.300000
752.269775	198.800000
752.307190	198.500000
752.344543	191.600000
752.382019	194.800000
752.419434	193.600000
752.456787	197.000000
752.494202	200.000000
752.531616	196.000000
752.568970	197.900000
752.606384	196.600000
752.643799	197.800000
752.681152	201.300000
752.718567	199.200000
752.755981	191.100000
752.793335	198.700000
752.830750	191.700000
752.868164	201.700000
752.905518	191.600000
752.942932	200.100000
752.980225	191.600000
753.017639	198.900000
753.055054	195.500000
753.092407	197.200000
753.129822	201.000000
753.167175	203.300000
753.204529	195.700000
753.241943	194.500000
753.279358	192.000000
753.316650	199.100000
753.354065	196.700000
753.391479	200.800000
753.428772	202.100000
753.466187	197.900000
753.503479	192.800000
753.540894	194.800000
753.578308	192.000000
753.615601	190.000000
753.653015	196.200000
753.690369	193.400000
753.727722	191.900000
753.765076	192.000000
753.802490	192.000000
753.839783	189.600000
753.877136	193.700000
753.914551	205.500000
753.951843	192.100000
753.989258	199.300000
754.026611	197.700000
754.063904	198.800000
754.101257	193.000000
754.138611	188.800000
754.175964	197.400000
754.213318	204.200000
754.250610	191.000000
754.288025	193.900000
754.325378	192.700000
754.362671	198.300000
754.400024	195.500000
754.437378	204.300000
754.474670	202.800000
754.512085	194.600000
754.549438	198.800000
754.586731	194.900000
754.624084	196.600000
754.661438	193.000000
754.698730	203.400000
754.736084	195.800000
754.773376	195.600000
754.810730	196.700000
754.848083	196.300000
754.885315	200.500000
754.922668	192.300000
754.960022	193.500000
754.997314	199.700000
755.034668	196.600000
755.072021	197.500000
755.109253	196.100000
755.146606	202.800000
755.183960	195.600000
755.221252	202.100000
755.258545	199.800000
755.295898	200.800000
755.333191	201.500000
755.370544	197.200000
755.407776	197.400000
755.445129	198.400000
755.482422	199.000000
755.519714	195.300000
755.557068	192.100000
755.594360	189.700000
755.631653	200.700000
755.668945	202.600000
755.706299	199.900000
755.743530	207.700000
755.780884	203.700000
755.818176	201.300000
755.855408	202.300000
755.892761	199.600000
755.930054	198.400000
755.967346	199.500000
756.004639	201.200000
756.041870	197.700000
756.079224	203.700000
756.116516	195.600000
756.153748	200.900000
756.191040	206.400000
756.228394	200.800000
756.265625	195.600000
756.302917	199.400000
756.340210	196.600000
756.377441	202.900000
756.414795	204.500000
756.452087	198.100000
756.489319	194.100000
756.526611	202.100000
756.563843	198.600000
756.601135	205.000000
756.638428	205.200000
756.675659	199.600000
756.712952	201.900000
756.750244	201.200000
756.787476	200.400000
756.824768	203.600000
756.862061	198.400000
756.899292	246.900000
756.936584	202.700000
756.973816	206.600000
757.011047	209.200000
757.048340	200.000000
757.085632	200.400000
757.122864	214.000000
757.160156	198.300000
757.197327	202.400000
757.234619	204.900000
757.271912	199.200000
757.309082	203.400000
757.346375	198.500000
757.383667	204.800000
757.420837	202.200000
757.458130	201.400000
757.495422	199.100000
757.532593	202.600000
757.569885	197.000000
757.607117	197.800000
757.644348	203.400000
757.681580	213.300000
757.718811	192.800000
757.756042	202.900000
757.793335	200.000000
757.830505	204.300000
757.867798	200.100000
757.905029	199.500000
757.942200	202.500000
757.979492	199.700000
758.016724	199.900000
758.053894	199.100000
758.091187	215.900000
758.128418	202.300000
758.165588	200.300000
758.202820	210.400000
758.240112	200.700000
758.277283	210.600000
758.314514	203.800000
758.351685	200.500000
758.388916	208.600000
758.426147	210.300000
758.463379	209.900000
758.500610	205.900000
758.537842	203.600000
758.575012	208.600000
758.612244	201.500000
758.649475	214.100000
758.686646	199.700000
758.723877	209.400000
758.761108	210.900000
758.798279	203.900000
758.835510	206.100000
758.872742	211.300000
758.909851	207.200000
758.947083	207.100000
758.984253	207.900000
759.021484	207.900000
759.058716	208.700000
759.095886	209.600000
759.133057	207.000000
759.170288	209.800000
759.207458	205.300000
759.244690	214.200000
759.281860	212.600000
759.319031	207.500000
759.356262	205.600000
759.393433	205.300000
759.430603	206.700000
759.467773	206.400000
759.505005	211.600000
759.542175	211.500000
759.579346	206.200000
759.616516	208.400000
759.653687	212.200000
759.690918	205.600000
759.728027	210.600000
759.765259	210.100000
759.802429	212.200000
759.839539	211.300000
759.876770	214.500000
759.913940	217.900000
759.951111	210.200000
759.988281	211.200000
760.025452	208.900000
760.062561	208.000000
760.099792	218.700000
760.136963	213.800000
760.174072	209.400000
760.211243	206.400000
760.248413	206.400000
760.285583	208.000000
760.322754	220.000000
760.359863	218.000000
760.397034	217.700000
760.434204	211.000000
760.471375	211.600000
760.508545	210.200000
760.545715	211.800000
760.582825	209.700000
760.619995	214.800000
760.657166	208.700000
760.694275	217.600000
760.731445	213.600000
760.768555	214.900000
760.805664	216.800000
760.842834	213.900000
760.879944	214.900000
760.917114	215.500000
760.954285	212.700000
760.991394	210.200000
761.028564	219.200000
761.065674	217.100000
761.102783	210.700000
761.139954	217.500000
761.177124	216.700000
761.214172	219.300000
761.251343	213.500000
761.288452	214.600000
761.325562	219.100000
761.362732	212.200000
761.399841	215.600000
761.436951	218.100000
761.474121	212.500000
761.511169	215.700000
761.548340	219.800000
761.585449	218.900000
761.622559	220.000000
761.659668	218.100000
761.696838	221.600000
761.733887	219.500000
761.771057	216.100000
761.808167	217.900000
761.845276	221.200000
761.882385	229.100000
761.919434	219.700000
761.956604	234.700000
761.993713	216.200000
762.030762	222.700000
762.067871	219.200000
762.105042	220.000000
762.142090	227.300000
762.179199	222.000000
762.216309	224.600000
762.253418	231.900000
762.290527	228.400000
762.327637	224.100000
762.364685	217.700000
762.401794	224.000000
762.438904	223.300000
762.475952	219.200000
762.513062	220.900000
762.550110	220.900000
762.587219	231.900000
762.624329	229.200000
762.661377	224.700000
762.698486	223.200000
762.735596	222.800000
762.772644	219.700000
762.809753	218.900000
762.846863	222.400000
762.883911	228.300000
762.921021	225.700000
762.958069	225.800000
762.995117	230.000000
763.032227	230.200000
763.069336	222.200000
763.106323	219.500000
763.143433	219.800000
763.180481	227.900000
763.217590	228.500000
763.254639	227.200000
763.291687	226.800000
763.328735	233.600000
763.365845	225.600000
763.402893	224.200000
763.439941	228.200000
763.477051	231.000000
763.514038	230.400000
763.551147	226.800000
763.588196	229.500000
763.625244	228.600000
763.662292	234.600000
763.699402	238.200000
763.736389	232.600000
763.773499	238.900000
763.810486	232.900000
763.847534	229.900000
763.884644	232.000000
763.921631	229.500000
763.958679	237.100000
763.995728	231.700000
764.032776	237.800000
764.069824	228.300000
764.106873	237.100000
764.143860	242.800000
764.180969	234.000000
764.218018	239.000000
764.255005	232.500000
764.292053	234.100000
764.329102	242.600000
764.366089	241.900000
764.403137	239.800000
764.440125	233.200000
764.477173	239.000000
764.514221	240.400000
764.551208	240.000000
764.588257	236.300000
764.625305	244.500000
764.662292	247.200000
764.699341	249.900000
764.736389	242.300000
764.773376	254.600000
764.810425	245.600000
764.847473	247.600000
764.884399	246.700000
764.921448	254.200000
764.958435	251.600000
764.995483	245.900000
765.032532	259.100000
765.069458	246.900000
765.106506	249.500000
765.143555	249.500000
765.180481	251.800000
765.217529	258.600000
765.254578	245.300000
765.291504	252.300000
765.328552	250.100000
765.365540	247.200000
765.402527	260.600000
765.439575	249.700000
765.476501	247.300000
765.513550	248.900000
765.550537	250.700000
765.587463	257.400000
765.624512	252.400000
765.661499	245.000000
765.698486	257.300000
765.735474	250.200000
765.772461	252.100000
765.809448	261.100000
765.846436	259.000000
765.883423	261.600000
765.920410	257.500000
765.957397	254.400000
765.994385	257.300000
766.031311	266.200000
766.068359	261.200000
766.105286	262.300000
766.142273	264.200000
766.179260	260.700000
766.216187	256.900000
766.253174	254.200000
766.290161	261.700000
766.327148	263.900000
766.364136	263.300000
766.401123	274.300000
766.438049	260.200000
766.475037	270.600000
766.512024	265.400000
766.548950	278.100000
766.585937	274.700000
766.622864	269.700000
766.659790	268.700000
766.696777	261.300000
766.733704	271.700000
766.770691	264.100000
766.807678	277.300000
766.844604	270.300000
766.881531	270.700000
766.918518	274.100000
766.955444	273.900000
766.992432	269.600000
767.029358	271.600000
767.066284	273.700000
767.103271	273.300000
767.140198	305.600000
767.177124	286.300000
767.214050	276.200000
767.251038	276.800000
767.287964	273.600000
767.324890	273.200000
767.361816	278.100000
767.398743	279.200000
767.435730	275.600000
767.472595	279.500000
767.509583	282.400000
767.546509	274.000000
767.583374	280.100000
767.620361	272.000000
767.657288	277.600000
767.694214	278.300000
767.731140	279.100000
767.768066	281.500000
767.804993	285.800000
767.841919	275.900000
767.878845	281.100000
767.915710	286.000000
767.952698	280.900000
767.989563	284.100000
768.026489	285.000000
