Model Number: SPM-001-M   
Serial Number: 10090201
Firmware Version: 004.17.6
Exposure Time: 300000.000000us
Data Taken on: 11-02-2021 11:05:25.915
Wavelength	Amplitude
733.770752	0.000000
733.808716	0.000000
733.846619	0.000000
733.884583	0.000000
733.922546	0.000000
733.960449	0.000000
733.998413	0.000000
734.036377	0.000000
734.074219	0.000000
734.112183	0.000000
734.150085	0.000000
734.188049	0.000000
734.226013	0.000000
734.263916	0.000000
734.301819	0.000000
734.339783	0.000000
734.377686	0.000000
734.415588	0.000000
734.453552	0.000000
734.491455	0.000000
734.529419	0.000000
734.567322	0.000000
734.605225	0.000000
734.643127	0.000000
734.681091	0.000000
734.718994	0.000000
734.756897	0.000000
734.794800	0.000000
734.832703	0.000000
734.870667	0.000000
734.908508	0.000000
734.946472	0.000000
734.984375	0.000000
735.022278	0.000000
735.060181	0.000000
735.098083	0.000000
735.135986	0.000000
735.173889	0.000000
735.211792	0.000000
735.249695	0.000000
735.287598	0.000000
735.325439	0.000000
735.363403	0.000000
735.401306	0.000000
735.439148	0.000000
735.477051	0.000000
735.515015	0.000000
735.552856	0.000000
735.590759	0.000000
735.628662	0.000000
735.666504	0.000000
735.704407	0.000000
735.742310	0.000000
735.780212	0.000000
735.818115	0.000000
735.856018	0.000000
735.893860	0.000000
735.931763	0.000000
735.969604	0.000000
736.007507	0.000000
736.045410	0.000000
736.083252	0.000000
736.121094	0.000000
736.158997	0.000000
736.196838	0.000000
736.234741	0.000000
736.272644	0.000000
736.310486	0.000000
736.348389	0.000000
736.386230	0.000000
736.424072	0.000000
736.461975	0.000000
736.499878	0.000000
736.537720	0.000000
736.575562	0.000000
736.613403	0.000000
736.651306	0.000000
736.689148	0.000000
736.726990	0.000000
736.764893	0.000000
736.802734	0.000000
736.840576	0.000000
736.878418	0.000000
736.916321	0.000000
736.954102	0.000000
736.992004	0.000000
737.029846	0.000000
737.067688	0.000000
737.105530	0.000000
737.143372	0.000000
737.181213	0.000000
737.219116	0.000000
737.256897	0.000000
737.294739	0.000000
737.332642	0.000000
737.370422	0.000000
737.408325	0.000000
737.446167	0.000000
737.483948	0.000000
737.521790	0.000000
737.559692	0.000000
737.597473	0.000000
737.635315	0.000000
737.673157	0.000000
737.710999	0.000000
737.748840	0.000000
737.786621	0.000000
737.824463	0.000000
737.862305	0.000000
737.900085	0.000000
737.937927	0.000000
737.975769	0.000000
738.013550	0.000000
738.051392	0.000000
738.089233	0.000000
738.127014	0.000000
738.164856	0.000000
738.202698	0.000000
738.240479	0.000000
738.278320	0.000000
738.316162	0.000000
738.353943	0.000000
738.391785	0.000000
738.429565	0.000000
738.467407	0.000000
738.505188	0.000000
738.542969	0.000000
738.580811	0.000000
738.618652	0.000000
738.656372	0.000000
738.694214	0.000000
738.732056	0.000000
738.769836	0.000000
738.807617	0.000000
738.845459	0.000000
738.883240	0.000000
738.921021	0.000000
738.958862	0.000000
738.996582	0.000000
739.034424	0.000000
739.072205	0.000000
739.109985	0.000000
739.147827	0.000000
739.185547	0.000000
739.223389	0.000000
739.261169	0.000000
739.298889	0.000000
739.336731	0.000000
739.374512	0.000000
739.412292	0.000000
739.450073	0.000000
739.487854	0.000000
739.525635	0.000000
739.563416	0.000000
739.601135	0.000000
739.638977	0.000000
739.676758	0.000000
739.714478	0.000000
739.752258	0.000000
739.790100	0.000000
739.827820	0.000000
739.865601	0.000000
739.903381	0.000000
739.941101	0.000000
739.978882	198.500000
740.016724	193.000000
740.054443	197.500000
740.092224	192.600000
740.130005	192.400000
740.167725	191.700000
740.205505	193.800000
740.243225	199.000000
740.281006	195.300000
740.318787	189.100000
740.356506	200.300000
740.394287	198.200000
740.432068	193.700000
740.469727	191.000000
740.507507	198.000000
740.545288	195.100000
740.583008	197.800000
740.620789	195.900000
740.658569	189.600000
740.696228	194.500000
740.734009	198.100000
740.771790	186.400000
740.809509	198.300000
740.847229	191.500000
740.884949	193.100000
740.922729	190.200000
740.960449	192.900000
740.998169	191.500000
741.035950	190.900000
741.073669	194.400000
741.111389	195.200000
741.149170	203.200000
741.186890	200.700000
741.224609	197.600000
741.262329	194.800000
741.300110	201.600000
741.337769	192.200000
741.375549	190.900000
741.413208	194.900000
741.450989	191.000000
741.488708	190.500000
741.526367	192.200000
741.564148	196.900000
741.601868	199.400000
741.639526	193.000000
741.677307	196.400000
741.715027	197.200000
741.752686	192.100000
741.790466	199.600000
741.828186	196.500000
741.865845	191.800000
741.903564	189.200000
741.941345	194.500000
741.979004	191.500000
742.016724	199.200000
742.054382	195.500000
742.092102	198.300000
742.129822	190.700000
742.167480	194.000000
742.205200	194.200000
742.242920	196.600000
742.280640	197.200000
742.318359	191.800000
742.356079	193.300000
742.393738	197.900000
742.431396	193.800000
742.469116	199.300000
742.506775	187.200000
742.544495	196.200000
742.582214	197.800000
742.619873	194.000000
742.657593	200.000000
742.695251	199.000000
742.732971	192.400000
742.770630	196.000000
742.808289	195.100000
742.846008	194.800000
742.883728	195.300000
742.921326	196.500000
742.959045	192.700000
742.996765	194.100000
743.034424	194.400000
743.072083	192.700000
743.109802	192.100000
743.147400	190.100000
743.185120	193.500000
743.222839	194.900000
743.260437	199.800000
743.298157	195.700000
743.335754	186.600000
743.373474	194.700000
743.411133	188.600000
743.448792	194.700000
743.486450	194.700000
743.524170	189.800000
743.561768	194.000000
743.599487	199.000000
743.637146	202.900000
743.674744	193.800000
743.712463	194.500000
743.750122	194.500000
743.787720	196.100000
743.825439	192.700000
743.863037	195.400000
743.900696	194.100000
743.938416	221.100000
743.976013	193.000000
744.013672	202.600000
744.051331	198.100000
744.088928	202.700000
744.126587	198.400000
744.164307	197.200000
744.201904	190.400000
744.239563	197.600000
744.277222	196.300000
744.314819	193.900000
744.352478	198.800000
744.390137	196.400000
744.427734	195.400000
744.465393	192.700000
744.502991	191.300000
744.540649	196.200000
744.578308	194.500000
744.615906	191.600000
744.653564	186.100000
744.691223	196.000000
744.728821	188.500000
744.766418	195.100000
744.804077	196.200000
744.841675	193.100000
744.879333	189.300000
744.916992	193.700000
744.954529	192.800000
744.992187	199.500000
745.029785	193.300000
745.067444	193.200000
745.105042	195.000000
745.142639	195.700000
745.180298	204.100000
745.217896	193.200000
745.255493	193.900000
745.293152	197.900000
745.330750	199.200000
745.368347	200.000000
745.405945	197.900000
745.443604	194.100000
745.481140	198.000000
745.518799	195.100000
745.556396	196.400000
745.593994	197.500000
745.631592	195.600000
745.669189	189.800000
745.706787	194.800000
745.744385	191.000000
745.781982	197.800000
745.819580	191.300000
745.857178	195.200000
745.894775	193.700000
745.932373	196.700000
745.969971	194.800000
746.007568	188.400000
746.045166	199.300000
746.082764	200.400000
746.120300	196.100000
746.157898	197.400000
746.195557	194.400000
746.233093	191.000000
746.270691	196.800000
746.308228	197.300000
746.345825	197.400000
746.383423	197.700000
746.420959	190.500000
746.458557	192.700000
746.496155	191.600000
746.533691	196.100000
746.571289	190.900000
746.608887	194.000000
746.646423	194.900000
746.684021	195.600000
746.721619	193.000000
746.759155	196.600000
746.796753	190.800000
746.834351	189.200000
746.871826	192.700000
746.909424	198.900000
746.946960	195.300000
746.984558	194.200000
747.022156	193.300000
747.059631	202.000000
747.097229	198.400000
747.134827	193.700000
747.172363	199.700000
747.209900	197.500000
747.247498	192.800000
747.285034	198.000000
747.322571	201.700000
747.360168	193.000000
747.397644	189.600000
747.435242	197.100000
747.472778	200.400000
747.510315	192.900000
747.547913	195.000000
747.585388	198.200000
747.622925	194.200000
747.660522	188.500000
747.697998	193.200000
747.735596	192.300000
747.773132	193.000000
747.810669	194.900000
747.848206	196.500000
747.885742	192.000000
747.923279	191.000000
747.960815	197.300000
747.998352	196.900000
748.035889	200.200000
748.073425	197.900000
748.110901	194.400000
748.148437	191.000000
748.185974	196.700000
748.223511	202.800000
748.261047	198.800000
748.298584	197.100000
748.336060	195.100000
748.373596	196.500000
748.411133	219.900000
748.448608	191.600000
748.486145	198.400000
748.523682	198.000000
748.561218	202.400000
748.598755	195.300000
748.636292	196.500000
748.673706	194.700000
748.711243	202.200000
748.748718	196.400000
748.786255	195.200000
748.823792	194.200000
748.861267	192.100000
748.898804	197.000000
748.936340	196.300000
748.973816	192.900000
749.011292	200.500000
749.048828	194.700000
749.086304	197.000000
749.123840	202.700000
749.161316	191.300000
749.198792	201.700000
749.236328	199.900000
749.273743	194.500000
749.311279	193.200000
749.348816	198.200000
749.386230	194.700000
749.423767	185.900000
749.461304	198.400000
749.498718	195.600000
749.536255	199.800000
749.573730	204.400000
749.611206	200.300000
749.648682	194.200000
749.686218	195.700000
749.723633	198.600000
749.761169	192.700000
749.798645	191.600000
749.836060	193.700000
749.873596	191.700000
749.911011	196.800000
749.948547	200.800000
749.986023	195.300000
750.023437	195.600000
750.060913	188.800000
750.098450	190.300000
750.135864	194.800000
750.173340	195.100000
750.210815	199.300000
750.248291	192.700000
750.285767	194.200000
750.323242	200.100000
750.360657	196.500000
750.398132	191.500000
750.435608	196.100000
750.473022	192.500000
750.510498	191.100000
750.547974	191.200000
750.585449	193.900000
750.622925	186.000000
750.660339	204.200000
750.697815	195.100000
750.735291	193.300000
750.772644	199.400000
750.810120	197.000000
750.847595	196.300000
750.885010	189.900000
750.922485	202.700000
750.959961	195.200000
750.997375	201.400000
751.034851	198.200000
751.072266	198.300000
751.109680	190.100000
751.147156	200.400000
751.184570	197.400000
751.221985	194.600000
751.259460	190.600000
751.296875	193.900000
751.334290	195.500000
751.371765	199.100000
751.409180	199.300000
751.446594	199.600000
751.484070	198.700000
751.521423	195.100000
751.558899	195.900000
751.596375	202.800000
751.633728	200.600000
751.671204	202.200000
751.708618	192.200000
751.746033	194.900000
751.783447	191.400000
751.820801	192.200000
751.858276	197.800000
751.895691	194.100000
751.933105	193.900000
751.970520	190.400000
752.007935	192.500000
752.045349	198.000000
752.082764	195.100000
752.120178	193.800000
752.157532	193.500000
752.195007	193.000000
752.232422	196.700000
752.269775	197.400000
752.307190	198.000000
752.344543	190.800000
752.382019	196.600000
752.419434	194.500000
752.456787	197.100000
752.494202	200.400000
752.531616	195.800000
752.568970	198.000000
752.606384	197.700000
752.643799	198.400000
752.681152	201.600000
752.718567	196.600000
752.755981	188.500000
752.793335	197.800000
752.830750	188.800000
752.868164	200.200000
752.905518	191.300000
752.942932	199.400000
752.980225	190.500000
753.017639	197.800000
753.055054	194.400000
753.092407	197.500000
753.129822	197.800000
753.167175	204.200000
753.204529	194.800000
753.241943	192.600000
753.279358	190.600000
753.316650	197.800000
753.354065	196.800000
753.391479	199.000000
753.428772	198.700000
753.466187	196.600000
753.503479	192.200000
753.540894	193.200000
753.578308	189.100000
753.615601	192.700000
753.653015	193.000000
753.690369	192.700000
753.727722	191.700000
753.765076	190.200000
753.802490	190.300000
753.839783	189.300000
753.877136	193.300000
753.914551	206.600000
753.951843	190.700000
753.989258	199.600000
754.026611	195.700000
754.063904	197.800000
754.101257	191.900000
754.138611	188.800000
754.175964	195.800000
754.213318	203.300000
754.250610	190.500000
754.288025	193.000000
754.325378	191.200000
754.362671	197.700000
754.400024	193.900000
754.437378	202.600000
754.474670	203.200000
754.512085	192.900000
754.549438	197.200000
754.586731	192.900000
754.624084	195.500000
754.661438	190.900000
754.698730	203.500000
754.736084	193.300000
754.773376	195.000000
754.810730	196.500000
754.848083	196.200000
754.885315	198.000000
754.922668	191.000000
754.960022	192.000000
754.997314	199.800000
755.034668	195.000000
755.072021	197.100000
755.109253	194.300000
755.146606	202.600000
755.183960	194.800000
755.221252	202.500000
755.258545	199.300000
755.295898	202.400000
755.333191	201.100000
755.370544	197.100000
755.407776	196.100000
755.445129	195.600000
755.482422	200.000000
755.519714	194.600000
755.557068	192.000000
755.594360	191.100000
755.631653	201.300000
755.668945	202.800000
755.706299	199.000000
755.743530	206.600000
755.780884	203.400000
755.818176	201.000000
755.855408	201.500000
755.892761	199.100000
755.930054	199.400000
755.967346	198.500000
756.004639	200.300000
756.041870	197.000000
756.079224	202.700000
756.116516	193.800000
756.153748	201.000000
756.191040	205.500000
756.228394	200.600000
756.265625	194.100000
756.302917	199.300000
756.340210	195.200000
756.377441	202.900000
756.414795	203.800000
756.452087	197.900000
756.489319	192.700000
756.526611	201.300000
756.563843	198.500000
756.601135	205.600000
756.638428	206.600000
756.675659	197.800000
756.712952	201.100000
756.750244	201.100000
756.787476	199.100000
756.824768	203.700000
756.862061	197.700000
756.899292	246.500000
756.936584	203.800000
756.973816	208.800000
757.011047	208.600000
757.048340	199.800000
757.085632	200.700000
757.122864	212.500000
757.160156	198.100000
757.197327	201.200000
757.234619	204.500000
757.271912	198.600000
757.309082	205.500000
757.346375	198.100000
757.383667	205.500000
757.420837	201.700000
757.458130	202.900000
757.495422	198.600000
757.532593	204.200000
757.569885	195.300000
757.607117	198.200000
757.644348	202.700000
757.681580	212.100000
757.718811	191.300000
757.756042	202.300000
757.793335	199.200000
757.830505	204.100000
757.867798	199.700000
757.905029	201.000000
757.942200	201.600000
757.979492	199.400000
758.016724	198.900000
758.053894	200.100000
758.091187	215.000000
758.128418	202.600000
758.165588	201.500000
758.202820	213.000000
758.240112	201.000000
758.277283	211.400000
758.314514	204.800000
758.351685	202.400000
758.388916	209.200000
758.426147	209.700000
758.463379	211.700000
758.500610	207.100000
758.537842	204.000000
758.575012	209.400000
758.612244	201.500000
758.649475	214.100000
758.686646	200.700000
758.723877	210.100000
758.761108	213.500000
758.798279	205.200000
758.835510	206.700000
758.872742	211.000000
758.909851	208.600000
758.947083	207.900000
758.984253	209.600000
759.021484	208.000000
759.058716	209.800000
759.095886	209.900000
759.133057	207.600000
759.170288	208.200000
759.207458	205.200000
759.244690	215.700000
759.281860	213.800000
759.319031	208.500000
759.356262	206.400000
759.393433	205.100000
759.430603	207.800000
759.467773	206.500000
759.505005	212.800000
759.542175	211.600000
759.579346	207.700000
759.616516	209.100000
759.653687	211.400000
759.690918	206.600000
759.728027	209.100000
759.765259	211.000000
759.802429	213.400000
759.839539	211.200000
759.876770	214.500000
759.913940	218.400000
759.951111	211.000000
759.988281	213.500000
760.025452	208.900000
760.062561	207.400000
760.099792	219.600000
760.136963	213.400000
760.174072	210.100000
760.211243	208.100000
760.248413	208.100000
760.285583	208.700000
760.322754	221.700000
760.359863	217.700000
760.397034	217.600000
760.434204	213.000000
760.471375	211.400000
760.508545	210.900000
760.545715	212.600000
760.582825	210.300000
760.619995	214.400000
760.657166	208.900000
760.694275	216.900000
760.731445	213.700000
760.768555	214.700000
760.805664	219.900000
760.842834	214.900000
760.879944	218.200000
760.917114	215.300000
760.954285	213.400000
760.991394	210.300000
761.028564	219.900000
761.065674	217.000000
761.102783	212.800000
761.139954	218.600000
761.177124	219.900000
761.214172	220.400000
761.251343	218.000000
761.288452	216.700000
761.325562	221.400000
761.362732	215.300000
761.399841	217.800000
761.436951	218.900000
761.474121	215.000000
761.511169	219.500000
761.548340	222.100000
761.585449	221.200000
761.622559	222.100000
761.659668	220.900000
761.696838	224.200000
761.733887	221.300000
761.771057	218.500000
761.808167	221.400000
761.845276	222.700000
761.882385	231.400000
761.919434	220.000000
761.956604	234.200000
761.993713	218.400000
762.030762	225.400000
762.067871	220.100000
762.105042	221.400000
762.142090	228.300000
762.179199	224.100000
762.216309	226.100000
762.253418	233.700000
762.290527	228.000000
762.327637	228.200000
762.364685	218.900000
762.401794	226.100000
762.438904	225.400000
762.475952	221.500000
762.513062	221.200000
762.550110	222.800000
762.587219	232.900000
762.624329	233.700000
762.661377	226.900000
762.698486	227.800000
762.735596	226.800000
762.772644	221.700000
762.809753	221.100000
762.846863	226.400000
762.883911	231.400000
762.921021	231.400000
762.958069	227.900000
762.995117	233.700000
763.032227	233.900000
763.069336	224.500000
763.106323	223.000000
763.143433	222.700000
763.180481	231.500000
763.217590	229.700000
763.254639	228.900000
763.291687	228.400000
763.328735	235.600000
763.365845	228.900000
763.402893	229.500000
763.439941	229.000000
763.477051	233.600000
763.514038	230.700000
763.551147	227.400000
763.588196	229.900000
763.625244	233.400000
763.662292	238.700000
763.699402	241.100000
763.736389	235.500000
763.773499	242.700000
763.810486	235.200000
763.847534	235.200000
763.884644	234.600000
763.921631	232.900000
763.958679	238.300000
763.995728	235.700000
764.032776	239.700000
764.069824	232.400000
764.106873	241.200000
764.143860	246.500000
764.180969	236.500000
764.218018	245.100000
764.255005	236.800000
764.292053	238.400000
764.329102	247.100000
764.366089	247.600000
764.403137	244.700000
764.440125	238.500000
764.477173	242.600000
764.514221	245.800000
764.551208	243.600000
764.588257	239.800000
764.625305	250.800000
764.662292	253.500000
764.699341	258.100000
764.736389	248.600000
764.773376	260.900000
764.810425	249.100000
764.847473	253.600000
764.884399	251.000000
764.921448	256.600000
764.958435	255.300000
764.995483	251.600000
765.032532	263.100000
765.069458	253.800000
765.106506	254.200000
765.143555	253.700000
765.180481	257.000000
765.217529	263.800000
765.254578	251.100000
765.291504	257.900000
765.328552	256.500000
765.365540	252.100000
765.402527	264.900000
765.439575	255.700000
765.476501	252.200000
765.513550	254.300000
765.550537	259.500000
765.587463	265.300000
765.624512	258.300000
765.661499	252.400000
765.698486	265.600000
765.735474	257.600000
765.772461	260.800000
765.809448	266.600000
765.846436	265.100000
765.883423	269.200000
765.920410	263.300000
765.957397	258.000000
765.994385	264.700000
766.031311	271.600000
766.068359	266.400000
766.105286	267.500000
766.142273	274.100000
766.179260	268.700000
766.216187	264.900000
766.253174	260.700000
766.290161	268.200000
766.327148	269.100000
766.364136	271.300000
766.401123	281.100000
766.438049	266.100000
766.475037	276.200000
766.512024	274.900000
766.548950	285.300000
766.585937	280.300000
766.622864	276.000000
766.659790	277.300000
766.696777	267.800000
766.733704	281.300000
766.770691	273.800000
766.807678	283.900000
766.844604	279.300000
766.881531	279.100000
766.918518	283.500000
766.955444	286.300000
766.992432	277.200000
767.029358	281.300000
767.066284	281.800000
767.103271	281.400000
767.140198	313.700000
767.177124	294.300000
767.214050	284.200000
767.251038	284.100000
767.287964	282.800000
767.324890	284.400000
767.361816	288.400000
767.398743	292.800000
767.435730	287.300000
767.472595	287.800000
767.509583	293.500000
767.546509	284.700000
767.583374	292.700000
767.620361	285.000000
767.657288	289.100000
767.694214	288.100000
767.731140	288.600000
767.768066	288.900000
767.804993	294.500000
767.841919	287.100000
767.878845	292.100000
767.915710	296.500000
767.952698	292.100000
767.989563	292.500000
768.026489	294.900000
