Model Number: SPM-001-M   
Serial Number: 10090201
Firmware Version: 004.17.6
Exposure Time: 300000.000000us
Data Taken on: 11-02-2021 11:07:31.613
Wavelength	Amplitude
733.770752	0.000000
733.808716	0.000000
733.846619	0.000000
733.884583	0.000000
733.922546	0.000000
733.960449	0.000000
733.998413	0.000000
734.036377	0.000000
734.074219	0.000000
734.112183	0.000000
734.150085	0.000000
734.188049	0.000000
734.226013	0.000000
734.263916	0.000000
734.301819	0.000000
734.339783	0.000000
734.377686	0.000000
734.415588	0.000000
734.453552	0.000000
734.491455	0.000000
734.529419	0.000000
734.567322	0.000000
734.605225	0.000000
734.643127	0.000000
734.681091	0.000000
734.718994	0.000000
734.756897	0.000000
734.794800	0.000000
734.832703	0.000000
734.870667	0.000000
734.908508	0.000000
734.946472	0.000000
734.984375	0.000000
735.022278	0.000000
735.060181	0.000000
735.098083	0.000000
735.135986	0.000000
735.173889	0.000000
735.211792	0.000000
735.249695	0.000000
735.287598	0.000000
735.325439	0.000000
735.363403	0.000000
735.401306	0.000000
735.439148	0.000000
735.477051	0.000000
735.515015	0.000000
735.552856	0.000000
735.590759	0.000000
735.628662	0.000000
735.666504	0.000000
735.704407	0.000000
735.742310	0.000000
735.780212	0.000000
735.818115	0.000000
735.856018	0.000000
735.893860	0.000000
735.931763	0.000000
735.969604	0.000000
736.007507	0.000000
736.045410	0.000000
736.083252	0.000000
736.121094	0.000000
736.158997	0.000000
736.196838	0.000000
736.234741	0.000000
736.272644	0.000000
736.310486	0.000000
736.348389	0.000000
736.386230	0.000000
736.424072	0.000000
736.461975	0.000000
736.499878	0.000000
736.537720	0.000000
736.575562	0.000000
736.613403	0.000000
736.651306	0.000000
736.689148	0.000000
736.726990	0.000000
736.764893	0.000000
736.802734	0.000000
736.840576	0.000000
736.878418	0.000000
736.916321	0.000000
736.954102	0.000000
736.992004	0.000000
737.029846	0.000000
737.067688	0.000000
737.105530	0.000000
737.143372	0.000000
737.181213	0.000000
737.219116	0.000000
737.256897	0.000000
737.294739	0.000000
737.332642	0.000000
737.370422	0.000000
737.408325	0.000000
737.446167	0.000000
737.483948	0.000000
737.521790	0.000000
737.559692	0.000000
737.597473	0.000000
737.635315	0.000000
737.673157	0.000000
737.710999	0.000000
737.748840	0.000000
737.786621	0.000000
737.824463	0.000000
737.862305	0.000000
737.900085	0.000000
737.937927	0.000000
737.975769	0.000000
738.013550	0.000000
738.051392	0.000000
738.089233	0.000000
738.127014	0.000000
738.164856	0.000000
738.202698	0.000000
738.240479	0.000000
738.278320	0.000000
738.316162	0.000000
738.353943	0.000000
738.391785	0.000000
738.429565	0.000000
738.467407	0.000000
738.505188	0.000000
738.542969	0.000000
738.580811	0.000000
738.618652	0.000000
738.656372	0.000000
738.694214	0.000000
738.732056	0.000000
738.769836	0.000000
738.807617	0.000000
738.845459	0.000000
738.883240	0.000000
738.921021	0.000000
738.958862	0.000000
738.996582	0.000000
739.034424	0.000000
739.072205	0.000000
739.109985	0.000000
739.147827	0.000000
739.185547	0.000000
739.223389	0.000000
739.261169	0.000000
739.298889	0.000000
739.336731	0.000000
739.374512	0.000000
739.412292	0.000000
739.450073	0.000000
739.487854	0.000000
739.525635	0.000000
739.563416	0.000000
739.601135	0.000000
739.638977	0.000000
739.676758	0.000000
739.714478	0.000000
739.752258	0.000000
739.790100	0.000000
739.827820	0.000000
739.865601	0.000000
739.903381	0.000000
739.941101	0.000000
739.978882	197.000000
740.016724	194.500000
740.054443	196.600000
740.092224	194.400000
740.130005	193.000000
740.167725	192.800000
740.205505	192.700000
740.243225	199.200000
740.281006	195.200000
740.318787	191.100000
740.356506	200.700000
740.394287	199.800000
740.432068	192.900000
740.469727	191.200000
740.507507	198.400000
740.545288	195.700000
740.583008	198.700000
740.620789	196.300000
740.658569	189.500000
740.696228	197.100000
740.734009	199.000000
740.771790	187.200000
740.809509	198.700000
740.847229	192.400000
740.884949	194.100000
740.922729	190.300000
740.960449	194.500000
740.998169	191.900000
741.035950	193.400000
741.073669	195.300000
741.111389	195.900000
741.149170	202.700000
741.186890	202.600000
741.224609	196.800000
741.262329	195.700000
741.300110	200.800000
741.337769	191.600000
741.375549	189.200000
741.413208	196.000000
741.450989	191.200000
741.488708	193.100000
741.526367	191.900000
741.564148	198.300000
741.601868	197.800000
741.639526	195.300000
741.677307	197.200000
741.715027	198.200000
741.752686	192.200000
741.790466	200.700000
741.828186	197.500000
741.865845	191.100000
741.903564	188.500000
741.941345	195.100000
741.979004	192.700000
742.016724	200.100000
742.054382	196.400000
742.092102	199.700000
742.129822	191.400000
742.167480	194.500000
742.205200	194.600000
742.242920	198.400000
742.280640	198.300000
742.318359	193.600000
742.356079	195.200000
742.393738	199.000000
742.431396	194.000000
742.469116	198.600000
742.506775	188.800000
742.544495	197.700000
742.582214	198.300000
742.619873	194.500000
742.657593	200.400000
742.695251	198.700000
742.732971	194.500000
742.770630	196.600000
742.808289	195.700000
742.846008	195.100000
742.883728	196.500000
742.921326	195.700000
742.959045	194.400000
742.996765	193.200000
743.034424	195.400000
743.072083	191.700000
743.109802	194.300000
743.147400	190.200000
743.185120	196.800000
743.222839	194.000000
743.260437	202.600000
743.298157	196.300000
743.335754	189.300000
743.373474	194.200000
743.411133	190.500000
743.448792	195.200000
743.486450	197.100000
743.524170	189.900000
743.561768	196.100000
743.599487	199.700000
743.637146	203.900000
743.674744	194.700000
743.712463	195.600000
743.750122	197.600000
743.787720	197.900000
743.825439	193.500000
743.863037	193.900000
743.900696	195.600000
743.938416	220.700000
743.976013	195.500000
744.013672	200.000000
744.051331	199.900000
744.088928	203.100000
744.126587	199.200000
744.164307	196.300000
744.201904	192.900000
744.239563	195.300000
744.277222	198.600000
744.314819	195.200000
744.352478	200.000000
744.390137	196.500000
744.427734	196.000000
744.465393	192.600000
744.502991	192.800000
744.540649	196.500000
744.578308	196.000000
744.615906	191.000000
744.653564	187.100000
744.691223	196.900000
744.728821	191.600000
744.766418	194.600000
744.804077	198.700000
744.841675	194.500000
744.879333	191.600000
744.916992	195.900000
744.954529	195.400000
744.992187	200.500000
745.029785	195.900000
745.067444	194.500000
745.105042	196.300000
745.142639	197.800000
745.180298	205.500000
745.217896	195.100000
745.255493	194.600000
745.293152	199.000000
745.330750	200.800000
745.368347	202.300000
745.405945	196.800000
745.443604	195.600000
745.481140	198.900000
745.518799	196.200000
745.556396	198.700000
745.593994	198.500000
745.631592	195.100000
745.669189	191.100000
745.706787	193.200000
745.744385	192.700000
745.781982	197.800000
745.819580	193.100000
745.857178	194.900000
745.894775	195.200000
745.932373	195.200000
745.969971	196.500000
746.007568	188.300000
746.045166	202.000000
746.082764	199.700000
746.120300	197.700000
746.157898	197.500000
746.195557	194.600000
746.233093	190.500000
746.270691	197.400000
746.308228	198.300000
746.345825	198.200000
746.383423	198.400000
746.420959	194.300000
746.458557	194.200000
746.496155	194.200000
746.533691	197.000000
746.571289	193.300000
746.608887	196.100000
746.646423	197.500000
746.684021	197.200000
746.721619	195.000000
746.759155	198.200000
746.796753	189.400000
746.834351	190.500000
746.871826	193.800000
746.909424	200.500000
746.946960	196.000000
746.984558	195.300000
747.022156	194.000000
747.059631	201.300000
747.097229	197.100000
747.134827	193.400000
747.172363	200.500000
747.209900	199.100000
747.247498	190.400000
747.285034	200.700000
747.322571	200.400000
747.360168	194.100000
747.397644	188.800000
747.435242	198.700000
747.472778	199.600000
747.510315	193.900000
747.547913	192.900000
747.585388	199.800000
747.622925	194.200000
747.660522	189.500000
747.697998	193.400000
747.735596	194.700000
747.773132	193.700000
747.810669	196.100000
747.848206	198.300000
747.885742	192.300000
747.923279	191.600000
747.960815	198.400000
747.998352	196.800000
748.035889	199.600000
748.073425	199.000000
748.110901	195.400000
748.148437	193.300000
748.185974	196.000000
748.223511	203.100000
748.261047	196.900000
748.298584	196.200000
748.336060	196.100000
748.373596	197.600000
748.411133	221.200000
748.448608	194.300000
748.486145	198.600000
748.523682	199.600000
748.561218	201.700000
748.598755	196.700000
748.636292	197.500000
748.673706	193.700000
748.711243	201.500000
748.748718	196.400000
748.786255	194.700000
748.823792	195.300000
748.861267	190.400000
748.898804	198.400000
748.936340	196.900000
748.973816	192.600000
749.011292	200.500000
749.048828	196.200000
749.086304	196.900000
749.123840	203.600000
749.161316	192.200000
749.198792	203.100000
749.236328	199.600000
749.273743	194.200000
749.311279	195.600000
749.348816	200.100000
749.386230	195.700000
749.423767	186.800000
749.461304	199.700000
749.498718	196.600000
749.536255	201.500000
749.573730	205.400000
749.611206	201.300000
749.648682	195.500000
749.686218	196.700000
749.723633	200.000000
749.761169	195.200000
749.798645	193.600000
749.836060	194.300000
749.873596	192.600000
749.911011	197.500000
749.948547	201.400000
749.986023	195.700000
750.023437	196.100000
750.060913	191.900000
750.098450	189.500000
750.135864	195.600000
750.173340	194.900000
750.210815	198.700000
750.248291	191.800000
750.285767	195.000000
750.323242	198.600000
750.360657	198.900000
750.398132	190.200000
750.435608	198.400000
750.473022	191.800000
750.510498	192.000000
750.547974	191.300000
750.585449	194.100000
750.622925	186.700000
750.660339	205.600000
750.697815	194.900000
750.735291	195.200000
750.772644	199.500000
750.810120	198.200000
750.847595	198.500000
750.885010	192.400000
750.922485	201.700000
750.959961	195.600000
750.997375	203.300000
751.034851	199.700000
751.072266	200.300000
751.109680	191.000000
751.147156	201.300000
751.184570	198.500000
751.221985	196.600000
751.259460	189.600000
751.296875	196.400000
751.334290	195.400000
751.371765	199.400000
751.409180	198.800000
751.446594	202.100000
751.484070	197.500000
751.521423	197.300000
751.558899	194.100000
751.596375	201.800000
751.633728	201.200000
751.671204	204.400000
751.708618	191.700000
751.746033	196.600000
751.783447	189.800000
751.820801	192.900000
751.858276	197.300000
751.895691	195.400000
751.933105	194.000000
751.970520	191.500000
752.007935	193.600000
752.045349	199.000000
752.082764	195.600000
752.120178	194.300000
752.157532	192.700000
752.195007	194.200000
752.232422	197.700000
752.269775	198.800000
752.307190	198.700000
752.344543	191.800000
752.382019	195.000000
752.419434	195.600000
752.456787	199.100000
752.494202	202.000000
752.531616	197.800000
752.568970	199.200000
752.606384	198.000000
752.643799	199.000000
752.681152	202.600000
752.718567	199.000000
752.755981	190.800000
752.793335	199.000000
752.830750	190.700000
752.868164	200.100000
752.905518	192.100000
752.942932	197.600000
752.980225	191.000000
753.017639	199.100000
753.055054	195.200000
753.092407	196.800000
753.129822	199.100000
753.167175	203.200000
753.204529	196.200000
753.241943	192.400000
753.279358	192.800000
753.316650	196.800000
753.354065	197.800000
753.391479	198.500000
753.428772	202.400000
753.466187	196.800000
753.503479	192.000000
753.540894	193.100000
753.578308	191.700000
753.615601	191.900000
753.653015	195.600000
753.690369	192.900000
753.727722	192.800000
753.765076	189.800000
753.802490	191.600000
753.839783	189.900000
753.877136	194.700000
753.914551	205.700000
753.951843	193.800000
753.989258	200.000000
754.026611	196.500000
754.063904	198.100000
754.101257	193.300000
754.138611	191.500000
754.175964	198.100000
754.213318	204.000000
754.250610	190.900000
754.288025	194.300000
754.325378	190.700000
754.362671	200.500000
754.400024	196.400000
754.437378	204.800000
754.474670	203.300000
754.512085	192.100000
754.549438	196.000000
754.586731	193.100000
754.624084	194.900000
754.661438	192.200000
754.698730	201.800000
754.736084	195.000000
754.773376	194.900000
754.810730	197.300000
754.848083	195.600000
754.885315	200.100000
754.922668	190.000000
754.960022	193.300000
754.997314	199.400000
755.034668	197.900000
755.072021	196.800000
755.109253	196.200000
755.146606	203.100000
755.183960	195.500000
755.221252	203.100000
755.258545	199.900000
755.295898	201.600000
755.333191	202.100000
755.370544	198.400000
755.407776	197.100000
755.445129	198.200000
755.482422	200.600000
755.519714	195.800000
755.557068	192.900000
755.594360	192.200000
755.631653	201.900000
755.668945	205.200000
755.706299	199.000000
755.743530	208.000000
755.780884	204.800000
755.818176	202.100000
755.855408	202.400000
755.892761	199.900000
755.930054	199.300000
755.967346	200.400000
756.004639	200.900000
756.041870	197.600000
756.079224	202.600000
756.116516	195.200000
756.153748	200.500000
756.191040	205.300000
756.228394	199.100000
756.265625	195.300000
756.302917	198.900000
756.340210	195.000000
756.377441	201.700000
756.414795	205.000000
756.452087	197.300000
756.489319	194.700000
756.526611	202.900000
756.563843	199.900000
756.601135	205.400000
756.638428	206.500000
756.675659	199.200000
756.712952	203.000000
756.750244	201.800000
756.787476	200.200000
756.824768	204.600000
756.862061	200.200000
756.899292	247.900000
756.936584	203.300000
756.973816	210.900000
757.011047	209.900000
757.048340	200.800000
757.085632	202.700000
757.122864	216.300000
757.160156	199.700000
757.197327	202.600000
757.234619	206.700000
757.271912	200.000000
757.309082	204.400000
757.346375	199.100000
757.383667	206.500000
757.420837	203.200000
757.458130	201.800000
757.495422	200.800000
757.532593	203.500000
757.569885	196.600000
757.607117	198.500000
757.644348	203.800000
757.681580	213.400000
757.718811	192.500000
757.756042	201.000000
757.793335	200.400000
757.830505	203.400000
757.867798	201.300000
757.905029	198.200000
757.942200	202.800000
757.979492	199.300000
758.016724	201.200000
758.053894	199.800000
758.091187	216.500000
758.128418	200.800000
758.165588	201.700000
758.202820	210.900000
758.240112	201.600000
758.277283	211.100000
758.314514	206.200000
758.351685	201.200000
758.388916	210.600000
758.426147	211.200000
758.463379	211.500000
758.500610	206.200000
758.537842	205.300000
758.575012	211.000000
758.612244	201.600000
758.649475	214.400000
758.686646	200.200000
758.723877	211.800000
758.761108	212.100000
758.798279	206.300000
758.835510	208.000000
758.872742	212.300000
758.909851	207.100000
758.947083	209.100000
758.984253	208.600000
759.021484	210.500000
759.058716	209.800000
759.095886	210.600000
759.133057	207.000000
759.170288	209.700000
759.207458	205.300000
759.244690	216.100000
759.281860	214.900000
759.319031	207.900000
759.356262	206.000000
759.393433	207.700000
759.430603	207.300000
759.467773	207.900000
759.505005	212.900000
759.542175	213.400000
759.579346	208.600000
759.616516	210.900000
759.653687	212.600000
759.690918	207.700000
759.728027	210.800000
759.765259	212.100000
759.802429	214.500000
759.839539	212.900000
759.876770	215.600000
759.913940	219.800000
759.951111	212.400000
759.988281	212.900000
760.025452	210.200000
760.062561	209.400000
760.099792	220.200000
760.136963	213.800000
760.174072	211.200000
760.211243	208.700000
760.248413	211.000000
760.285583	209.800000
760.322754	221.700000
760.359863	217.900000
760.397034	218.900000
760.434204	212.800000
760.471375	213.900000
760.508545	212.600000
760.545715	213.400000
760.582825	210.300000
760.619995	217.400000
760.657166	209.200000
760.694275	219.700000
760.731445	214.900000
760.768555	216.900000
760.805664	217.600000
760.842834	217.100000
760.879944	218.700000
760.917114	217.000000
760.954285	213.100000
760.991394	212.300000
761.028564	219.900000
761.065674	216.800000
761.102783	213.300000
761.139954	219.900000
761.177124	220.900000
761.214172	222.900000
761.251343	217.700000
761.288452	219.000000
761.325562	221.300000
761.362732	215.600000
761.399841	217.700000
761.436951	221.000000
761.474121	215.500000
761.511169	218.500000
761.548340	224.300000
761.585449	220.700000
761.622559	221.900000
761.659668	221.300000
761.696838	227.300000
761.733887	223.400000
761.771057	218.700000
761.808167	220.000000
761.845276	224.300000
761.882385	230.300000
761.919434	221.700000
761.956604	236.500000
761.993713	218.700000
762.030762	225.900000
762.067871	222.600000
762.105042	222.500000
762.142090	229.500000
762.179199	223.700000
762.216309	227.800000
762.253418	234.700000
762.290527	229.900000
762.327637	226.400000
762.364685	218.900000
762.401794	227.100000
762.438904	227.500000
762.475952	222.000000
762.513062	222.700000
762.550110	224.100000
762.587219	235.900000
762.624329	233.000000
762.661377	228.700000
762.698486	228.200000
762.735596	226.800000
762.772644	222.700000
762.809753	222.500000
762.846863	227.800000
762.883911	232.800000
762.921021	232.600000
762.958069	231.000000
762.995117	235.300000
763.032227	234.900000
763.069336	226.300000
763.106323	225.500000
763.143433	225.100000
763.180481	231.200000
763.217590	230.700000
763.254639	231.100000
763.291687	229.400000
763.328735	236.600000
763.365845	232.600000
763.402893	227.800000
763.439941	233.500000
763.477051	232.600000
763.514038	232.700000
763.551147	229.500000
763.588196	233.000000
763.625244	232.300000
763.662292	240.000000
763.699402	241.900000
763.736389	236.300000
763.773499	242.900000
763.810486	236.500000
763.847534	234.100000
763.884644	235.600000
763.921631	232.900000
763.958679	241.400000
763.995728	234.600000
764.032776	242.300000
764.069824	234.000000
764.106873	242.700000
764.143860	247.500000
764.180969	239.800000
764.218018	244.900000
764.255005	239.100000
764.292053	239.900000
764.329102	248.200000
764.366089	246.700000
764.403137	245.100000
764.440125	239.700000
764.477173	243.500000
764.514221	245.800000
764.551208	246.500000
764.588257	244.000000
764.625305	253.200000
764.662292	254.000000
764.699341	254.800000
764.736389	250.100000
764.773376	260.000000
764.810425	249.800000
764.847473	255.000000
764.884399	252.800000
764.921448	257.800000
764.958435	257.100000
764.995483	250.400000
765.032532	264.700000
765.069458	253.100000
765.106506	256.400000
765.143555	254.900000
765.180481	257.500000
765.217529	263.300000
765.254578	252.700000
765.291504	258.900000
765.328552	256.000000
765.365540	252.300000
765.402527	265.900000
765.439575	256.000000
765.476501	253.300000
765.513550	254.900000
765.550537	259.900000
765.587463	265.300000
765.624512	258.700000
765.661499	253.500000
765.698486	266.500000
765.735474	256.500000
765.772461	260.300000
765.809448	268.900000
765.846436	266.700000
765.883423	268.700000
765.920410	264.600000
765.957397	262.700000
765.994385	267.300000
766.031311	274.300000
766.068359	269.300000
766.105286	269.800000
766.142273	273.800000
766.179260	269.500000
766.216187	264.800000
766.253174	263.700000
766.290161	270.400000
766.327148	273.300000
766.364136	271.800000
766.401123	283.200000
766.438049	266.300000
766.475037	277.100000
766.512024	273.600000
766.548950	285.700000
766.585937	281.200000
766.622864	277.500000
766.659790	278.000000
766.696777	270.800000
766.733704	281.600000
766.770691	274.400000
766.807678	283.200000
766.844604	278.600000
766.881531	278.200000
766.918518	282.600000
766.955444	283.200000
766.992432	277.500000
767.029358	280.500000
767.066284	282.100000
767.103271	281.300000
767.140198	314.300000
767.177124	295.900000
767.214050	287.700000
767.251038	287.200000
767.287964	284.800000
767.324890	283.200000
767.361816	288.200000
767.398743	292.000000
767.435730	286.600000
767.472595	289.000000
767.509583	291.600000
767.546509	283.300000
767.583374	288.500000
767.620361	282.800000
767.657288	289.500000
767.694214	288.300000
767.731140	289.300000
767.768066	290.700000
767.804993	292.200000
767.841919	289.100000
767.878845	293.400000
767.915710	297.600000
767.952698	291.500000
767.989563	293.300000
768.026489	295.300000
