Model Number: SPM-001-M   
Serial Number: 10090201
Firmware Version: 004.17.6
Exposure Time: 300000.000000us
Data Taken on: 11-02-2021 11:12:37.907
Wavelength	Amplitude
733.770752	0.000000
733.808716	0.000000
733.846619	0.000000
733.884583	0.000000
733.922546	0.000000
733.960449	0.000000
733.998413	0.000000
734.036377	0.000000
734.074219	0.000000
734.112183	0.000000
734.150085	0.000000
734.188049	0.000000
734.226013	0.000000
734.263916	0.000000
734.301819	0.000000
734.339783	0.000000
734.377686	0.000000
734.415588	0.000000
734.453552	0.000000
734.491455	0.000000
734.529419	0.000000
734.567322	0.000000
734.605225	0.000000
734.643127	0.000000
734.681091	0.000000
734.718994	0.000000
734.756897	0.000000
734.794800	0.000000
734.832703	0.000000
734.870667	0.000000
734.908508	0.000000
734.946472	0.000000
734.984375	0.000000
735.022278	0.000000
735.060181	0.000000
735.098083	0.000000
735.135986	0.000000
735.173889	0.000000
735.211792	0.000000
735.249695	0.000000
735.287598	0.000000
735.325439	0.000000
735.363403	0.000000
735.401306	0.000000
735.439148	0.000000
735.477051	0.000000
735.515015	0.000000
735.552856	0.000000
735.590759	0.000000
735.628662	0.000000
735.666504	0.000000
735.704407	0.000000
735.742310	0.000000
735.780212	0.000000
735.818115	0.000000
735.856018	0.000000
735.893860	0.000000
735.931763	0.000000
735.969604	0.000000
736.007507	0.000000
736.045410	0.000000
736.083252	0.000000
736.121094	0.000000
736.158997	0.000000
736.196838	0.000000
736.234741	0.000000
736.272644	0.000000
736.310486	0.000000
736.348389	0.000000
736.386230	0.000000
736.424072	0.000000
736.461975	0.000000
736.499878	0.000000
736.537720	0.000000
736.575562	0.000000
736.613403	0.000000
736.651306	0.000000
736.689148	0.000000
736.726990	0.000000
736.764893	0.000000
736.802734	0.000000
736.840576	0.000000
736.878418	0.000000
736.916321	0.000000
736.954102	0.000000
736.992004	0.000000
737.029846	0.000000
737.067688	0.000000
737.105530	0.000000
737.143372	0.000000
737.181213	0.000000
737.219116	0.000000
737.256897	0.000000
737.294739	0.000000
737.332642	0.000000
737.370422	0.000000
737.408325	0.000000
737.446167	0.000000
737.483948	0.000000
737.521790	0.000000
737.559692	0.000000
737.597473	0.000000
737.635315	0.000000
737.673157	0.000000
737.710999	0.000000
737.748840	0.000000
737.786621	0.000000
737.824463	0.000000
737.862305	0.000000
737.900085	0.000000
737.937927	0.000000
737.975769	0.000000
738.013550	0.000000
738.051392	0.000000
738.089233	0.000000
738.127014	0.000000
738.164856	0.000000
738.202698	0.000000
738.240479	0.000000
738.278320	0.000000
738.316162	0.000000
738.353943	0.000000
738.391785	0.000000
738.429565	0.000000
738.467407	0.000000
738.505188	0.000000
738.542969	0.000000
738.580811	0.000000
738.618652	0.000000
738.656372	0.000000
738.694214	0.000000
738.732056	0.000000
738.769836	0.000000
738.807617	0.000000
738.845459	0.000000
738.883240	0.000000
738.921021	0.000000
738.958862	0.000000
738.996582	0.000000
739.034424	0.000000
739.072205	0.000000
739.109985	0.000000
739.147827	0.000000
739.185547	0.000000
739.223389	0.000000
739.261169	0.000000
739.298889	0.000000
739.336731	0.000000
739.374512	0.000000
739.412292	0.000000
739.450073	0.000000
739.487854	0.000000
739.525635	0.000000
739.563416	0.000000
739.601135	0.000000
739.638977	0.000000
739.676758	0.000000
739.714478	0.000000
739.752258	0.000000
739.790100	0.000000
739.827820	0.000000
739.865601	0.000000
739.903381	0.000000
739.941101	0.000000
739.978882	196.800000
740.016724	194.000000
740.054443	198.100000
740.092224	193.300000
740.130005	193.500000
740.167725	192.100000
740.205505	192.700000
740.243225	199.700000
740.281006	195.600000
740.318787	189.900000
740.356506	201.000000
740.394287	199.300000
740.432068	191.900000
740.469727	190.000000
740.507507	198.800000
740.545288	194.700000
740.583008	197.100000
740.620789	196.100000
740.658569	189.700000
740.696228	196.000000
740.734009	199.700000
740.771790	186.500000
740.809509	198.700000
740.847229	193.000000
740.884949	193.300000
740.922729	191.200000
740.960449	193.200000
740.998169	191.500000
741.035950	192.100000
741.073669	195.100000
741.111389	195.800000
741.149170	204.100000
741.186890	203.200000
741.224609	198.300000
741.262329	195.800000
741.300110	204.200000
741.337769	192.300000
741.375549	190.800000
741.413208	195.800000
741.450989	192.000000
741.488708	193.300000
741.526367	193.300000
741.564148	198.200000
741.601868	198.800000
741.639526	193.800000
741.677307	196.800000
741.715027	197.100000
741.752686	192.400000
741.790466	199.500000
741.828186	197.500000
741.865845	192.400000
741.903564	190.300000
741.941345	196.000000
741.979004	191.600000
742.016724	198.700000
742.054382	195.300000
742.092102	198.400000
742.129822	191.000000
742.167480	194.600000
742.205200	194.400000
742.242920	197.300000
742.280640	199.100000
742.318359	192.400000
742.356079	194.200000
742.393738	198.600000
742.431396	192.300000
742.469116	199.400000
742.506775	187.100000
742.544495	196.800000
742.582214	197.200000
742.619873	196.000000
742.657593	200.400000
742.695251	200.200000
742.732971	194.600000
742.770630	196.900000
742.808289	196.000000
742.846008	194.900000
742.883728	195.400000
742.921326	195.800000
742.959045	194.000000
742.996765	195.300000
743.034424	196.200000
743.072083	192.900000
743.109802	194.400000
743.147400	190.500000
743.185120	196.800000
743.222839	195.900000
743.260437	201.400000
743.298157	196.300000
743.335754	188.900000
743.373474	194.500000
743.411133	190.600000
743.448792	196.300000
743.486450	196.400000
743.524170	189.100000
743.561768	195.000000
743.599487	200.300000
743.637146	203.600000
743.674744	194.300000
743.712463	194.300000
743.750122	195.800000
743.787720	197.500000
743.825439	193.200000
743.863037	195.400000
743.900696	195.400000
743.938416	222.800000
743.976013	194.800000
744.013672	202.000000
744.051331	197.900000
744.088928	203.100000
744.126587	198.400000
744.164307	197.400000
744.201904	193.000000
744.239563	196.900000
744.277222	198.100000
744.314819	196.000000
744.352478	200.600000
744.390137	197.000000
744.427734	196.600000
744.465393	193.900000
744.502991	192.200000
744.540649	197.000000
744.578308	195.400000
744.615906	190.600000
744.653564	187.800000
744.691223	198.900000
744.728821	190.700000
744.766418	195.200000
744.804077	197.900000
744.841675	194.700000
744.879333	191.600000
744.916992	194.100000
744.954529	194.000000
744.992187	199.600000
745.029785	194.200000
745.067444	192.800000
745.105042	196.300000
745.142639	198.000000
745.180298	204.000000
745.217896	194.800000
745.255493	194.800000
745.293152	199.100000
745.330750	201.100000
745.368347	200.900000
745.405945	198.400000
745.443604	194.900000
745.481140	200.100000
745.518799	195.200000
745.556396	199.500000
745.593994	196.300000
745.631592	195.800000
745.669189	190.500000
745.706787	195.500000
745.744385	194.300000
745.781982	197.700000
745.819580	193.600000
745.857178	196.300000
745.894775	194.600000
745.932373	196.900000
745.969971	197.200000
746.007568	189.200000
746.045166	202.600000
746.082764	202.000000
746.120300	198.800000
746.157898	197.000000
746.195557	195.400000
746.233093	192.000000
746.270691	197.800000
746.308228	198.300000
746.345825	197.900000
746.383423	198.300000
746.420959	193.200000
746.458557	194.200000
746.496155	193.100000
746.533691	196.600000
746.571289	191.400000
746.608887	194.500000
746.646423	196.500000
746.684021	196.100000
746.721619	193.600000
746.759155	197.000000
746.796753	190.400000
746.834351	191.000000
746.871826	193.000000
746.909424	200.100000
746.946960	195.900000
746.984558	193.600000
747.022156	193.500000
747.059631	201.700000
747.097229	198.200000
747.134827	193.000000
747.172363	199.800000
747.209900	198.300000
747.247498	191.400000
747.285034	200.600000
747.322571	201.300000
747.360168	193.400000
747.397644	190.000000
747.435242	199.100000
747.472778	199.500000
747.510315	194.000000
747.547913	195.700000
747.585388	199.700000
747.622925	195.200000
747.660522	189.600000
747.697998	194.500000
747.735596	193.300000
747.773132	194.600000
747.810669	194.800000
747.848206	199.300000
747.885742	191.900000
747.923279	190.200000
747.960815	196.000000
747.998352	196.000000
748.035889	199.700000
748.073425	198.300000
748.110901	192.500000
748.148437	190.900000
748.185974	195.600000
748.223511	202.600000
748.261047	196.500000
748.298584	196.200000
748.336060	194.400000
748.373596	196.400000
748.411133	219.800000
748.448608	193.500000
748.486145	197.500000
748.523682	199.200000
748.561218	203.300000
748.598755	195.200000
748.636292	198.100000
748.673706	194.100000
748.711243	201.400000
748.748718	195.300000
748.786255	195.100000
748.823792	194.400000
748.861267	191.300000
748.898804	197.600000
748.936340	198.000000
748.973816	194.000000
749.011292	200.500000
749.048828	196.600000
749.086304	198.200000
749.123840	203.400000
749.161316	192.600000
749.198792	203.300000
749.236328	201.700000
749.273743	196.000000
749.311279	195.000000
749.348816	198.200000
749.386230	197.400000
749.423767	186.700000
749.461304	199.400000
749.498718	196.000000
749.536255	201.700000
749.573730	205.400000
749.611206	202.000000
749.648682	194.200000
749.686218	195.700000
749.723633	199.600000
749.761169	194.600000
749.798645	192.600000
749.836060	193.800000
749.873596	192.800000
749.911011	197.900000
749.948547	200.200000
749.986023	195.600000
750.023437	194.500000
750.060913	190.500000
750.098450	192.000000
750.135864	194.800000
750.173340	196.200000
750.210815	199.100000
750.248291	191.800000
750.285767	195.500000
750.323242	198.900000
750.360657	196.900000
750.398132	191.900000
750.435608	197.700000
750.473022	193.200000
750.510498	193.200000
750.547974	192.700000
750.585449	194.600000
750.622925	188.800000
750.660339	204.700000
750.697815	198.600000
750.735291	196.600000
750.772644	198.700000
750.810120	195.100000
750.847595	197.200000
750.885010	192.500000
750.922485	202.500000
750.959961	197.000000
750.997375	202.900000
751.034851	199.100000
751.072266	199.100000
751.109680	190.300000
751.147156	200.500000
751.184570	198.700000
751.221985	195.200000
751.259460	188.800000
751.296875	195.600000
751.334290	195.400000
751.371765	199.000000
751.409180	198.700000
751.446594	198.900000
751.484070	196.300000
751.521423	196.000000
751.558899	196.800000
751.596375	202.900000
751.633728	202.000000
751.671204	202.800000
751.708618	193.600000
751.746033	196.500000
751.783447	191.300000
751.820801	193.300000
751.858276	200.100000
751.895691	195.300000
751.933105	195.400000
751.970520	191.200000
752.007935	194.100000
752.045349	199.300000
752.082764	196.700000
752.120178	193.000000
752.157532	193.500000
752.195007	194.900000
752.232422	198.100000
752.269775	198.900000
752.307190	198.300000
752.344543	192.800000
752.382019	195.300000
752.419434	193.900000
752.456787	199.000000
752.494202	200.500000
752.531616	196.000000
752.568970	199.900000
752.606384	197.700000
752.643799	197.200000
752.681152	201.200000
752.718567	197.900000
752.755981	189.900000
752.793335	198.000000
752.830750	190.200000
752.868164	201.200000
752.905518	191.500000
752.942932	199.200000
752.980225	192.700000
753.017639	198.000000
753.055054	195.700000
753.092407	197.300000
753.129822	197.800000
753.167175	202.800000
753.204529	194.100000
753.241943	193.200000
753.279358	191.000000
753.316650	198.400000
753.354065	196.300000
753.391479	199.200000
753.428772	201.100000
753.466187	196.800000
753.503479	191.800000
753.540894	194.200000
753.578308	190.600000
753.615601	191.300000
753.653015	195.100000
753.690369	195.000000
753.727722	193.100000
753.765076	191.500000
753.802490	190.200000
753.839783	190.300000
753.877136	194.400000
753.914551	206.700000
753.951843	193.000000
753.989258	197.800000
754.026611	196.600000
754.063904	199.900000
754.101257	191.700000
754.138611	190.300000
754.175964	197.800000
754.213318	205.000000
754.250610	190.700000
754.288025	194.300000
754.325378	191.100000
754.362671	198.300000
754.400024	195.100000
754.437378	203.100000
754.474670	203.500000
754.512085	193.300000
754.549438	195.600000
754.586731	192.600000
754.624084	197.300000
754.661438	191.500000
754.698730	202.400000
754.736084	194.600000
754.773376	196.200000
754.810730	196.900000
754.848083	196.600000
754.885315	199.800000
754.922668	190.400000
754.960022	192.900000
754.997314	199.900000
755.034668	196.600000
755.072021	197.800000
755.109253	195.100000
755.146606	202.300000
755.183960	195.600000
755.221252	202.300000
755.258545	200.000000
755.295898	202.200000
755.333191	202.700000
755.370544	198.200000
755.407776	196.700000
755.445129	197.000000
755.482422	200.400000
755.519714	194.400000
755.557068	190.500000
755.594360	190.200000
755.631653	201.500000
755.668945	202.800000
755.706299	198.300000
755.743530	206.500000
755.780884	202.200000
755.818176	201.600000
755.855408	201.900000
755.892761	197.900000
755.930054	198.500000
755.967346	198.000000
756.004639	201.200000
756.041870	196.900000
756.079224	201.800000
756.116516	194.700000
756.153748	200.400000
756.191040	204.200000
756.228394	200.000000
756.265625	193.500000
756.302917	197.600000
756.340210	194.500000
756.377441	203.300000
756.414795	203.000000
756.452087	198.600000
756.489319	193.900000
756.526611	202.500000
756.563843	199.200000
756.601135	204.900000
756.638428	205.300000
756.675659	198.100000
756.712952	202.300000
756.750244	201.200000
756.787476	200.600000
756.824768	203.500000
756.862061	198.800000
756.899292	247.400000
756.936584	204.400000
756.973816	207.400000
757.011047	208.100000
757.048340	199.000000
757.085632	200.900000
757.122864	214.200000
757.160156	199.000000
757.197327	202.400000
757.234619	205.800000
757.271912	197.300000
757.309082	205.200000
757.346375	197.200000
757.383667	205.800000
757.420837	201.700000
757.458130	201.200000
757.495422	198.300000
757.532593	204.000000
757.569885	195.700000
757.607117	198.200000
757.644348	201.600000
757.681580	211.500000
757.718811	190.800000
757.756042	200.700000
757.793335	197.700000
757.830505	204.200000
757.867798	199.500000
757.905029	198.900000
757.942200	201.400000
757.979492	200.300000
758.016724	200.400000
758.053894	200.100000
758.091187	214.900000
758.128418	202.100000
758.165588	201.800000
758.202820	211.900000
758.240112	201.500000
758.277283	212.000000
758.314514	204.600000
758.351685	201.100000
758.388916	210.800000
758.426147	209.000000
758.463379	211.200000
758.500610	206.800000
758.537842	203.300000
758.575012	209.600000
758.612244	201.000000
758.649475	213.500000
758.686646	199.000000
758.723877	210.300000
758.761108	211.000000
758.798279	204.200000
758.835510	205.900000
758.872742	210.400000
758.909851	207.600000
758.947083	206.400000
758.984253	207.400000
759.021484	207.800000
759.058716	209.800000
759.095886	208.800000
759.133057	206.700000
759.170288	209.400000
759.207458	204.700000
759.244690	214.700000
759.281860	213.900000
759.319031	207.600000
759.356262	205.800000
759.393433	205.800000
759.430603	206.200000
759.467773	205.900000
759.505005	212.500000
759.542175	211.100000
759.579346	210.100000
759.616516	208.600000
759.653687	211.200000
759.690918	207.300000
759.728027	211.100000
759.765259	210.900000
759.802429	213.100000
759.839539	212.200000
759.876770	215.000000
759.913940	217.900000
759.951111	211.900000
759.988281	210.800000
760.025452	208.000000
760.062561	207.700000
760.099792	219.000000
760.136963	214.200000
760.174072	208.800000
760.211243	207.300000
760.248413	207.300000
760.285583	208.700000
760.322754	219.400000
760.359863	218.100000
760.397034	215.000000
760.434204	211.700000
760.471375	212.100000
760.508545	211.000000
760.545715	213.100000
760.582825	208.600000
760.619995	214.500000
760.657166	209.700000
760.694275	217.800000
760.731445	213.700000
760.768555	214.600000
760.805664	215.600000
760.842834	214.100000
760.879944	218.200000
760.917114	213.900000
760.954285	214.200000
760.991394	208.400000
761.028564	217.800000
761.065674	214.900000
761.102783	211.300000
761.139954	219.200000
761.177124	218.000000
761.214172	220.700000
761.251343	215.200000
761.288452	215.200000
761.325562	219.000000
761.362732	212.700000
761.399841	215.200000
761.436951	217.200000
761.474121	213.300000
761.511169	215.900000
761.548340	220.400000
761.585449	219.400000
761.622559	220.300000
761.659668	220.100000
761.696838	222.500000
761.733887	219.800000
761.771057	216.400000
761.808167	218.000000
761.845276	220.900000
761.882385	230.500000
761.919434	219.800000
761.956604	234.200000
761.993713	216.200000
762.030762	225.000000
762.067871	218.000000
762.105042	219.200000
762.142090	226.300000
762.179199	222.400000
762.216309	225.000000
762.253418	232.900000
762.290527	229.800000
762.327637	226.100000
762.364685	216.700000
762.401794	224.900000
762.438904	224.600000
762.475952	222.000000
762.513062	219.000000
762.550110	221.400000
762.587219	231.600000
762.624329	230.200000
762.661377	224.400000
762.698486	224.500000
762.735596	225.100000
762.772644	222.200000
762.809753	218.900000
762.846863	226.300000
762.883911	230.200000
762.921021	228.600000
762.958069	226.000000
762.995117	233.300000
763.032227	230.800000
763.069336	223.500000
763.106323	219.800000
763.143433	220.600000
763.180481	228.000000
763.217590	228.600000
763.254639	226.400000
763.291687	227.600000
763.328735	234.100000
763.365845	227.700000
763.402893	226.400000
763.439941	229.100000
763.477051	231.900000
763.514038	229.700000
763.551147	224.900000
763.588196	229.600000
763.625244	229.400000
763.662292	235.700000
763.699402	237.900000
763.736389	234.000000
763.773499	241.000000
763.810486	233.500000
763.847534	232.600000
763.884644	231.300000
763.921631	230.400000
763.958679	237.600000
763.995728	232.500000
764.032776	238.300000
764.069824	230.200000
764.106873	238.100000
764.143860	244.000000
764.180969	235.000000
764.218018	241.000000
764.255005	234.700000
764.292053	235.800000
764.329102	242.900000
764.366089	243.500000
764.403137	239.900000
764.440125	235.200000
764.477173	238.700000
764.514221	242.800000
764.551208	242.400000
764.588257	238.800000
764.625305	245.700000
764.662292	247.700000
764.699341	250.800000
764.736389	243.900000
764.773376	255.600000
764.810425	245.800000
764.847473	250.900000
764.884399	246.800000
764.921448	254.200000
764.958435	252.300000
764.995483	247.200000
765.032532	258.300000
765.069458	249.100000
765.106506	251.400000
765.143555	249.700000
765.180481	251.800000
765.217529	260.100000
765.254578	248.500000
765.291504	254.600000
765.328552	252.400000
765.365540	250.700000
765.402527	260.300000
765.439575	252.300000
765.476501	248.400000
765.513550	249.700000
765.550537	256.300000
765.587463	262.700000
765.624512	255.900000
765.661499	248.000000
765.698486	262.100000
765.735474	252.000000
765.772461	255.100000
765.809448	262.900000
765.846436	261.100000
765.883423	262.600000
765.920410	259.600000
765.957397	255.500000
765.994385	258.700000
766.031311	268.000000
766.068359	262.400000
766.105286	263.600000
766.142273	269.400000
766.179260	264.500000
766.216187	260.300000
766.253174	257.500000
766.290161	264.100000
766.327148	267.000000
766.364136	265.900000
766.401123	276.300000
766.438049	261.300000
766.475037	270.200000
766.512024	269.000000
766.548950	281.200000
766.585937	275.800000
766.622864	272.100000
766.659790	270.100000
766.696777	263.500000
766.733704	275.700000
766.770691	267.700000
766.807678	277.700000
766.844604	271.400000
766.881531	273.700000
766.918518	278.600000
766.955444	278.100000
766.992432	273.800000
767.029358	276.200000
767.066284	276.900000
767.103271	276.700000
767.140198	307.900000
767.177124	289.600000
767.214050	279.000000
767.251038	281.200000
767.287964	276.800000
767.324890	277.100000
767.361816	279.700000
767.398743	285.600000
767.435730	279.100000
767.472595	282.000000
767.509583	286.500000
767.546509	278.400000
767.583374	283.500000
767.620361	277.400000
767.657288	282.700000
767.694214	283.500000
767.731140	280.300000
767.768066	282.400000
767.804993	285.900000
767.841919	278.800000
767.878845	287.000000
767.915710	287.800000
767.952698	285.200000
767.989563	286.100000
768.026489	287.600000
