Model Number: SPM-001-M   
Serial Number: 10090201
Firmware Version: 004.17.6
Exposure Time: 300000.000000us
Data Taken on: 28-01-2021 10:18:50.295
Wavelength	Amplitude
733.770752	0.000000
733.808716	0.000000
733.846619	0.000000
733.884583	0.000000
733.922546	0.000000
733.960449	0.000000
733.998413	0.000000
734.036377	0.000000
734.074219	0.000000
734.112183	0.000000
734.150085	0.000000
734.188049	0.000000
734.226013	0.000000
734.263916	0.000000
734.301819	0.000000
734.339783	0.000000
734.377686	0.000000
734.415588	0.000000
734.453552	0.000000
734.491455	0.000000
734.529419	0.000000
734.567322	0.000000
734.605225	0.000000
734.643127	0.000000
734.681091	0.000000
734.718994	0.000000
734.756897	0.000000
734.794800	0.000000
734.832703	0.000000
734.870667	0.000000
734.908508	0.000000
734.946472	0.000000
734.984375	0.000000
735.022278	0.000000
735.060181	0.000000
735.098083	0.000000
735.135986	0.000000
735.173889	0.000000
735.211792	0.000000
735.249695	0.000000
735.287598	0.000000
735.325439	0.000000
735.363403	0.000000
735.401306	0.000000
735.439148	0.000000
735.477051	0.000000
735.515015	0.000000
735.552856	0.000000
735.590759	0.000000
735.628662	0.000000
735.666504	0.000000
735.704407	0.000000
735.742310	0.000000
735.780212	0.000000
735.818115	0.000000
735.856018	0.000000
735.893860	0.000000
735.931763	0.000000
735.969604	0.000000
736.007507	0.000000
736.045410	0.000000
736.083252	0.000000
736.121094	0.000000
736.158997	0.000000
736.196838	0.000000
736.234741	0.000000
736.272644	0.000000
736.310486	0.000000
736.348389	0.000000
736.386230	0.000000
736.424072	0.000000
736.461975	0.000000
736.499878	0.000000
736.537720	0.000000
736.575562	0.000000
736.613403	0.000000
736.651306	0.000000
736.689148	0.000000
736.726990	0.000000
736.764893	0.000000
736.802734	0.000000
736.840576	0.000000
736.878418	0.000000
736.916321	0.000000
736.954102	0.000000
736.992004	0.000000
737.029846	0.000000
737.067688	0.000000
737.105530	0.000000
737.143372	0.000000
737.181213	0.000000
737.219116	0.000000
737.256897	0.000000
737.294739	0.000000
737.332642	0.000000
737.370422	0.000000
737.408325	0.000000
737.446167	0.000000
737.483948	0.000000
737.521790	0.000000
737.559692	0.000000
737.597473	0.000000
737.635315	0.000000
737.673157	0.000000
737.710999	0.000000
737.748840	0.000000
737.786621	0.000000
737.824463	0.000000
737.862305	0.000000
737.900085	0.000000
737.937927	0.000000
737.975769	0.000000
738.013550	0.000000
738.051392	0.000000
738.089233	0.000000
738.127014	0.000000
738.164856	0.000000
738.202698	0.000000
738.240479	0.000000
738.278320	0.000000
738.316162	0.000000
738.353943	0.000000
738.391785	0.000000
738.429565	0.000000
738.467407	0.000000
738.505188	0.000000
738.542969	0.000000
738.580811	0.000000
738.618652	0.000000
738.656372	0.000000
738.694214	0.000000
738.732056	0.000000
738.769836	0.000000
738.807617	0.000000
738.845459	0.000000
738.883240	0.000000
738.921021	0.000000
738.958862	0.000000
738.996582	0.000000
739.034424	0.000000
739.072205	0.000000
739.109985	0.000000
739.147827	0.000000
739.185547	0.000000
739.223389	0.000000
739.261169	0.000000
739.298889	0.000000
739.336731	0.000000
739.374512	0.000000
739.412292	0.000000
739.450073	0.000000
739.487854	0.000000
739.525635	0.000000
739.563416	0.000000
739.601135	0.000000
739.638977	0.000000
739.676758	0.000000
739.714478	0.000000
739.752258	0.000000
739.790100	0.000000
739.827820	0.000000
739.865601	0.000000
739.903381	0.000000
739.941101	0.000000
739.978882	183.800000
740.016724	180.800000
740.054443	183.300000
740.092224	178.500000
740.130005	180.000000
740.167725	178.700000
740.205505	179.600000
740.243225	184.700000
740.281006	181.500000
740.318787	176.100000
740.356506	185.600000
740.394287	184.600000
740.432068	178.900000
740.469727	178.000000
740.507507	184.000000
740.545288	182.700000
740.583008	183.100000
740.620789	182.200000
740.658569	175.700000
740.696228	182.800000
740.734009	183.800000
740.771790	174.400000
740.809509	184.400000
740.847229	178.000000
740.884949	178.500000
740.922729	177.000000
740.960449	179.000000
740.998169	178.400000
741.035950	177.500000
741.073669	182.000000
741.111389	181.600000
741.149170	188.400000
741.186890	187.600000
741.224609	184.600000
741.262329	180.400000
741.300110	187.000000
741.337769	177.300000
741.375549	177.700000
741.413208	181.300000
741.450989	179.300000
741.488708	180.000000
741.526367	180.200000
741.564148	183.700000
741.601868	183.500000
741.639526	180.900000
741.677307	184.300000
741.715027	183.600000
741.752686	178.400000
741.790466	186.200000
741.828186	182.000000
741.865845	176.700000
741.903564	178.100000
741.941345	181.400000
741.979004	178.700000
742.016724	183.300000
742.054382	182.100000
742.092102	184.900000
742.129822	177.400000
742.167480	179.200000
742.205200	180.400000
742.242920	183.100000
742.280640	183.800000
742.318359	178.100000
742.356079	182.200000
742.393738	185.100000
742.431396	179.400000
742.469116	185.600000
742.506775	175.200000
742.544495	182.700000
742.582214	183.700000
742.619873	180.900000
742.657593	187.100000
742.695251	185.700000
742.732971	179.400000
742.770630	182.400000
742.808289	182.500000
742.846008	180.500000
742.883728	181.600000
742.921326	181.600000
742.959045	178.500000
742.996765	180.300000
743.034424	180.500000
743.072083	179.600000
743.109802	181.000000
743.147400	178.500000
743.185120	181.100000
743.222839	179.900000
743.260437	185.200000
743.298157	182.300000
743.335754	175.400000
743.373474	180.700000
743.411133	176.500000
743.448792	181.900000
743.486450	180.700000
743.524170	176.200000
743.561768	180.300000
743.599487	186.300000
743.637146	187.000000
743.674744	180.500000
743.712463	180.200000
743.750122	182.600000
743.787720	182.100000
743.825439	179.400000
743.863037	179.600000
743.900696	181.900000
743.938416	205.200000
743.976013	181.100000
744.013672	187.200000
744.051331	185.300000
744.088928	187.400000
744.126587	185.000000
744.164307	183.400000
744.201904	180.100000
744.239563	183.300000
744.277222	183.200000
744.314819	182.300000
744.352478	186.700000
744.390137	183.500000
744.427734	183.300000
744.465393	180.400000
744.502991	178.900000
744.540649	182.600000
744.578308	180.200000
744.615906	178.700000
744.653564	174.100000
744.691223	183.500000
744.728821	177.700000
744.766418	181.500000
744.804077	182.600000
744.841675	180.400000
744.879333	176.800000
744.916992	180.500000
744.954529	179.900000
744.992187	185.600000
745.029785	180.000000
745.067444	180.500000
745.105042	181.900000
745.142639	183.300000
745.180298	187.900000
745.217896	180.000000
745.255493	180.400000
745.293152	184.300000
745.330750	184.700000
745.368347	186.100000
745.405945	183.400000
745.443604	182.400000
745.481140	184.000000
745.518799	182.500000
745.556396	184.200000
745.593994	183.800000
745.631592	181.500000
745.669189	179.100000
745.706787	181.500000
745.744385	179.300000
745.781982	184.500000
745.819580	180.400000
745.857178	182.000000
745.894775	181.000000
745.932373	182.400000
745.969971	182.700000
746.007568	177.300000
746.045166	187.400000
746.082764	186.300000
746.120300	183.300000
746.157898	184.700000
746.195557	182.100000
746.233093	177.600000
746.270691	183.400000
746.308228	184.100000
746.345825	183.400000
746.383423	184.100000
746.420959	179.000000
746.458557	180.100000
746.496155	178.300000
746.533691	182.900000
746.571289	177.900000
746.608887	181.800000
746.646423	181.200000
746.684021	182.600000
746.721619	177.200000
746.759155	184.300000
746.796753	177.200000
746.834351	178.300000
746.871826	177.100000
746.909424	187.100000
746.946960	180.700000
746.984558	181.400000
747.022156	179.000000
747.059631	188.100000
747.097229	182.500000
747.134827	180.400000
747.172363	185.300000
747.209900	185.300000
747.247498	178.500000
747.285034	186.000000
747.322571	186.200000
747.360168	180.700000
747.397644	176.900000
747.435242	184.800000
747.472778	186.300000
747.510315	181.000000
747.547913	181.200000
747.585388	184.700000
747.622925	181.100000
747.660522	176.200000
747.697998	180.100000
747.735596	181.200000
747.773132	179.400000
747.810669	181.500000
747.848206	183.500000
747.885742	178.900000
747.923279	176.000000
747.960815	182.800000
747.998352	182.300000
748.035889	183.300000
748.073425	184.200000
748.110901	179.600000
748.148437	178.100000
748.185974	181.200000
748.223511	188.900000
748.261047	184.000000
748.298584	182.400000
748.336060	181.100000
748.373596	183.100000
748.411133	206.400000
748.448608	180.200000
748.486145	183.200000
748.523682	184.800000
748.561218	187.100000
748.598755	182.900000
748.636292	182.200000
748.673706	180.400000
748.711243	186.300000
748.748718	182.200000
748.786255	181.700000
748.823792	181.700000
748.861267	177.400000
748.898804	184.000000
748.936340	182.400000
748.973816	179.000000
749.011292	186.100000
749.048828	182.100000
749.086304	182.500000
749.123840	188.800000
749.161316	178.200000
749.198792	188.000000
749.236328	184.800000
749.273743	181.300000
749.311279	181.700000
749.348816	186.100000
749.386230	181.400000
749.423767	174.400000
749.461304	185.900000
749.498718	182.000000
749.536255	186.500000
749.573730	189.500000
749.611206	186.100000
749.648682	181.700000
749.686218	182.100000
749.723633	183.300000
749.761169	182.000000
749.798645	178.100000
749.836060	180.100000
749.873596	178.100000
749.911011	183.500000
749.948547	185.400000
749.986023	181.300000
750.023437	181.200000
750.060913	177.700000
750.098450	176.600000
750.135864	181.400000
750.173340	179.900000
750.210815	184.700000
750.248291	178.100000
750.285767	180.700000
750.323242	183.500000
750.360657	182.900000
750.398132	177.600000
750.435608	184.200000
750.473022	178.000000
750.510498	178.200000
750.547974	177.800000
750.585449	181.600000
750.622925	174.400000
750.660339	191.000000
750.697815	180.800000
750.735291	181.600000
750.772644	180.700000
750.810120	183.700000
750.847595	182.400000
750.885010	178.300000
750.922485	186.200000
750.959961	180.400000
750.997375	185.400000
751.034851	184.900000
751.072266	183.100000
751.109680	177.800000
751.147156	185.700000
751.184570	183.700000
751.221985	180.300000
751.259460	177.000000
751.296875	181.400000
751.334290	181.600000
751.371765	186.800000
751.409180	183.900000
751.446594	185.900000
751.484070	183.200000
751.521423	182.200000
751.558899	181.800000
751.596375	189.300000
751.633728	185.800000
751.671204	189.500000
751.708618	179.400000
751.746033	183.100000
751.783447	178.100000
751.820801	180.000000
751.858276	185.200000
751.895691	180.500000
751.933105	180.000000
751.970520	178.700000
752.007935	180.300000
752.045349	185.400000
752.082764	181.400000
752.120178	180.400000
752.157532	178.500000
752.195007	181.000000
752.232422	182.200000
752.269775	184.200000
752.307190	182.000000
752.344543	177.800000
752.382019	181.000000
752.419434	180.600000
752.456787	182.800000
752.494202	185.500000
752.531616	183.600000
752.568970	185.200000
752.606384	182.600000
752.643799	182.200000
752.681152	185.600000
752.718567	183.000000
752.755981	176.500000
752.793335	184.300000
752.830750	176.300000
752.868164	185.700000
752.905518	179.000000
752.942932	183.700000
752.980225	178.100000
753.017639	182.900000
753.055054	184.900000
753.092407	182.200000
753.129822	184.300000
753.167175	187.800000
753.204529	181.000000
753.241943	177.700000
753.279358	179.300000
753.316650	183.400000
753.354065	182.900000
753.391479	184.600000
753.428772	186.700000
753.466187	181.900000
753.503479	178.200000
753.540894	179.000000
753.578308	178.200000
753.615601	176.600000
753.653015	180.900000
753.690369	180.800000
753.727722	178.900000
753.765076	176.300000
753.802490	178.100000
753.839783	175.800000
753.877136	180.900000
753.914551	189.200000
753.951843	178.800000
753.989258	183.900000
754.026611	182.600000
754.063904	183.400000
754.101257	180.100000
754.138611	175.600000
754.175964	183.300000
754.213318	186.600000
754.250610	178.600000
754.288025	179.900000
754.325378	178.800000
754.362671	183.500000
754.400024	182.700000
754.437378	188.600000
754.474670	188.300000
754.512085	181.400000
754.549438	181.800000
754.586731	180.600000
754.624084	181.900000
754.661438	179.400000
754.698730	187.800000
754.736084	181.900000
754.773376	179.300000
754.810730	183.200000
754.848083	181.400000
754.885315	184.900000
754.922668	176.900000
754.960022	179.600000
754.997314	184.400000
755.034668	181.400000
755.072021	183.000000
755.109253	180.700000
755.146606	186.800000
755.183960	182.000000
755.221252	187.100000
755.258545	185.100000
755.295898	188.100000
755.333191	185.400000
755.370544	184.300000
755.407776	182.400000
755.445129	183.500000
755.482422	185.900000
755.519714	179.400000
755.557068	178.700000
755.594360	176.100000
755.631653	185.100000
755.668945	188.900000
755.706299	183.200000
755.743530	190.000000
755.780884	189.000000
755.818176	184.800000
755.855408	187.000000
755.892761	183.500000
755.930054	182.900000
755.967346	185.100000
756.004639	184.100000
756.041870	183.100000
756.079224	187.400000
756.116516	180.600000
756.153748	186.400000
756.191040	189.900000
756.228394	184.600000
756.265625	179.700000
756.302917	184.200000
756.340210	180.200000
756.377441	187.800000
756.414795	189.600000
756.452087	183.100000
756.489319	180.700000
756.526611	187.900000
756.563843	185.100000
756.601135	189.900000
756.638428	191.000000
756.675659	184.200000
756.712952	186.900000
756.750244	187.400000
756.787476	185.700000
756.824768	189.000000
756.862061	184.700000
756.899292	229.300000
756.936584	187.700000
756.973816	193.300000
757.011047	194.400000
757.048340	183.800000
757.085632	185.900000
757.122864	196.800000
757.160156	182.500000
757.197327	186.400000
757.234619	189.900000
757.271912	183.400000
757.309082	190.600000
757.346375	183.400000
757.383667	190.600000
757.420837	185.600000
757.458130	186.800000
757.495422	183.700000
757.532593	187.900000
757.569885	180.800000
757.607117	184.200000
757.644348	187.200000
757.681580	197.000000
757.718811	177.500000
757.756042	186.900000
757.793335	184.300000
757.830505	193.100000
757.867798	185.000000
757.905029	184.500000
757.942200	186.300000
757.979492	185.800000
758.016724	186.500000
758.053894	186.000000
758.091187	197.900000
758.128418	187.700000
758.165588	187.600000
758.202820	195.900000
758.240112	187.400000
758.277283	195.300000
758.314514	188.900000
758.351685	186.800000
758.388916	193.900000
758.426147	192.700000
758.463379	194.100000
758.500610	189.700000
758.537842	189.700000
758.575012	193.700000
758.612244	188.000000
758.649475	197.100000
758.686646	185.300000
758.723877	193.700000
758.761108	195.200000
758.798279	189.400000
758.835510	190.800000
758.872742	194.600000
758.909851	192.200000
758.947083	190.400000
758.984253	193.500000
759.021484	193.600000
759.058716	194.000000
759.095886	195.100000
759.133057	190.900000
759.170288	193.400000
759.207458	190.400000
759.244690	198.100000
759.281860	198.100000
759.319031	191.900000
759.356262	191.700000
759.393433	190.200000
759.430603	192.100000
759.467773	191.700000
759.505005	196.600000
759.542175	195.900000
759.579346	192.200000
759.616516	192.800000
759.653687	196.900000
759.690918	191.600000
759.728027	193.800000
759.765259	195.900000
759.802429	196.700000
759.839539	195.800000
759.876770	197.600000
759.913940	199.600000
759.951111	195.000000
759.988281	196.200000
760.025452	192.900000
760.062561	192.400000
760.099792	203.000000
760.136963	197.700000
760.174072	194.800000
760.211243	192.700000
760.248413	191.500000
760.285583	193.200000
760.322754	202.700000
760.359863	199.500000
760.397034	201.400000
760.434204	196.300000
760.471375	195.800000
760.508545	196.100000
760.545715	196.100000
760.582825	194.300000
760.619995	198.600000
760.657166	193.600000
760.694275	200.500000
760.731445	198.500000
760.768555	197.800000
760.805664	200.100000
760.842834	198.200000
760.879944	201.400000
760.917114	197.300000
760.954285	197.100000
760.991394	194.100000
761.028564	202.600000
761.065674	198.100000
761.102783	198.100000
761.139954	201.900000
761.177124	200.000000
761.214172	203.200000
761.251343	198.000000
761.288452	197.800000
761.325562	202.000000
761.362732	197.100000
761.399841	200.100000
761.436951	200.700000
761.474121	197.300000
761.511169	199.800000
761.548340	203.000000
761.585449	203.000000
761.622559	204.600000
761.659668	202.700000
761.696838	205.600000
761.733887	203.200000
761.771057	200.700000
761.808167	201.500000
761.845276	205.100000
761.882385	212.400000
761.919434	203.100000
761.956604	216.300000
761.993713	200.700000
762.030762	207.400000
762.067871	203.000000
762.105042	203.800000
762.142090	208.500000
762.179199	204.900000
762.216309	207.700000
762.253418	215.300000
762.290527	211.400000
762.327637	208.600000
762.364685	201.400000
762.401794	209.400000
762.438904	206.200000
762.475952	203.700000
762.513062	201.900000
762.550110	205.100000
762.587219	214.200000
762.624329	211.600000
762.661377	209.100000
762.698486	207.900000
762.735596	207.400000
762.772644	204.500000
762.809753	202.500000
762.846863	205.600000
762.883911	210.800000
762.921021	208.900000
762.958069	207.900000
762.995117	215.200000
763.032227	215.000000
763.069336	208.100000
763.106323	203.300000
763.143433	204.800000
763.180481	210.000000
763.217590	211.100000
763.254639	209.000000
763.291687	209.700000
763.328735	216.400000
763.365845	211.500000
763.402893	210.000000
763.439941	213.200000
763.477051	213.200000
763.514038	213.100000
763.551147	210.500000
763.588196	211.600000
763.625244	212.600000
763.662292	218.500000
763.699402	221.800000
763.736389	216.400000
763.773499	222.900000
763.810486	217.100000
763.847534	216.600000
763.884644	216.900000
763.921631	214.500000
763.958679	222.400000
763.995728	216.600000
764.032776	222.000000
764.069824	213.500000
764.106873	219.900000
764.143860	224.800000
764.180969	219.100000
764.218018	224.300000
764.255005	218.100000
764.292053	220.500000
764.329102	226.500000
764.366089	226.700000
764.403137	224.000000
764.440125	220.800000
764.477173	221.800000
764.514221	225.600000
764.551208	223.100000
764.588257	222.300000
764.625305	225.900000
764.662292	230.200000
764.699341	232.100000
764.736389	228.200000
764.773376	236.900000
764.810425	228.700000
764.847473	233.100000
764.884399	230.500000
764.921448	235.200000
764.958435	235.200000
764.995483	228.100000
765.032532	241.100000
765.069458	230.600000
765.106506	234.200000
765.143555	230.700000
765.180481	234.500000
765.217529	238.400000
765.254578	229.400000
765.291504	235.300000
765.328552	236.200000
765.365540	231.600000
765.402527	242.200000
765.439575	232.900000
765.476501	229.500000
765.513550	231.900000
765.550537	235.100000
765.587463	241.200000
765.624512	235.600000
765.661499	230.600000
765.698486	239.600000
765.735474	234.100000
765.772461	237.500000
765.809448	240.700000
765.846436	239.700000
765.883423	245.000000
765.920410	240.000000
765.957397	237.300000
765.994385	241.200000
766.031311	244.800000
766.068359	240.300000
766.105286	243.400000
766.142273	247.300000
766.179260	243.600000
766.216187	240.100000
766.253174	239.200000
766.290161	243.400000
766.327148	247.900000
766.364136	245.700000
766.401123	256.800000
766.438049	241.000000
766.475037	250.700000
766.512024	247.000000
766.548950	259.700000
766.585937	255.100000
766.622864	252.100000
766.659790	249.900000
766.696777	245.400000
766.733704	254.000000
766.770691	249.500000
766.807678	256.900000
766.844604	256.000000
766.881531	254.400000
766.918518	257.800000
766.955444	258.600000
766.992432	255.400000
767.029358	255.700000
767.066284	259.000000
767.103271	256.600000
767.140198	288.500000
767.177124	268.500000
767.214050	259.100000
767.251038	260.900000
767.287964	258.900000
767.324890	258.400000
767.361816	258.500000
767.398743	263.500000
767.435730	260.200000
767.472595	262.100000
767.509583	264.800000
767.546509	259.100000
767.583374	261.700000
767.620361	258.800000
767.657288	261.100000
767.694214	261.500000
767.731140	260.000000
767.768066	262.900000
767.804993	265.600000
767.841919	259.700000
767.878845	263.500000
767.915710	269.800000
767.952698	262.800000
767.989563	267.000000
768.026489	266.300000
