Model Number: SPM-001-M   
Serial Number: 10090201
Firmware Version: 004.17.6
Exposure Time: 300000.000000us
Data Taken on: 28-01-2021 10:31:38.583
Wavelength	Amplitude
733.770752	0.000000
733.808716	0.000000
733.846619	0.000000
733.884583	0.000000
733.922546	0.000000
733.960449	0.000000
733.998413	0.000000
734.036377	0.000000
734.074219	0.000000
734.112183	0.000000
734.150085	0.000000
734.188049	0.000000
734.226013	0.000000
734.263916	0.000000
734.301819	0.000000
734.339783	0.000000
734.377686	0.000000
734.415588	0.000000
734.453552	0.000000
734.491455	0.000000
734.529419	0.000000
734.567322	0.000000
734.605225	0.000000
734.643127	0.000000
734.681091	0.000000
734.718994	0.000000
734.756897	0.000000
734.794800	0.000000
734.832703	0.000000
734.870667	0.000000
734.908508	0.000000
734.946472	0.000000
734.984375	0.000000
735.022278	0.000000
735.060181	0.000000
735.098083	0.000000
735.135986	0.000000
735.173889	0.000000
735.211792	0.000000
735.249695	0.000000
735.287598	0.000000
735.325439	0.000000
735.363403	0.000000
735.401306	0.000000
735.439148	0.000000
735.477051	0.000000
735.515015	0.000000
735.552856	0.000000
735.590759	0.000000
735.628662	0.000000
735.666504	0.000000
735.704407	0.000000
735.742310	0.000000
735.780212	0.000000
735.818115	0.000000
735.856018	0.000000
735.893860	0.000000
735.931763	0.000000
735.969604	0.000000
736.007507	0.000000
736.045410	0.000000
736.083252	0.000000
736.121094	0.000000
736.158997	0.000000
736.196838	0.000000
736.234741	0.000000
736.272644	0.000000
736.310486	0.000000
736.348389	0.000000
736.386230	0.000000
736.424072	0.000000
736.461975	0.000000
736.499878	0.000000
736.537720	0.000000
736.575562	0.000000
736.613403	0.000000
736.651306	0.000000
736.689148	0.000000
736.726990	0.000000
736.764893	0.000000
736.802734	0.000000
736.840576	0.000000
736.878418	0.000000
736.916321	0.000000
736.954102	0.000000
736.992004	0.000000
737.029846	0.000000
737.067688	0.000000
737.105530	0.000000
737.143372	0.000000
737.181213	0.000000
737.219116	0.000000
737.256897	0.000000
737.294739	0.000000
737.332642	0.000000
737.370422	0.000000
737.408325	0.000000
737.446167	0.000000
737.483948	0.000000
737.521790	0.000000
737.559692	0.000000
737.597473	0.000000
737.635315	0.000000
737.673157	0.000000
737.710999	0.000000
737.748840	0.000000
737.786621	0.000000
737.824463	0.000000
737.862305	0.000000
737.900085	0.000000
737.937927	0.000000
737.975769	0.000000
738.013550	0.000000
738.051392	0.000000
738.089233	0.000000
738.127014	0.000000
738.164856	0.000000
738.202698	0.000000
738.240479	0.000000
738.278320	0.000000
738.316162	0.000000
738.353943	0.000000
738.391785	0.000000
738.429565	0.000000
738.467407	0.000000
738.505188	0.000000
738.542969	0.000000
738.580811	0.000000
738.618652	0.000000
738.656372	0.000000
738.694214	0.000000
738.732056	0.000000
738.769836	0.000000
738.807617	0.000000
738.845459	0.000000
738.883240	0.000000
738.921021	0.000000
738.958862	0.000000
738.996582	0.000000
739.034424	0.000000
739.072205	0.000000
739.109985	0.000000
739.147827	0.000000
739.185547	0.000000
739.223389	0.000000
739.261169	0.000000
739.298889	0.000000
739.336731	0.000000
739.374512	0.000000
739.412292	0.000000
739.450073	0.000000
739.487854	0.000000
739.525635	0.000000
739.563416	0.000000
739.601135	0.000000
739.638977	0.000000
739.676758	0.000000
739.714478	0.000000
739.752258	0.000000
739.790100	0.000000
739.827820	0.000000
739.865601	0.000000
739.903381	0.000000
739.941101	0.000000
739.978882	184.400000
740.016724	179.300000
740.054443	184.400000
740.092224	179.600000
740.130005	178.900000
740.167725	178.800000
740.205505	179.300000
740.243225	186.100000
740.281006	181.100000
740.318787	177.400000
740.356506	187.400000
740.394287	184.100000
740.432068	178.800000
740.469727	177.800000
740.507507	184.500000
740.545288	182.400000
740.583008	183.800000
740.620789	182.500000
740.658569	176.600000
740.696228	182.100000
740.734009	183.600000
740.771790	173.800000
740.809509	185.100000
740.847229	178.200000
740.884949	178.500000
740.922729	177.800000
740.960449	179.400000
740.998169	177.700000
741.035950	179.300000
741.073669	181.400000
741.111389	181.600000
741.149170	188.600000
741.186890	186.400000
741.224609	184.800000
741.262329	181.000000
741.300110	188.200000
741.337769	177.900000
741.375549	176.200000
741.413208	181.000000
741.450989	179.100000
741.488708	178.700000
741.526367	179.000000
741.564148	183.100000
741.601868	183.200000
741.639526	180.500000
741.677307	181.900000
741.715027	182.900000
741.752686	178.200000
741.790466	184.400000
741.828186	181.900000
741.865845	177.300000
741.903564	175.800000
741.941345	180.700000
741.979004	177.700000
742.016724	183.200000
742.054382	182.800000
742.092102	185.500000
742.129822	178.000000
742.167480	180.600000
742.205200	179.700000
742.242920	182.600000
742.280640	183.800000
742.318359	179.400000
742.356079	179.800000
742.393738	184.500000
742.431396	180.000000
742.469116	185.000000
742.506775	175.800000
742.544495	183.200000
742.582214	183.000000
742.619873	183.100000
742.657593	186.400000
742.695251	185.700000
742.732971	181.200000
742.770630	183.900000
742.808289	181.800000
742.846008	182.400000
742.883728	181.400000
742.921326	181.500000
742.959045	180.000000
742.996765	181.000000
743.034424	180.900000
743.072083	179.700000
743.109802	179.600000
743.147400	178.200000
743.185120	181.200000
743.222839	181.200000
743.260437	186.100000
743.298157	183.500000
743.335754	174.400000
743.373474	180.900000
743.411133	175.900000
743.448792	181.500000
743.486450	180.700000
743.524170	177.500000
743.561768	180.400000
743.599487	186.900000
743.637146	189.200000
743.674744	181.000000
743.712463	180.400000
743.750122	182.500000
743.787720	181.100000
743.825439	180.800000
743.863037	181.100000
743.900696	180.700000
743.938416	206.900000
743.976013	182.400000
744.013672	187.900000
744.051331	184.100000
744.088928	188.200000
744.126587	186.000000
744.164307	183.500000
744.201904	178.400000
744.239563	183.700000
744.277222	184.700000
744.314819	181.200000
744.352478	185.500000
744.390137	182.900000
744.427734	182.200000
744.465393	179.900000
744.502991	178.100000
744.540649	183.300000
744.578308	181.900000
744.615906	178.300000
744.653564	173.600000
744.691223	183.300000
744.728821	176.300000
744.766418	181.800000
744.804077	181.900000
744.841675	180.600000
744.879333	177.100000
744.916992	180.200000
744.954529	179.400000
744.992187	184.100000
745.029785	178.000000
745.067444	180.000000
745.105042	179.900000
745.142639	180.900000
745.180298	187.800000
745.217896	180.400000
745.255493	178.700000
745.293152	184.800000
745.330750	185.500000
745.368347	187.000000
745.405945	183.900000
745.443604	181.400000
745.481140	183.900000
745.518799	181.400000
745.556396	183.500000
745.593994	184.000000
745.631592	181.300000
745.669189	178.400000
745.706787	182.300000
745.744385	179.100000
745.781982	184.900000
745.819580	179.800000
745.857178	181.100000
745.894775	182.300000
745.932373	184.000000
745.969971	183.000000
746.007568	176.200000
746.045166	185.700000
746.082764	186.900000
746.120300	184.600000
746.157898	184.800000
746.195557	181.400000
746.233093	180.200000
746.270691	184.100000
746.308228	183.100000
746.345825	183.500000
746.383423	183.100000
746.420959	178.000000
746.458557	180.100000
746.496155	178.500000
746.533691	182.100000
746.571289	177.400000
746.608887	182.000000
746.646423	180.800000
746.684021	184.100000
746.721619	179.500000
746.759155	182.300000
746.796753	175.400000
746.834351	176.500000
746.871826	179.100000
746.909424	186.500000
746.946960	179.700000
746.984558	181.800000
747.022156	179.400000
747.059631	188.700000
747.097229	182.500000
747.134827	180.800000
747.172363	184.600000
747.209900	184.800000
747.247498	179.300000
747.285034	185.600000
747.322571	186.200000
747.360168	181.000000
747.397644	176.000000
747.435242	183.600000
747.472778	185.300000
747.510315	181.300000
747.547913	180.100000
747.585388	185.800000
747.622925	181.900000
747.660522	178.300000
747.697998	180.300000
747.735596	180.400000
747.773132	179.700000
747.810669	182.600000
747.848206	185.600000
747.885742	178.900000
747.923279	179.000000
747.960815	183.100000
747.998352	183.600000
748.035889	184.000000
748.073425	184.700000
748.110901	180.400000
748.148437	179.700000
748.185974	181.900000
748.223511	189.000000
748.261047	183.500000
748.298584	182.900000
748.336060	180.900000
748.373596	183.800000
748.411133	207.100000
748.448608	180.100000
748.486145	183.200000
748.523682	184.400000
748.561218	187.000000
748.598755	182.800000
748.636292	182.600000
748.673706	180.500000
748.711243	187.600000
748.748718	181.400000
748.786255	180.700000
748.823792	181.600000
748.861267	178.800000
748.898804	184.900000
748.936340	182.400000
748.973816	178.600000
749.011292	187.100000
749.048828	181.700000
749.086304	183.700000
749.123840	190.500000
749.161316	176.900000
749.198792	188.800000
749.236328	186.300000
749.273743	181.300000
749.311279	181.000000
749.348816	184.300000
749.386230	182.400000
749.423767	174.900000
749.461304	183.900000
749.498718	183.400000
749.536255	187.400000
749.573730	188.500000
749.611206	186.900000
749.648682	181.000000
749.686218	183.400000
749.723633	185.300000
749.761169	181.300000
749.798645	179.300000
749.836060	180.800000
749.873596	178.400000
749.911011	184.200000
749.948547	186.700000
749.986023	182.000000
750.023437	181.200000
750.060913	177.900000
750.098450	176.400000
750.135864	180.900000
750.173340	180.900000
750.210815	186.300000
750.248291	178.100000
750.285767	182.100000
750.323242	183.800000
750.360657	185.200000
750.398132	179.200000
750.435608	183.200000
750.473022	177.700000
750.510498	180.200000
750.547974	178.000000
750.585449	182.000000
750.622925	175.000000
750.660339	191.800000
750.697815	182.100000
750.735291	180.800000
750.772644	181.700000
750.810120	185.500000
750.847595	183.500000
750.885010	178.600000
750.922485	188.100000
750.959961	182.300000
750.997375	186.400000
751.034851	185.400000
751.072266	184.700000
751.109680	178.200000
751.147156	186.900000
751.184570	185.100000
751.221985	182.100000
751.259460	176.700000
751.296875	182.400000
751.334290	181.200000
751.371765	186.300000
751.409180	186.000000
751.446594	187.100000
751.484070	183.700000
751.521423	184.000000
751.558899	182.800000
751.596375	189.400000
751.633728	187.700000
751.671204	190.800000
751.708618	179.100000
751.746033	183.800000
751.783447	177.600000
751.820801	179.000000
751.858276	184.100000
751.895691	182.500000
751.933105	179.300000
751.970520	179.000000
752.007935	179.800000
752.045349	186.600000
752.082764	180.600000
752.120178	180.100000
752.157532	180.100000
752.195007	181.000000
752.232422	182.500000
752.269775	184.300000
752.307190	183.000000
752.344543	178.000000
752.382019	180.700000
752.419434	181.400000
752.456787	183.000000
752.494202	187.700000
752.531616	183.100000
752.568970	182.900000
752.606384	183.900000
752.643799	184.100000
752.681152	187.000000
752.718567	184.400000
752.755981	177.400000
752.793335	184.200000
752.830750	177.300000
752.868164	184.300000
752.905518	178.300000
752.942932	184.700000
752.980225	178.700000
753.017639	184.500000
753.055054	185.800000
753.092407	182.700000
753.129822	185.200000
753.167175	188.300000
753.204529	181.900000
753.241943	180.000000
753.279358	177.600000
753.316650	184.400000
753.354065	184.300000
753.391479	184.900000
753.428772	187.600000
753.466187	182.500000
753.503479	180.500000
753.540894	181.000000
753.578308	177.900000
753.615601	178.000000
753.653015	182.500000
753.690369	179.600000
753.727722	181.000000
753.765076	176.500000
753.802490	177.900000
753.839783	176.300000
753.877136	180.400000
753.914551	190.200000
753.951843	179.500000
753.989258	184.300000
754.026611	182.100000
754.063904	181.900000
754.101257	180.600000
754.138611	175.500000
754.175964	182.900000
754.213318	187.800000
754.250610	176.900000
754.288025	179.500000
754.325378	179.100000
754.362671	183.900000
754.400024	182.900000
754.437378	189.400000
754.474670	187.800000
754.512085	180.100000
754.549438	183.100000
754.586731	179.900000
754.624084	181.200000
754.661438	179.600000
754.698730	189.100000
754.736084	181.300000
754.773376	181.600000
754.810730	185.200000
754.848083	182.100000
754.885315	186.800000
754.922668	178.000000
754.960022	180.100000
754.997314	186.000000
755.034668	183.400000
755.072021	184.400000
755.109253	180.900000
755.146606	186.600000
755.183960	181.200000
755.221252	188.100000
755.258545	185.600000
755.295898	187.000000
755.333191	187.000000
755.370544	183.200000
755.407776	182.900000
755.445129	183.200000
755.482422	185.600000
755.519714	180.000000
755.557068	179.500000
755.594360	176.400000
755.631653	186.000000
755.668945	188.200000
755.706299	184.400000
755.743530	190.500000
755.780884	188.200000
755.818176	186.100000
755.855408	188.500000
755.892761	184.400000
755.930054	183.200000
755.967346	185.400000
756.004639	187.000000
756.041870	183.300000
756.079224	188.100000
756.116516	181.200000
756.153748	186.200000
756.191040	190.500000
756.228394	186.100000
756.265625	180.800000
756.302917	185.800000
756.340210	183.100000
756.377441	188.100000
756.414795	189.800000
756.452087	184.600000
756.489319	180.200000
756.526611	187.700000
756.563843	186.000000
756.601135	190.400000
756.638428	192.000000
756.675659	184.400000
756.712952	187.400000
756.750244	186.400000
756.787476	186.900000
756.824768	189.100000
756.862061	185.000000
756.899292	229.400000
756.936584	189.500000
756.973816	192.100000
757.011047	195.200000
757.048340	184.100000
757.085632	185.800000
757.122864	198.100000
757.160156	183.700000
757.197327	187.200000
757.234619	190.300000
757.271912	183.600000
757.309082	190.600000
757.346375	182.500000
757.383667	189.900000
757.420837	186.400000
757.458130	188.300000
757.495422	183.600000
757.532593	189.000000
757.569885	183.000000
757.607117	184.100000
757.644348	187.200000
757.681580	196.300000
757.718811	178.900000
757.756042	187.300000
757.793335	185.900000
757.830505	189.100000
757.867798	186.500000
757.905029	185.200000
757.942200	187.000000
757.979492	186.000000
758.016724	186.900000
758.053894	186.800000
758.091187	199.700000
758.128418	187.500000
758.165588	186.800000
758.202820	196.300000
758.240112	188.400000
758.277283	195.300000
758.314514	189.000000
758.351685	186.500000
758.388916	195.600000
758.426147	191.900000
758.463379	196.500000
758.500610	190.500000
758.537842	190.300000
758.575012	193.700000
758.612244	186.600000
758.649475	197.900000
758.686646	186.600000
758.723877	194.600000
758.761108	195.100000
758.798279	190.300000
758.835510	192.800000
758.872742	195.000000
758.909851	192.100000
758.947083	191.100000
758.984253	192.900000
759.021484	193.600000
759.058716	195.100000
759.095886	193.800000
759.133057	190.900000
759.170288	193.600000
759.207458	190.900000
759.244690	198.300000
759.281860	199.400000
759.319031	193.000000
759.356262	191.300000
759.393433	191.900000
759.430603	193.200000
759.467773	192.200000
759.505005	196.000000
759.542175	197.500000
759.579346	191.900000
759.616516	193.400000
759.653687	198.100000
759.690918	193.200000
759.728027	193.900000
759.765259	194.700000
759.802429	197.900000
759.839539	196.500000
759.876770	198.400000
759.913940	202.800000
759.951111	195.200000
759.988281	196.300000
760.025452	192.500000
760.062561	192.900000
760.099792	203.200000
760.136963	198.800000
760.174072	194.300000
760.211243	193.900000
760.248413	193.600000
760.285583	194.100000
760.322754	203.200000
760.359863	202.000000
760.397034	201.300000
760.434204	196.700000
760.471375	196.300000
760.508545	195.700000
760.545715	197.200000
760.582825	194.500000
760.619995	199.600000
760.657166	193.100000
760.694275	202.100000
760.731445	197.800000
760.768555	198.100000
760.805664	201.100000
760.842834	196.400000
760.879944	200.100000
760.917114	198.500000
760.954285	198.300000
760.991394	193.400000
761.028564	202.400000
761.065674	201.100000
761.102783	197.500000
761.139954	202.500000
761.177124	201.500000
761.214172	203.500000
761.251343	200.200000
761.288452	198.900000
761.325562	202.700000
761.362732	197.100000
761.399841	201.000000
761.436951	201.900000
761.474121	199.200000
761.511169	201.400000
761.548340	205.700000
761.585449	203.500000
761.622559	204.200000
761.659668	203.100000
761.696838	205.800000
761.733887	203.500000
761.771057	201.300000
761.808167	204.000000
761.845276	206.200000
761.882385	211.500000
761.919434	204.100000
761.956604	216.600000
761.993713	201.400000
762.030762	208.200000
762.067871	203.400000
762.105042	204.800000
762.142090	209.600000
762.179199	206.200000
762.216309	208.700000
762.253418	216.500000
762.290527	211.300000
762.327637	209.300000
762.364685	201.700000
762.401794	209.000000
762.438904	207.000000
762.475952	204.400000
762.513062	201.700000
762.550110	205.200000
762.587219	213.600000
762.624329	213.700000
762.661377	208.000000
762.698486	208.900000
762.735596	207.100000
762.772644	204.200000
762.809753	202.200000
762.846863	206.700000
762.883911	211.700000
762.921021	209.900000
762.958069	207.400000
762.995117	214.200000
763.032227	215.500000
763.069336	209.200000
763.106323	206.300000
763.143433	205.500000
763.180481	211.000000
763.217590	213.000000
763.254639	211.200000
763.291687	210.800000
763.328735	216.600000
763.365845	211.300000
763.402893	211.400000
763.439941	213.500000
763.477051	215.400000
763.514038	214.800000
763.551147	211.500000
763.588196	213.900000
763.625244	212.500000
763.662292	220.300000
763.699402	221.700000
763.736389	216.200000
763.773499	224.300000
763.810486	219.100000
763.847534	214.700000
763.884644	217.100000
763.921631	214.900000
763.958679	222.100000
763.995728	217.200000
764.032776	221.900000
764.069824	215.500000
764.106873	221.300000
764.143860	225.300000
764.180969	218.500000
764.218018	226.100000
764.255005	218.100000
764.292053	220.800000
764.329102	227.700000
764.366089	228.000000
764.403137	225.600000
764.440125	220.900000
764.477173	223.000000
764.514221	225.000000
764.551208	222.300000
764.588257	221.300000
764.625305	227.000000
764.662292	232.100000
764.699341	232.300000
764.736389	226.000000
764.773376	238.700000
764.810425	230.100000
764.847473	233.900000
764.884399	233.200000
764.921448	236.800000
764.958435	236.200000
764.995483	229.600000
765.032532	241.700000
765.069458	231.100000
765.106506	231.900000
765.143555	231.400000
765.180481	235.600000
765.217529	241.200000
765.254578	230.800000
765.291504	236.400000
765.328552	234.900000
765.365540	232.500000
765.402527	242.700000
765.439575	234.200000
765.476501	231.400000
765.513550	232.700000
765.550537	238.000000
765.587463	241.300000
765.624512	232.900000
765.661499	231.600000
765.698486	242.300000
765.735474	235.300000
765.772461	237.000000
765.809448	244.100000
765.846436	240.800000
765.883423	245.300000
765.920410	240.400000
765.957397	237.200000
765.994385	242.200000
766.031311	248.100000
766.068359	242.400000
766.105286	244.200000
766.142273	248.200000
766.179260	243.300000
766.216187	240.900000
766.253174	239.000000
766.290161	243.700000
766.327148	248.800000
766.364136	246.700000
766.401123	256.100000
766.438049	243.200000
766.475037	253.700000
766.512024	250.200000
766.548950	260.400000
766.585937	256.000000
766.622864	252.800000
766.659790	252.800000
766.696777	246.500000
766.733704	255.700000
766.770691	250.500000
766.807678	258.900000
766.844604	255.000000
766.881531	256.500000
766.918518	259.400000
766.955444	258.500000
766.992432	255.600000
767.029358	257.100000
767.066284	259.500000
767.103271	258.900000
767.140198	289.800000
767.177124	268.900000
767.214050	261.100000
767.251038	262.500000
767.287964	259.800000
767.324890	260.100000
767.361816	260.800000
767.398743	267.000000
767.435730	261.400000
767.472595	264.900000
767.509583	264.700000
767.546509	258.600000
767.583374	263.300000
767.620361	258.400000
767.657288	260.800000
767.694214	263.100000
767.731140	261.100000
767.768066	264.800000
767.804993	265.400000
767.841919	260.200000
767.878845	264.000000
767.915710	270.600000
767.952698	264.200000
767.989563	268.800000
768.026489	268.600000
