Model Number: SPM-001-M   
Serial Number: 10090201
Firmware Version: 004.17.6
Exposure Time: 300000.000000us
Data Taken on: 28-01-2021 09:55:29.003
Wavelength	Amplitude
733.770752	0.000000
733.808716	0.000000
733.846619	0.000000
733.884583	0.000000
733.922546	0.000000
733.960449	0.000000
733.998413	0.000000
734.036377	0.000000
734.074219	0.000000
734.112183	0.000000
734.150085	0.000000
734.188049	0.000000
734.226013	0.000000
734.263916	0.000000
734.301819	0.000000
734.339783	0.000000
734.377686	0.000000
734.415588	0.000000
734.453552	0.000000
734.491455	0.000000
734.529419	0.000000
734.567322	0.000000
734.605225	0.000000
734.643127	0.000000
734.681091	0.000000
734.718994	0.000000
734.756897	0.000000
734.794800	0.000000
734.832703	0.000000
734.870667	0.000000
734.908508	0.000000
734.946472	0.000000
734.984375	0.000000
735.022278	0.000000
735.060181	0.000000
735.098083	0.000000
735.135986	0.000000
735.173889	0.000000
735.211792	0.000000
735.249695	0.000000
735.287598	0.000000
735.325439	0.000000
735.363403	0.000000
735.401306	0.000000
735.439148	0.000000
735.477051	0.000000
735.515015	0.000000
735.552856	0.000000
735.590759	0.000000
735.628662	0.000000
735.666504	0.000000
735.704407	0.000000
735.742310	0.000000
735.780212	0.000000
735.818115	0.000000
735.856018	0.000000
735.893860	0.000000
735.931763	0.000000
735.969604	0.000000
736.007507	0.000000
736.045410	0.000000
736.083252	0.000000
736.121094	0.000000
736.158997	0.000000
736.196838	0.000000
736.234741	0.000000
736.272644	0.000000
736.310486	0.000000
736.348389	0.000000
736.386230	0.000000
736.424072	0.000000
736.461975	0.000000
736.499878	0.000000
736.537720	0.000000
736.575562	0.000000
736.613403	0.000000
736.651306	0.000000
736.689148	0.000000
736.726990	0.000000
736.764893	0.000000
736.802734	0.000000
736.840576	0.000000
736.878418	0.000000
736.916321	0.000000
736.954102	0.000000
736.992004	0.000000
737.029846	0.000000
737.067688	0.000000
737.105530	0.000000
737.143372	0.000000
737.181213	0.000000
737.219116	0.000000
737.256897	0.000000
737.294739	0.000000
737.332642	0.000000
737.370422	0.000000
737.408325	0.000000
737.446167	0.000000
737.483948	0.000000
737.521790	0.000000
737.559692	0.000000
737.597473	0.000000
737.635315	0.000000
737.673157	0.000000
737.710999	0.000000
737.748840	0.000000
737.786621	0.000000
737.824463	0.000000
737.862305	0.000000
737.900085	0.000000
737.937927	0.000000
737.975769	0.000000
738.013550	0.000000
738.051392	0.000000
738.089233	0.000000
738.127014	0.000000
738.164856	0.000000
738.202698	0.000000
738.240479	0.000000
738.278320	0.000000
738.316162	0.000000
738.353943	0.000000
738.391785	0.000000
738.429565	0.000000
738.467407	0.000000
738.505188	0.000000
738.542969	0.000000
738.580811	0.000000
738.618652	0.000000
738.656372	0.000000
738.694214	0.000000
738.732056	0.000000
738.769836	0.000000
738.807617	0.000000
738.845459	0.000000
738.883240	0.000000
738.921021	0.000000
738.958862	0.000000
738.996582	0.000000
739.034424	0.000000
739.072205	0.000000
739.109985	0.000000
739.147827	0.000000
739.185547	0.000000
739.223389	0.000000
739.261169	0.000000
739.298889	0.000000
739.336731	0.000000
739.374512	0.000000
739.412292	0.000000
739.450073	0.000000
739.487854	0.000000
739.525635	0.000000
739.563416	0.000000
739.601135	0.000000
739.638977	0.000000
739.676758	0.000000
739.714478	0.000000
739.752258	0.000000
739.790100	0.000000
739.827820	0.000000
739.865601	0.000000
739.903381	0.000000
739.941101	0.000000
739.978882	183.000000
740.016724	180.300000
740.054443	183.700000
740.092224	177.900000
740.130005	177.400000
740.167725	177.700000
740.205505	178.000000
740.243225	184.400000
740.281006	180.100000
740.318787	174.500000
740.356506	184.600000
740.394287	182.500000
740.432068	177.700000
740.469727	174.200000
740.507507	183.200000
740.545288	180.500000
740.583008	181.600000
740.620789	180.200000
740.658569	174.800000
740.696228	178.700000
740.734009	183.700000
740.771790	172.400000
740.809509	183.100000
740.847229	176.800000
740.884949	179.300000
740.922729	174.600000
740.960449	179.800000
740.998169	175.200000
741.035950	175.900000
741.073669	179.200000
741.111389	181.100000
741.149170	186.300000
741.186890	185.900000
741.224609	183.300000
741.262329	182.100000
741.300110	187.500000
741.337769	178.300000
741.375549	176.400000
741.413208	182.200000
741.450989	177.500000
741.488708	179.000000
741.526367	179.000000
741.564148	181.600000
741.601868	181.600000
741.639526	179.400000
741.677307	181.600000
741.715027	182.400000
741.752686	176.500000
741.790466	183.700000
741.828186	179.900000
741.865845	177.000000
741.903564	175.400000
741.941345	180.600000
741.979004	178.300000
742.016724	182.700000
742.054382	181.000000
742.092102	183.400000
742.129822	175.800000
742.167480	178.600000
742.205200	178.000000
742.242920	181.600000
742.280640	184.500000
742.318359	176.500000
742.356079	178.900000
742.393738	182.300000
742.431396	179.000000
742.469116	183.600000
742.506775	174.600000
742.544495	180.500000
742.582214	183.200000
742.619873	179.000000
742.657593	185.700000
742.695251	182.100000
742.732971	179.300000
742.770630	181.700000
742.808289	181.400000
742.846008	179.700000
742.883728	181.500000
742.921326	181.400000
742.959045	178.800000
742.996765	178.500000
743.034424	179.300000
743.072083	176.800000
743.109802	179.400000
743.147400	175.700000
743.185120	181.300000
743.222839	181.200000
743.260437	185.500000
743.298157	182.000000
743.335754	175.100000
743.373474	179.700000
743.411133	175.900000
743.448792	179.500000
743.486450	178.200000
743.524170	174.700000
743.561768	180.700000
743.599487	183.500000
743.637146	186.400000
743.674744	179.300000
743.712463	177.200000
743.750122	180.800000
743.787720	180.800000
743.825439	178.900000
743.863037	179.100000
743.900696	179.200000
743.938416	204.000000
743.976013	180.600000
744.013672	184.800000
744.051331	183.700000
744.088928	185.900000
744.126587	185.400000
744.164307	181.900000
744.201904	178.900000
744.239563	181.900000
744.277222	182.900000
744.314819	179.300000
744.352478	185.000000
744.390137	182.300000
744.427734	181.400000
744.465393	177.500000
744.502991	176.700000
744.540649	180.600000
744.578308	181.300000
744.615906	176.400000
744.653564	173.400000
744.691223	181.000000
744.728821	175.800000
744.766418	179.500000
744.804077	182.500000
744.841675	178.600000
744.879333	176.300000
744.916992	179.500000
744.954529	179.400000
744.992187	181.500000
745.029785	179.200000
745.067444	179.800000
745.105042	180.100000
745.142639	180.600000
745.180298	186.100000
745.217896	179.400000
745.255493	179.100000
745.293152	182.800000
745.330750	185.000000
745.368347	184.300000
745.405945	181.300000
745.443604	180.600000
745.481140	182.800000
745.518799	179.300000
745.556396	182.000000
745.593994	180.500000
745.631592	180.200000
745.669189	177.600000
745.706787	180.700000
745.744385	177.900000
745.781982	182.500000
745.819580	177.500000
745.857178	179.800000
745.894775	179.200000
745.932373	180.000000
745.969971	182.500000
746.007568	176.100000
746.045166	187.100000
746.082764	185.500000
746.120300	182.900000
746.157898	181.300000
746.195557	180.300000
746.233093	176.500000
746.270691	182.600000
746.308228	181.800000
746.345825	183.600000
746.383423	181.200000
746.420959	177.800000
746.458557	177.600000
746.496155	178.600000
746.533691	180.700000
746.571289	176.900000
746.608887	180.200000
746.646423	180.500000
746.684021	181.400000
746.721619	177.700000
746.759155	182.600000
746.796753	175.700000
746.834351	174.900000
746.871826	177.400000
746.909424	185.600000
746.946960	180.900000
746.984558	179.500000
747.022156	178.800000
747.059631	187.300000
747.097229	182.100000
747.134827	178.500000
747.172363	184.500000
747.209900	182.500000
747.247498	175.900000
747.285034	183.700000
747.322571	184.900000
747.360168	179.100000
747.397644	174.900000
747.435242	182.300000
747.472778	183.200000
747.510315	179.900000
747.547913	178.500000
747.585388	185.300000
747.622925	179.100000
747.660522	175.800000
747.697998	178.900000
747.735596	178.100000
747.773132	178.200000
747.810669	180.000000
747.848206	182.200000
747.885742	176.900000
747.923279	176.300000
747.960815	182.400000
747.998352	180.600000
748.035889	183.000000
748.073425	183.100000
748.110901	179.400000
748.148437	177.200000
748.185974	181.400000
748.223511	186.300000
748.261047	182.500000
748.298584	182.400000
748.336060	180.600000
748.373596	182.100000
748.411133	206.900000
748.448608	178.500000
748.486145	183.200000
748.523682	183.600000
748.561218	186.300000
748.598755	180.600000
748.636292	182.100000
748.673706	177.700000
748.711243	186.900000
748.748718	181.100000
748.786255	180.200000
748.823792	179.500000
748.861267	177.300000
748.898804	182.800000
748.936340	182.300000
748.973816	179.300000
749.011292	184.600000
749.048828	181.600000
749.086304	181.900000
749.123840	187.300000
749.161316	176.900000
749.198792	186.000000
749.236328	183.400000
749.273743	178.700000
749.311279	179.000000
749.348816	182.400000
749.386230	180.200000
749.423767	173.900000
749.461304	183.300000
749.498718	180.600000
749.536255	183.200000
749.573730	187.700000
749.611206	185.500000
749.648682	180.900000
749.686218	179.600000
749.723633	182.500000
749.761169	179.900000
749.798645	177.900000
749.836060	178.500000
749.873596	178.900000
749.911011	182.200000
749.948547	184.500000
749.986023	180.400000
750.023437	180.300000
750.060913	175.300000
750.098450	175.200000
750.135864	180.500000
750.173340	180.800000
750.210815	184.100000
750.248291	176.800000
750.285767	180.100000
750.323242	183.800000
750.360657	181.100000
750.398132	177.600000
750.435608	181.700000
750.473022	177.200000
750.510498	176.200000
750.547974	177.000000
750.585449	179.900000
750.622925	173.700000
750.660339	189.700000
750.697815	180.100000
750.735291	179.600000
750.772644	179.800000
750.810120	180.500000
750.847595	182.200000
750.885010	177.200000
750.922485	185.200000
750.959961	179.500000
750.997375	184.400000
751.034851	182.900000
751.072266	183.600000
751.109680	175.800000
751.147156	184.000000
751.184570	182.100000
751.221985	180.500000
751.259460	175.000000
751.296875	181.200000
751.334290	179.800000
751.371765	183.000000
751.409180	183.900000
751.446594	184.700000
751.484070	182.800000
751.521423	180.400000
751.558899	182.700000
751.596375	187.000000
751.633728	184.800000
751.671204	187.400000
751.708618	177.300000
751.746033	180.800000
751.783447	177.100000
751.820801	178.400000
751.858276	183.300000
751.895691	180.200000
751.933105	180.200000
751.970520	176.900000
752.007935	179.400000
752.045349	183.900000
752.082764	180.600000
752.120178	178.700000
752.157532	179.500000
752.195007	178.300000
752.232422	182.600000
752.269775	182.100000
752.307190	182.800000
752.344543	177.700000
752.382019	180.700000
752.419434	179.500000
752.456787	182.200000
752.494202	184.100000
752.531616	181.200000
752.568970	180.900000
752.606384	182.100000
752.643799	181.800000
752.681152	184.500000
752.718567	182.100000
752.755981	174.800000
752.793335	182.400000
752.830750	174.700000
752.868164	183.600000
752.905518	176.700000
752.942932	183.500000
752.980225	176.200000
753.017639	183.800000
753.055054	183.000000
753.092407	181.300000
753.129822	183.500000
753.167175	187.800000
753.204529	180.100000
753.241943	179.200000
753.279358	177.700000
753.316650	183.500000
753.354065	182.500000
753.391479	184.300000
753.428772	184.900000
753.466187	182.000000
753.503479	176.700000
753.540894	181.200000
753.578308	176.600000
753.615601	177.100000
753.653015	179.500000
753.690369	179.300000
753.727722	178.600000
753.765076	175.400000
753.802490	177.300000
753.839783	175.200000
753.877136	178.700000
753.914551	190.100000
753.951843	178.200000
753.989258	183.500000
754.026611	181.000000
754.063904	182.000000
754.101257	176.900000
754.138611	174.500000
754.175964	181.500000
754.213318	187.100000
754.250610	175.600000
754.288025	179.100000
754.325378	177.100000
754.362671	183.100000
754.400024	180.000000
754.437378	187.000000
754.474670	186.100000
754.512085	177.500000
754.549438	181.700000
754.586731	176.000000
754.624084	180.500000
754.661438	176.900000
754.698730	186.300000
754.736084	179.700000
754.773376	180.800000
754.810730	181.700000
754.848083	180.600000
754.885315	184.200000
754.922668	176.100000
754.960022	177.700000
754.997314	183.500000
755.034668	181.800000
755.072021	181.700000
755.109253	178.200000
755.146606	186.300000
755.183960	180.200000
755.221252	188.000000
755.258545	183.500000
755.295898	185.700000
755.333191	185.700000
755.370544	182.900000
755.407776	181.300000
755.445129	181.500000
755.482422	184.900000
755.519714	180.300000
755.557068	176.700000
755.594360	176.900000
755.631653	183.600000
755.668945	187.400000
755.706299	183.300000
755.743530	190.600000
755.780884	185.600000
755.818176	185.900000
755.855408	186.000000
755.892761	182.500000
755.930054	181.700000
755.967346	183.500000
756.004639	184.600000
756.041870	181.200000
756.079224	185.900000
756.116516	180.200000
756.153748	185.100000
756.191040	188.500000
756.228394	184.600000
756.265625	180.600000
756.302917	183.100000
756.340210	179.300000
756.377441	186.200000
756.414795	187.200000
756.452087	183.400000
756.489319	178.000000
756.526611	185.000000
756.563843	183.700000
756.601135	189.200000
756.638428	189.600000
756.675659	182.600000
756.712952	183.500000
756.750244	186.500000
756.787476	184.200000
756.824768	188.600000
756.862061	181.700000
756.899292	228.000000
756.936584	187.400000
756.973816	191.200000
757.011047	189.800000
757.048340	183.900000
757.085632	185.500000
757.122864	197.300000
757.160156	182.600000
757.197327	186.000000
757.234619	187.000000
757.271912	184.300000
757.309082	187.800000
757.346375	183.100000
757.383667	188.500000
757.420837	186.200000
757.458130	185.000000
757.495422	184.400000
757.532593	186.600000
757.569885	181.300000
757.607117	182.500000
757.644348	185.700000
757.681580	195.300000
757.718811	178.100000
757.756042	185.400000
757.793335	183.600000
757.830505	190.000000
757.867798	184.300000
757.905029	184.300000
757.942200	186.600000
757.979492	184.200000
758.016724	185.300000
758.053894	183.900000
758.091187	197.400000
758.128418	186.600000
758.165588	184.600000
758.202820	194.000000
758.240112	187.100000
758.277283	194.100000
758.314514	188.000000
758.351685	186.000000
758.388916	191.500000
758.426147	192.300000
758.463379	192.200000
758.500610	190.400000
758.537842	187.200000
758.575012	193.600000
758.612244	184.700000
758.649475	196.900000
758.686646	184.300000
758.723877	192.500000
758.761108	194.700000
758.798279	188.500000
758.835510	189.000000
758.872742	195.000000
758.909851	190.800000
758.947083	192.100000
758.984253	189.800000
759.021484	192.400000
759.058716	192.900000
759.095886	193.100000
759.133057	190.100000
759.170288	192.800000
759.207458	188.200000
759.244690	197.300000
759.281860	196.200000
759.319031	191.300000
759.356262	189.300000
759.393433	189.600000
759.430603	191.000000
759.467773	191.200000
759.505005	194.700000
759.542175	195.400000
759.579346	191.700000
759.616516	192.100000
759.653687	194.700000
759.690918	190.100000
759.728027	193.200000
759.765259	193.500000
759.802429	196.000000
759.839539	193.600000
759.876770	197.100000
759.913940	200.200000
759.951111	194.400000
759.988281	194.000000
760.025452	192.600000
760.062561	191.000000
760.099792	201.100000
760.136963	197.100000
760.174072	193.400000
760.211243	189.100000
760.248413	191.900000
760.285583	192.500000
760.322754	202.600000
760.359863	198.400000
760.397034	199.200000
760.434204	194.200000
760.471375	194.500000
760.508545	193.800000
760.545715	196.000000
760.582825	192.800000
760.619995	199.200000
760.657166	192.800000
760.694275	199.200000
760.731445	197.700000
760.768555	196.500000
760.805664	198.900000
760.842834	198.200000
760.879944	198.900000
760.917114	199.000000
760.954285	196.200000
760.991394	193.600000
761.028564	198.300000
761.065674	198.500000
761.102783	195.000000
761.139954	201.900000
761.177124	199.000000
761.214172	202.700000
761.251343	197.700000
761.288452	196.800000
761.325562	200.700000
761.362732	196.100000
761.399841	198.200000
761.436951	199.000000
761.474121	195.700000
761.511169	198.000000
761.548340	202.700000
761.585449	200.800000
761.622559	202.300000
761.659668	200.000000
761.696838	205.200000
761.733887	200.600000
761.771057	199.700000
761.808167	201.400000
761.845276	203.500000
761.882385	209.100000
761.919434	202.700000
761.956604	213.800000
761.993713	200.000000
762.030762	205.500000
762.067871	201.800000
762.105042	201.800000
762.142090	209.500000
762.179199	201.800000
762.216309	207.400000
762.253418	213.400000
762.290527	210.000000
762.327637	205.700000
762.364685	201.100000
762.401794	206.500000
762.438904	206.500000
762.475952	201.500000
762.513062	201.600000
762.550110	203.000000
762.587219	213.600000
762.624329	212.300000
762.661377	206.500000
762.698486	205.300000
762.735596	205.500000
762.772644	202.300000
762.809753	201.500000
762.846863	206.100000
762.883911	211.500000
762.921021	208.700000
762.958069	207.200000
762.995117	212.500000
763.032227	211.900000
763.069336	205.800000
763.106323	203.700000
763.143433	203.100000
763.180481	208.100000
763.217590	208.800000
763.254639	208.000000
763.291687	209.800000
763.328735	214.200000
763.365845	210.400000
763.402893	208.300000
763.439941	210.800000
763.477051	212.900000
763.514038	212.500000
763.551147	208.800000
763.588196	212.700000
763.625244	209.000000
763.662292	217.200000
763.699402	217.600000
763.736389	216.000000
763.773499	221.200000
763.810486	216.900000
763.847534	214.000000
763.884644	216.800000
763.921631	213.900000
763.958679	221.900000
763.995728	215.000000
764.032776	222.200000
764.069824	213.300000
764.106873	219.700000
764.143860	223.100000
764.180969	217.900000
764.218018	223.300000
764.255005	218.900000
764.292053	219.300000
764.329102	226.000000
764.366089	223.800000
764.403137	223.800000
764.440125	219.300000
764.477173	221.200000
764.514221	223.600000
764.551208	221.800000
764.588257	219.200000
764.625305	225.600000
764.662292	229.200000
764.699341	230.700000
764.736389	225.700000
764.773376	235.800000
764.810425	227.600000
764.847473	231.500000
764.884399	229.500000
764.921448	234.100000
764.958435	233.500000
764.995483	225.600000
765.032532	236.600000
765.069458	228.100000
765.106506	229.800000
765.143555	227.600000
765.180481	232.800000
765.217529	236.800000
765.254578	226.700000
765.291504	233.000000
765.328552	232.300000
765.365540	227.000000
765.402527	240.200000
765.439575	231.000000
765.476501	229.500000
765.513550	228.700000
765.550537	234.200000
765.587463	238.300000
765.624512	232.000000
765.661499	228.700000
765.698486	239.200000
765.735474	232.200000
765.772461	236.700000
765.809448	238.700000
765.846436	239.100000
765.883423	241.800000
765.920410	238.600000
765.957397	235.700000
765.994385	239.200000
766.031311	244.500000
766.068359	240.900000
766.105286	240.300000
766.142273	245.900000
766.179260	241.800000
766.216187	237.600000
766.253174	235.300000
766.290161	242.500000
766.327148	245.300000
766.364136	245.100000
766.401123	252.900000
766.438049	241.200000
766.475037	248.500000
766.512024	247.000000
766.548950	258.900000
766.585937	253.900000
766.622864	248.700000
766.659790	248.900000
766.696777	242.500000
766.733704	253.000000
766.770691	248.700000
766.807678	255.600000
766.844604	251.700000
766.881531	252.200000
766.918518	254.900000
766.955444	255.400000
766.992432	252.100000
767.029358	254.000000
767.066284	257.700000
767.103271	254.700000
767.140198	286.900000
767.177124	264.600000
767.214050	259.000000
767.251038	258.800000
767.287964	257.400000
767.324890	256.600000
767.361816	257.800000
767.398743	262.000000
767.435730	258.200000
767.472595	260.100000
767.509583	264.500000
767.546509	255.500000
767.583374	259.900000
767.620361	255.700000
767.657288	259.800000
767.694214	261.100000
767.731140	260.900000
767.768066	260.800000
767.804993	265.400000
767.841919	259.600000
767.878845	264.100000
767.915710	266.600000
767.952698	262.100000
767.989563	263.600000
768.026489	265.900000
