Model Number: SPM-001-M   
Serial Number: 10090201
Firmware Version: 004.17.6
Exposure Time: 300000.000000us
Data Taken on: 28-01-2021 10:40:15.176
Wavelength	Amplitude
733.770752	0.000000
733.808716	0.000000
733.846619	0.000000
733.884583	0.000000
733.922546	0.000000
733.960449	0.000000
733.998413	0.000000
734.036377	0.000000
734.074219	0.000000
734.112183	0.000000
734.150085	0.000000
734.188049	0.000000
734.226013	0.000000
734.263916	0.000000
734.301819	0.000000
734.339783	0.000000
734.377686	0.000000
734.415588	0.000000
734.453552	0.000000
734.491455	0.000000
734.529419	0.000000
734.567322	0.000000
734.605225	0.000000
734.643127	0.000000
734.681091	0.000000
734.718994	0.000000
734.756897	0.000000
734.794800	0.000000
734.832703	0.000000
734.870667	0.000000
734.908508	0.000000
734.946472	0.000000
734.984375	0.000000
735.022278	0.000000
735.060181	0.000000
735.098083	0.000000
735.135986	0.000000
735.173889	0.000000
735.211792	0.000000
735.249695	0.000000
735.287598	0.000000
735.325439	0.000000
735.363403	0.000000
735.401306	0.000000
735.439148	0.000000
735.477051	0.000000
735.515015	0.000000
735.552856	0.000000
735.590759	0.000000
735.628662	0.000000
735.666504	0.000000
735.704407	0.000000
735.742310	0.000000
735.780212	0.000000
735.818115	0.000000
735.856018	0.000000
735.893860	0.000000
735.931763	0.000000
735.969604	0.000000
736.007507	0.000000
736.045410	0.000000
736.083252	0.000000
736.121094	0.000000
736.158997	0.000000
736.196838	0.000000
736.234741	0.000000
736.272644	0.000000
736.310486	0.000000
736.348389	0.000000
736.386230	0.000000
736.424072	0.000000
736.461975	0.000000
736.499878	0.000000
736.537720	0.000000
736.575562	0.000000
736.613403	0.000000
736.651306	0.000000
736.689148	0.000000
736.726990	0.000000
736.764893	0.000000
736.802734	0.000000
736.840576	0.000000
736.878418	0.000000
736.916321	0.000000
736.954102	0.000000
736.992004	0.000000
737.029846	0.000000
737.067688	0.000000
737.105530	0.000000
737.143372	0.000000
737.181213	0.000000
737.219116	0.000000
737.256897	0.000000
737.294739	0.000000
737.332642	0.000000
737.370422	0.000000
737.408325	0.000000
737.446167	0.000000
737.483948	0.000000
737.521790	0.000000
737.559692	0.000000
737.597473	0.000000
737.635315	0.000000
737.673157	0.000000
737.710999	0.000000
737.748840	0.000000
737.786621	0.000000
737.824463	0.000000
737.862305	0.000000
737.900085	0.000000
737.937927	0.000000
737.975769	0.000000
738.013550	0.000000
738.051392	0.000000
738.089233	0.000000
738.127014	0.000000
738.164856	0.000000
738.202698	0.000000
738.240479	0.000000
738.278320	0.000000
738.316162	0.000000
738.353943	0.000000
738.391785	0.000000
738.429565	0.000000
738.467407	0.000000
738.505188	0.000000
738.542969	0.000000
738.580811	0.000000
738.618652	0.000000
738.656372	0.000000
738.694214	0.000000
738.732056	0.000000
738.769836	0.000000
738.807617	0.000000
738.845459	0.000000
738.883240	0.000000
738.921021	0.000000
738.958862	0.000000
738.996582	0.000000
739.034424	0.000000
739.072205	0.000000
739.109985	0.000000
739.147827	0.000000
739.185547	0.000000
739.223389	0.000000
739.261169	0.000000
739.298889	0.000000
739.336731	0.000000
739.374512	0.000000
739.412292	0.000000
739.450073	0.000000
739.487854	0.000000
739.525635	0.000000
739.563416	0.000000
739.601135	0.000000
739.638977	0.000000
739.676758	0.000000
739.714478	0.000000
739.752258	0.000000
739.790100	0.000000
739.827820	0.000000
739.865601	0.000000
739.903381	0.000000
739.941101	0.000000
739.978882	184.500000
740.016724	182.700000
740.054443	184.300000
740.092224	179.800000
740.130005	180.600000
740.167725	179.600000
740.205505	178.700000
740.243225	186.100000
740.281006	182.700000
740.318787	178.300000
740.356506	186.900000
740.394287	184.100000
740.432068	179.700000
740.469727	177.600000
740.507507	184.000000
740.545288	182.300000
740.583008	183.300000
740.620789	182.200000
740.658569	175.900000
740.696228	181.700000
740.734009	184.200000
740.771790	174.700000
740.809509	184.900000
740.847229	177.200000
740.884949	179.600000
740.922729	177.400000
740.960449	179.500000
740.998169	177.700000
741.035950	177.500000
741.073669	181.300000
741.111389	181.700000
741.149170	187.500000
741.186890	189.100000
741.224609	185.000000
741.262329	183.000000
741.300110	189.000000
741.337769	179.900000
741.375549	177.700000
741.413208	182.400000
741.450989	180.000000
741.488708	179.600000
741.526367	180.000000
741.564148	184.800000
741.601868	184.300000
741.639526	180.700000
741.677307	183.200000
741.715027	184.600000
741.752686	180.200000
741.790466	185.000000
741.828186	184.100000
741.865845	180.400000
741.903564	178.200000
741.941345	182.600000
741.979004	178.500000
742.016724	185.800000
742.054382	182.100000
742.092102	185.800000
742.129822	178.500000
742.167480	181.000000
742.205200	181.000000
742.242920	183.700000
742.280640	185.200000
742.318359	180.000000
742.356079	180.400000
742.393738	184.800000
742.431396	180.400000
742.469116	186.400000
742.506775	175.500000
742.544495	183.100000
742.582214	184.600000
742.619873	181.600000
742.657593	186.300000
742.695251	185.800000
742.732971	181.200000
742.770630	183.300000
742.808289	182.600000
742.846008	182.900000
742.883728	181.700000
742.921326	182.200000
742.959045	179.800000
742.996765	181.000000
743.034424	181.900000
743.072083	180.100000
743.109802	181.100000
743.147400	179.100000
743.185120	181.100000
743.222839	182.500000
743.260437	187.100000
743.298157	183.100000
743.335754	175.400000
743.373474	181.600000
743.411133	177.900000
743.448792	182.300000
743.486450	182.200000
743.524170	178.100000
743.561768	180.700000
743.599487	188.100000
743.637146	188.000000
743.674744	181.500000
743.712463	180.000000
743.750122	182.500000
743.787720	183.900000
743.825439	180.300000
743.863037	181.200000
743.900696	182.100000
743.938416	206.100000
743.976013	181.500000
744.013672	188.600000
744.051331	184.700000
744.088928	189.000000
744.126587	184.800000
744.164307	183.500000
744.201904	179.100000
744.239563	183.800000
744.277222	182.900000
744.314819	181.700000
744.352478	186.200000
744.390137	183.300000
744.427734	183.800000
744.465393	181.800000
744.502991	177.700000
744.540649	184.600000
744.578308	181.200000
744.615906	179.100000
744.653564	174.300000
744.691223	183.900000
744.728821	177.100000
744.766418	182.200000
744.804077	182.500000
744.841675	180.300000
744.879333	177.900000
744.916992	180.700000
744.954529	181.400000
744.992187	185.100000
745.029785	181.100000
745.067444	180.300000
745.105042	182.100000
745.142639	184.300000
745.180298	189.100000
745.217896	180.400000
745.255493	180.000000
745.293152	185.000000
745.330750	186.800000
745.368347	186.300000
745.405945	185.400000
745.443604	182.400000
745.481140	183.400000
745.518799	181.800000
745.556396	186.800000
745.593994	184.300000
745.631592	183.300000
745.669189	179.200000
745.706787	182.700000
745.744385	178.500000
745.781982	185.400000
745.819580	180.300000
745.857178	180.900000
745.894775	181.200000
745.932373	184.000000
745.969971	183.500000
746.007568	176.400000
746.045166	188.200000
746.082764	187.300000
746.120300	183.200000
746.157898	183.800000
746.195557	180.200000
746.233093	177.800000
746.270691	181.900000
746.308228	183.400000
746.345825	184.700000
746.383423	184.900000
746.420959	178.100000
746.458557	179.400000
746.496155	178.300000
746.533691	182.200000
746.571289	177.600000
746.608887	181.300000
746.646423	181.800000
746.684021	182.500000
746.721619	179.200000
746.759155	183.900000
746.796753	177.400000
746.834351	178.300000
746.871826	179.500000
746.909424	186.200000
746.946960	181.400000
746.984558	182.000000
747.022156	179.800000
747.059631	188.600000
747.097229	184.200000
747.134827	181.500000
747.172363	185.200000
747.209900	185.900000
747.247498	178.900000
747.285034	187.100000
747.322571	186.300000
747.360168	181.900000
747.397644	177.500000
747.435242	184.700000
747.472778	186.600000
747.510315	182.400000
747.547913	181.100000
747.585388	185.300000
747.622925	182.200000
747.660522	177.300000
747.697998	181.100000
747.735596	180.500000
747.773132	180.700000
747.810669	180.900000
747.848206	183.100000
747.885742	178.000000
747.923279	178.400000
747.960815	182.200000
747.998352	183.100000
748.035889	184.000000
748.073425	184.400000
748.110901	180.000000
748.148437	178.300000
748.185974	181.400000
748.223511	188.400000
748.261047	183.900000
748.298584	182.700000
748.336060	181.300000
748.373596	183.400000
748.411133	208.600000
748.448608	179.200000
748.486145	184.200000
748.523682	185.600000
748.561218	186.900000
748.598755	183.600000
748.636292	184.100000
748.673706	181.500000
748.711243	188.300000
748.748718	183.800000
748.786255	182.900000
748.823792	183.800000
748.861267	179.100000
748.898804	184.600000
748.936340	184.400000
748.973816	180.600000
749.011292	187.800000
749.048828	183.200000
749.086304	182.400000
749.123840	190.200000
749.161316	180.900000
749.198792	188.900000
749.236328	186.600000
749.273743	181.400000
749.311279	182.200000
749.348816	185.600000
749.386230	184.200000
749.423767	174.400000
749.461304	185.900000
749.498718	181.800000
749.536255	186.400000
749.573730	189.300000
749.611206	187.200000
749.648682	181.900000
749.686218	183.200000
749.723633	183.200000
749.761169	180.900000
749.798645	179.000000
749.836060	181.500000
749.873596	178.700000
749.911011	183.900000
749.948547	185.500000
749.986023	181.400000
750.023437	180.400000
750.060913	177.300000
750.098450	177.500000
750.135864	181.600000
750.173340	182.700000
750.210815	186.900000
750.248291	179.500000
750.285767	182.400000
750.323242	185.400000
750.360657	183.800000
750.398132	179.600000
750.435608	184.900000
750.473022	178.500000
750.510498	179.900000
750.547974	179.500000
750.585449	181.600000
750.622925	177.100000
750.660339	191.400000
750.697815	182.000000
750.735291	182.500000
750.772644	182.300000
750.810120	184.900000
750.847595	184.300000
750.885010	179.700000
750.922485	187.400000
750.959961	181.000000
750.997375	187.200000
751.034851	186.200000
751.072266	186.500000
751.109680	177.700000
751.147156	186.800000
751.184570	183.000000
751.221985	183.300000
751.259460	177.000000
751.296875	182.400000
751.334290	180.300000
751.371765	187.400000
751.409180	184.600000
751.446594	185.900000
751.484070	181.900000
751.521423	182.200000
751.558899	182.400000
751.596375	189.200000
751.633728	186.100000
751.671204	190.200000
751.708618	178.400000
751.746033	183.200000
751.783447	177.500000
751.820801	180.100000
751.858276	184.600000
751.895691	181.800000
751.933105	180.700000
751.970520	180.500000
752.007935	179.600000
752.045349	185.000000
752.082764	181.700000
752.120178	181.700000
752.157532	180.700000
752.195007	182.200000
752.232422	183.300000
752.269775	184.800000
752.307190	185.000000
752.344543	179.100000
752.382019	182.800000
752.419434	181.200000
752.456787	184.300000
752.494202	187.100000
752.531616	183.100000
752.568970	185.000000
752.606384	184.600000
752.643799	184.200000
752.681152	188.800000
752.718567	185.200000
752.755981	177.300000
752.793335	184.400000
752.830750	176.600000
752.868164	185.100000
752.905518	180.200000
752.942932	186.900000
752.980225	178.800000
753.017639	183.000000
753.055054	186.600000
753.092407	182.300000
753.129822	186.700000
753.167175	189.500000
753.204529	183.200000
753.241943	178.900000
753.279358	179.300000
753.316650	183.700000
753.354065	183.900000
753.391479	185.300000
753.428772	188.000000
753.466187	183.200000
753.503479	179.900000
753.540894	180.100000
753.578308	179.300000
753.615601	179.200000
753.653015	182.400000
753.690369	181.300000
753.727722	179.300000
753.765076	177.300000
753.802490	180.100000
753.839783	176.900000
753.877136	181.000000
753.914551	191.500000
753.951843	179.700000
753.989258	185.300000
754.026611	183.400000
754.063904	182.500000
754.101257	179.100000
754.138611	176.800000
754.175964	182.800000
754.213318	189.500000
754.250610	177.600000
754.288025	180.500000
754.325378	178.400000
754.362671	186.800000
754.400024	182.400000
754.437378	189.800000
754.474670	188.200000
754.512085	180.200000
754.549438	183.300000
754.586731	180.500000
754.624084	183.000000
754.661438	179.700000
754.698730	187.900000
754.736084	182.200000
754.773376	179.700000
754.810730	185.400000
754.848083	181.500000
754.885315	185.900000
754.922668	178.100000
754.960022	179.200000
754.997314	185.900000
755.034668	182.700000
755.072021	181.600000
755.109253	181.200000
755.146606	186.700000
755.183960	182.600000
755.221252	187.100000
755.258545	186.900000
755.295898	186.200000
755.333191	186.500000
755.370544	184.400000
755.407776	183.200000
755.445129	183.800000
755.482422	188.200000
755.519714	181.100000
755.557068	179.100000
755.594360	177.900000
755.631653	186.300000
755.668945	188.300000
755.706299	185.600000
755.743530	192.200000
755.780884	188.700000
755.818176	187.500000
755.855408	187.400000
755.892761	186.400000
755.930054	183.800000
755.967346	185.500000
756.004639	186.300000
756.041870	184.800000
756.079224	188.500000
756.116516	181.900000
756.153748	187.100000
756.191040	191.900000
756.228394	186.500000
756.265625	182.500000
756.302917	185.300000
756.340210	183.900000
756.377441	188.100000
756.414795	188.700000
756.452087	185.400000
756.489319	181.700000
756.526611	187.400000
756.563843	184.700000
756.601135	191.500000
756.638428	191.900000
756.675659	184.000000
756.712952	187.100000
756.750244	187.000000
756.787476	187.400000
756.824768	189.200000
756.862061	184.700000
756.899292	230.400000
756.936584	187.600000
756.973816	192.300000
757.011047	193.500000
757.048340	185.800000
757.085632	185.800000
757.122864	199.000000
757.160156	184.000000
757.197327	186.000000
757.234619	190.700000
757.271912	184.500000
757.309082	189.000000
757.346375	184.700000
757.383667	191.900000
757.420837	188.000000
757.458130	189.100000
757.495422	185.400000
757.532593	189.700000
757.569885	184.200000
757.607117	185.500000
757.644348	188.700000
757.681580	197.700000
757.718811	179.200000
757.756042	186.800000
757.793335	185.700000
757.830505	190.300000
757.867798	186.500000
757.905029	185.000000
757.942200	188.500000
757.979492	186.800000
758.016724	188.200000
758.053894	187.600000
758.091187	201.500000
758.128418	188.400000
758.165588	187.400000
758.202820	196.600000
758.240112	189.800000
758.277283	194.400000
758.314514	190.700000
758.351685	186.200000
758.388916	195.300000
758.426147	194.200000
758.463379	195.200000
758.500610	190.700000
758.537842	190.400000
758.575012	193.500000
758.612244	188.600000
758.649475	198.300000
758.686646	186.800000
758.723877	194.200000
758.761108	195.800000
758.798279	189.900000
758.835510	193.200000
758.872742	196.200000
758.909851	193.400000
758.947083	193.400000
758.984253	193.700000
759.021484	195.000000
759.058716	193.700000
759.095886	194.100000
759.133057	193.000000
759.170288	192.900000
759.207458	190.600000
759.244690	200.100000
759.281860	199.100000
759.319031	194.300000
759.356262	192.200000
759.393433	191.300000
759.430603	192.600000
759.467773	193.500000
759.505005	197.000000
759.542175	198.600000
759.579346	194.200000
759.616516	194.800000
759.653687	197.100000
759.690918	193.400000
759.728027	194.400000
759.765259	196.100000
759.802429	197.000000
759.839539	196.000000
759.876770	200.300000
759.913940	202.700000
759.951111	196.600000
759.988281	195.400000
760.025452	193.700000
760.062561	194.000000
760.099792	203.200000
760.136963	198.800000
760.174072	194.500000
760.211243	194.000000
760.248413	192.000000
760.285583	193.000000
760.322754	203.000000
760.359863	200.300000
760.397034	201.100000
760.434204	196.100000
760.471375	196.500000
760.508545	196.800000
760.545715	196.900000
760.582825	193.800000
760.619995	199.600000
760.657166	193.900000
760.694275	202.500000
760.731445	199.500000
760.768555	201.200000
760.805664	201.800000
760.842834	199.000000
760.879944	202.100000
760.917114	199.700000
760.954285	197.600000
760.991394	194.800000
761.028564	204.100000
761.065674	201.300000
761.102783	196.800000
761.139954	203.100000
761.177124	201.900000
761.214172	204.000000
761.251343	200.300000
761.288452	199.400000
761.325562	203.900000
761.362732	200.300000
761.399841	200.200000
761.436951	202.500000
761.474121	199.400000
761.511169	200.400000
761.548340	203.900000
761.585449	204.200000
761.622559	204.300000
761.659668	203.100000
761.696838	205.400000
761.733887	203.900000
761.771057	200.800000
761.808167	202.300000
761.845276	205.600000
761.882385	212.400000
761.919434	203.700000
761.956604	216.000000
761.993713	201.100000
762.030762	209.600000
762.067871	203.400000
762.105042	202.700000
762.142090	209.500000
762.179199	206.000000
762.216309	208.100000
762.253418	215.500000
762.290527	211.600000
762.327637	209.100000
762.364685	202.900000
762.401794	210.100000
762.438904	207.400000
762.475952	205.100000
762.513062	203.100000
762.550110	204.400000
762.587219	214.300000
762.624329	213.800000
762.661377	208.900000
762.698486	208.900000
762.735596	209.800000
762.772644	205.500000
762.809753	203.200000
762.846863	209.200000
762.883911	213.300000
762.921021	211.900000
762.958069	209.400000
762.995117	216.400000
763.032227	215.000000
763.069336	208.300000
763.106323	208.200000
763.143433	206.600000
763.180481	212.600000
763.217590	212.700000
763.254639	210.700000
763.291687	210.300000
763.328735	219.300000
763.365845	212.300000
763.402893	211.700000
763.439941	212.000000
763.477051	215.200000
763.514038	214.200000
763.551147	213.300000
763.588196	212.800000
763.625244	213.400000
763.662292	219.400000
763.699402	221.200000
763.736389	216.600000
763.773499	224.600000
763.810486	217.200000
763.847534	217.600000
763.884644	217.800000
763.921631	216.200000
763.958679	223.400000
763.995728	218.500000
764.032776	222.400000
764.069824	215.900000
764.106873	220.500000
764.143860	226.200000
764.180969	218.100000
764.218018	225.400000
764.255005	219.000000
764.292053	221.400000
764.329102	227.700000
764.366089	228.400000
764.403137	225.500000
764.440125	221.800000
764.477173	223.400000
764.514221	226.700000
764.551208	224.700000
764.588257	222.000000
764.625305	226.900000
764.662292	234.200000
764.699341	234.800000
764.736389	228.800000
764.773376	239.800000
764.810425	230.200000
764.847473	234.400000
764.884399	232.200000
764.921448	237.400000
764.958435	234.200000
764.995483	231.700000
765.032532	240.000000
765.069458	231.100000
765.106506	233.300000
765.143555	232.200000
765.180481	232.900000
765.217529	241.100000
765.254578	229.900000
765.291504	237.800000
765.328552	235.900000
765.365540	233.400000
765.402527	243.300000
765.439575	234.500000
765.476501	229.100000
765.513550	231.200000
765.550537	235.600000
765.587463	242.000000
765.624512	235.200000
765.661499	231.700000
765.698486	241.000000
765.735474	237.800000
765.772461	236.400000
765.809448	241.900000
765.846436	239.000000
765.883423	244.000000
765.920410	239.800000
765.957397	238.100000
765.994385	241.000000
766.031311	245.900000
766.068359	240.900000
766.105286	245.100000
766.142273	250.100000
766.179260	244.300000
766.216187	243.800000
766.253174	239.900000
766.290161	245.300000
766.327148	247.700000
766.364136	246.500000
766.401123	258.600000
766.438049	244.400000
766.475037	252.100000
766.512024	250.100000
766.548950	261.600000
766.585937	256.700000
766.622864	253.600000
766.659790	254.400000
766.696777	245.600000
766.733704	258.200000
766.770691	250.400000
766.807678	259.000000
766.844604	256.100000
766.881531	255.600000
766.918518	257.900000
766.955444	260.500000
766.992432	255.000000
767.029358	259.300000
767.066284	259.400000
767.103271	259.900000
767.140198	288.800000
767.177124	269.700000
767.214050	261.600000
767.251038	262.100000
767.287964	258.800000
767.324890	258.500000
767.361816	260.900000
767.398743	264.400000
767.435730	260.200000
767.472595	265.400000
767.509583	266.100000
767.546509	261.800000
767.583374	264.400000
767.620361	258.700000
767.657288	263.300000
767.694214	263.500000
767.731140	260.700000
767.768066	262.800000
767.804993	265.200000
767.841919	261.900000
767.878845	266.600000
767.915710	271.700000
767.952698	266.100000
767.989563	268.500000
768.026489	268.400000
