Model Number: SPM-001-M   
Serial Number: 10090201
Firmware Version: 004.17.6
Exposure Time: 300000.000000us
Data Taken on: 28-01-2021 10:46:11.872
Wavelength	Amplitude
733.770752	0.000000
733.808716	0.000000
733.846619	0.000000
733.884583	0.000000
733.922546	0.000000
733.960449	0.000000
733.998413	0.000000
734.036377	0.000000
734.074219	0.000000
734.112183	0.000000
734.150085	0.000000
734.188049	0.000000
734.226013	0.000000
734.263916	0.000000
734.301819	0.000000
734.339783	0.000000
734.377686	0.000000
734.415588	0.000000
734.453552	0.000000
734.491455	0.000000
734.529419	0.000000
734.567322	0.000000
734.605225	0.000000
734.643127	0.000000
734.681091	0.000000
734.718994	0.000000
734.756897	0.000000
734.794800	0.000000
734.832703	0.000000
734.870667	0.000000
734.908508	0.000000
734.946472	0.000000
734.984375	0.000000
735.022278	0.000000
735.060181	0.000000
735.098083	0.000000
735.135986	0.000000
735.173889	0.000000
735.211792	0.000000
735.249695	0.000000
735.287598	0.000000
735.325439	0.000000
735.363403	0.000000
735.401306	0.000000
735.439148	0.000000
735.477051	0.000000
735.515015	0.000000
735.552856	0.000000
735.590759	0.000000
735.628662	0.000000
735.666504	0.000000
735.704407	0.000000
735.742310	0.000000
735.780212	0.000000
735.818115	0.000000
735.856018	0.000000
735.893860	0.000000
735.931763	0.000000
735.969604	0.000000
736.007507	0.000000
736.045410	0.000000
736.083252	0.000000
736.121094	0.000000
736.158997	0.000000
736.196838	0.000000
736.234741	0.000000
736.272644	0.000000
736.310486	0.000000
736.348389	0.000000
736.386230	0.000000
736.424072	0.000000
736.461975	0.000000
736.499878	0.000000
736.537720	0.000000
736.575562	0.000000
736.613403	0.000000
736.651306	0.000000
736.689148	0.000000
736.726990	0.000000
736.764893	0.000000
736.802734	0.000000
736.840576	0.000000
736.878418	0.000000
736.916321	0.000000
736.954102	0.000000
736.992004	0.000000
737.029846	0.000000
737.067688	0.000000
737.105530	0.000000
737.143372	0.000000
737.181213	0.000000
737.219116	0.000000
737.256897	0.000000
737.294739	0.000000
737.332642	0.000000
737.370422	0.000000
737.408325	0.000000
737.446167	0.000000
737.483948	0.000000
737.521790	0.000000
737.559692	0.000000
737.597473	0.000000
737.635315	0.000000
737.673157	0.000000
737.710999	0.000000
737.748840	0.000000
737.786621	0.000000
737.824463	0.000000
737.862305	0.000000
737.900085	0.000000
737.937927	0.000000
737.975769	0.000000
738.013550	0.000000
738.051392	0.000000
738.089233	0.000000
738.127014	0.000000
738.164856	0.000000
738.202698	0.000000
738.240479	0.000000
738.278320	0.000000
738.316162	0.000000
738.353943	0.000000
738.391785	0.000000
738.429565	0.000000
738.467407	0.000000
738.505188	0.000000
738.542969	0.000000
738.580811	0.000000
738.618652	0.000000
738.656372	0.000000
738.694214	0.000000
738.732056	0.000000
738.769836	0.000000
738.807617	0.000000
738.845459	0.000000
738.883240	0.000000
738.921021	0.000000
738.958862	0.000000
738.996582	0.000000
739.034424	0.000000
739.072205	0.000000
739.109985	0.000000
739.147827	0.000000
739.185547	0.000000
739.223389	0.000000
739.261169	0.000000
739.298889	0.000000
739.336731	0.000000
739.374512	0.000000
739.412292	0.000000
739.450073	0.000000
739.487854	0.000000
739.525635	0.000000
739.563416	0.000000
739.601135	0.000000
739.638977	0.000000
739.676758	0.000000
739.714478	0.000000
739.752258	0.000000
739.790100	0.000000
739.827820	0.000000
739.865601	0.000000
739.903381	0.000000
739.941101	0.000000
739.978882	183.100000
740.016724	178.900000
740.054443	183.400000
740.092224	179.000000
740.130005	178.300000
740.167725	178.500000
740.205505	180.200000
740.243225	185.500000
740.281006	181.900000
740.318787	176.800000
740.356506	185.700000
740.394287	184.000000
740.432068	179.800000
740.469727	176.500000
740.507507	182.900000
740.545288	181.600000
740.583008	182.300000
740.620789	179.900000
740.658569	176.200000
740.696228	180.900000
740.734009	183.700000
740.771790	172.500000
740.809509	183.900000
740.847229	177.000000
740.884949	180.300000
740.922729	176.600000
740.960449	180.300000
740.998169	178.300000
741.035950	178.500000
741.073669	181.200000
741.111389	182.900000
741.149170	188.200000
741.186890	188.500000
741.224609	183.700000
741.262329	181.100000
741.300110	187.100000
741.337769	178.800000
741.375549	177.200000
741.413208	182.000000
741.450989	178.100000
741.488708	179.500000
741.526367	179.700000
741.564148	183.700000
741.601868	183.800000
741.639526	179.900000
741.677307	182.300000
741.715027	183.800000
741.752686	178.500000
741.790466	187.200000
741.828186	182.200000
741.865845	177.400000
741.903564	176.600000
741.941345	180.500000
741.979004	177.100000
742.016724	184.700000
742.054382	181.400000
742.092102	183.100000
742.129822	177.200000
742.167480	178.800000
742.205200	180.900000
742.242920	182.400000
742.280640	185.300000
742.318359	177.900000
742.356079	182.500000
742.393738	182.600000
742.431396	180.300000
742.469116	184.900000
742.506775	175.100000
742.544495	182.000000
742.582214	184.800000
742.619873	180.900000
742.657593	186.000000
742.695251	185.000000
742.732971	180.400000
742.770630	181.700000
742.808289	181.900000
742.846008	180.700000
742.883728	181.700000
742.921326	183.100000
742.959045	180.000000
742.996765	179.600000
743.034424	181.400000
743.072083	179.400000
743.109802	181.100000
743.147400	177.300000
743.185120	181.300000
743.222839	181.600000
743.260437	186.600000
743.298157	184.000000
743.335754	175.500000
743.373474	180.200000
743.411133	176.000000
743.448792	180.500000
743.486450	180.800000
743.524170	176.500000
743.561768	180.300000
743.599487	185.500000
743.637146	188.800000
743.674744	180.400000
743.712463	180.400000
743.750122	180.900000
743.787720	181.900000
743.825439	179.300000
743.863037	179.700000
743.900696	181.300000
743.938416	205.100000
743.976013	180.800000
744.013672	186.500000
744.051331	182.700000
744.088928	186.800000
744.126587	183.200000
744.164307	182.900000
744.201904	179.200000
744.239563	183.000000
744.277222	183.900000
744.314819	181.200000
744.352478	185.800000
744.390137	182.400000
744.427734	183.100000
744.465393	179.200000
744.502991	179.300000
744.540649	183.500000
744.578308	182.700000
744.615906	177.100000
744.653564	174.000000
744.691223	182.800000
744.728821	177.000000
744.766418	181.400000
744.804077	182.700000
744.841675	179.400000
744.879333	177.400000
744.916992	180.200000
744.954529	179.900000
744.992187	183.100000
745.029785	180.000000
745.067444	178.600000
745.105042	181.300000
745.142639	183.500000
745.180298	189.400000
745.217896	179.900000
745.255493	179.400000
745.293152	183.400000
745.330750	184.800000
745.368347	186.500000
745.405945	184.500000
745.443604	181.300000
745.481140	183.300000
745.518799	180.100000
745.556396	183.200000
745.593994	182.300000
745.631592	182.800000
745.669189	178.000000
745.706787	181.700000
745.744385	178.700000
745.781982	183.100000
745.819580	180.300000
745.857178	181.100000
745.894775	180.000000
745.932373	181.500000
745.969971	182.500000
746.007568	175.900000
746.045166	187.100000
746.082764	186.000000
746.120300	183.400000
746.157898	183.900000
746.195557	182.600000
746.233093	178.600000
746.270691	184.100000
746.308228	183.800000
746.345825	185.600000
746.383423	184.100000
746.420959	180.300000
746.458557	179.600000
746.496155	180.700000
746.533691	182.200000
746.571289	178.900000
746.608887	181.000000
746.646423	181.900000
746.684021	181.900000
746.721619	179.100000
746.759155	184.300000
746.796753	177.800000
746.834351	177.000000
746.871826	179.100000
746.909424	184.600000
746.946960	179.900000
746.984558	180.100000
747.022156	179.100000
747.059631	187.200000
747.097229	183.300000
747.134827	181.000000
747.172363	184.200000
747.209900	185.500000
747.247498	178.200000
747.285034	184.800000
747.322571	185.700000
747.360168	180.500000
747.397644	176.000000
747.435242	184.200000
747.472778	184.400000
747.510315	180.200000
747.547913	180.100000
747.585388	185.900000
747.622925	178.700000
747.660522	177.600000
747.697998	179.200000
747.735596	180.700000
747.773132	180.100000
747.810669	182.300000
747.848206	182.700000
747.885742	178.700000
747.923279	178.800000
747.960815	182.400000
747.998352	181.200000
748.035889	184.900000
748.073425	183.300000
748.110901	179.600000
748.148437	178.700000
748.185974	181.000000
748.223511	186.900000
748.261047	184.700000
748.298584	181.500000
748.336060	182.800000
748.373596	181.800000
748.411133	207.600000
748.448608	179.000000
748.486145	183.300000
748.523682	185.800000
748.561218	187.500000
748.598755	182.300000
748.636292	183.400000
748.673706	180.100000
748.711243	187.100000
748.748718	181.300000
748.786255	182.600000
748.823792	181.900000
748.861267	177.900000
748.898804	183.500000
748.936340	182.600000
748.973816	178.500000
749.011292	185.400000
749.048828	182.900000
749.086304	182.800000
749.123840	189.100000
749.161316	178.100000
749.198792	188.500000
749.236328	187.100000
749.273743	181.300000
749.311279	180.500000
749.348816	184.000000
749.386230	181.400000
749.423767	174.200000
749.461304	184.200000
749.498718	181.800000
749.536255	185.100000
749.573730	189.900000
749.611206	185.500000
749.648682	180.700000
749.686218	182.300000
749.723633	183.700000
749.761169	180.200000
749.798645	180.800000
749.836060	180.300000
749.873596	179.800000
749.911011	183.700000
749.948547	186.600000
749.986023	179.400000
750.023437	182.700000
750.060913	178.500000
750.098450	177.800000
750.135864	180.900000
750.173340	181.600000
750.210815	185.700000
750.248291	178.200000
750.285767	181.100000
750.323242	185.000000
750.360657	182.200000
750.398132	178.700000
750.435608	183.200000
750.473022	178.600000
750.510498	177.500000
750.547974	178.600000
750.585449	179.800000
750.622925	174.800000
750.660339	190.100000
750.697815	181.900000
750.735291	182.300000
750.772644	180.900000
750.810120	183.900000
750.847595	183.800000
750.885010	177.600000
750.922485	187.700000
750.959961	181.600000
750.997375	186.800000
751.034851	184.300000
751.072266	183.900000
751.109680	176.700000
751.147156	186.000000
751.184570	184.600000
751.221985	182.000000
751.259460	176.400000
751.296875	181.800000
751.334290	181.400000
751.371765	185.700000
751.409180	185.300000
751.446594	184.600000
751.484070	183.300000
751.521423	183.300000
751.558899	182.100000
751.596375	189.100000
751.633728	186.300000
751.671204	189.400000
751.708618	180.200000
751.746033	183.200000
751.783447	178.500000
751.820801	179.400000
751.858276	185.000000
751.895691	181.100000
751.933105	180.300000
751.970520	179.600000
752.007935	181.300000
752.045349	185.100000
752.082764	183.000000
752.120178	180.700000
752.157532	180.500000
752.195007	179.100000
752.232422	183.400000
752.269775	185.600000
752.307190	184.400000
752.344543	178.200000
752.382019	181.100000
752.419434	180.900000
752.456787	183.100000
752.494202	185.600000
752.531616	182.300000
752.568970	183.100000
752.606384	182.200000
752.643799	183.500000
752.681152	186.100000
752.718567	183.500000
752.755981	177.600000
752.793335	183.800000
752.830750	177.100000
752.868164	186.200000
752.905518	179.100000
752.942932	185.100000
752.980225	178.800000
753.017639	184.100000
753.055054	183.700000
753.092407	183.200000
753.129822	184.200000
753.167175	188.300000
753.204529	182.100000
753.241943	179.100000
753.279358	177.100000
753.316650	184.500000
753.354065	183.400000
753.391479	186.000000
753.428772	186.300000
753.466187	183.100000
753.503479	179.000000
753.540894	182.400000
753.578308	178.200000
753.615601	177.600000
753.653015	181.000000
753.690369	181.400000
753.727722	178.700000
753.765076	178.100000
753.802490	178.400000
753.839783	177.600000
753.877136	179.900000
753.914551	191.600000
753.951843	179.000000
753.989258	184.800000
754.026611	183.200000
754.063904	185.100000
754.101257	179.000000
754.138611	176.800000
754.175964	182.600000
754.213318	188.600000
754.250610	176.100000
754.288025	179.900000
754.325378	177.400000
754.362671	183.600000
754.400024	181.300000
754.437378	188.300000
754.474670	186.500000
754.512085	179.200000
754.549438	182.100000
754.586731	179.300000
754.624084	180.600000
754.661438	177.700000
754.698730	188.100000
754.736084	180.900000
754.773376	181.500000
754.810730	182.800000
754.848083	181.700000
754.885315	185.600000
754.922668	177.900000
754.960022	178.400000
754.997314	186.400000
755.034668	182.200000
755.072021	184.100000
755.109253	180.500000
755.146606	188.200000
755.183960	182.300000
755.221252	189.000000
755.258545	185.300000
755.295898	187.500000
755.333191	188.100000
755.370544	184.600000
755.407776	183.200000
755.445129	184.700000
755.482422	185.300000
755.519714	182.100000
755.557068	178.700000
755.594360	177.100000
755.631653	185.200000
755.668945	187.400000
755.706299	183.000000
755.743530	192.200000
755.780884	188.600000
755.818176	186.800000
755.855408	186.700000
755.892761	184.900000
755.930054	182.600000
755.967346	185.500000
756.004639	185.800000
756.041870	184.100000
756.079224	186.300000
756.116516	181.300000
756.153748	186.700000
756.191040	190.300000
756.228394	186.500000
756.265625	181.400000
756.302917	185.100000
756.340210	181.900000
756.377441	189.300000
756.414795	189.500000
756.452087	184.500000
756.489319	180.100000
756.526611	187.700000
756.563843	184.700000
756.601135	191.100000
756.638428	192.600000
756.675659	183.900000
756.712952	187.000000
756.750244	189.200000
756.787476	185.000000
756.824768	190.000000
756.862061	183.000000
756.899292	230.500000
756.936584	186.900000
756.973816	192.500000
757.011047	193.200000
757.048340	185.200000
757.085632	186.200000
757.122864	198.100000
757.160156	184.200000
757.197327	187.200000
757.234619	188.700000
757.271912	185.600000
757.309082	188.700000
757.346375	185.000000
757.383667	191.600000
757.420837	188.100000
757.458130	187.200000
757.495422	185.100000
757.532593	189.300000
757.569885	182.500000
757.607117	184.800000
757.644348	188.400000
757.681580	196.400000
757.718811	180.200000
757.756042	186.800000
757.793335	185.000000
757.830505	189.100000
757.867798	185.400000
757.905029	185.200000
757.942200	186.900000
757.979492	187.100000
758.016724	187.200000
758.053894	186.600000
758.091187	199.800000
758.128418	188.200000
758.165588	187.000000
758.202820	195.000000
758.240112	188.100000
758.277283	196.700000
758.314514	189.500000
758.351685	187.300000
758.388916	193.600000
758.426147	193.300000
758.463379	194.200000
758.500610	190.800000
758.537842	190.200000
758.575012	194.800000
758.612244	187.400000
758.649475	198.600000
758.686646	185.900000
758.723877	195.200000
758.761108	196.400000
758.798279	190.700000
758.835510	190.900000
758.872742	195.300000
758.909851	192.100000
758.947083	194.100000
758.984253	192.200000
759.021484	194.700000
759.058716	192.500000
759.095886	196.100000
759.133057	191.100000
759.170288	193.900000
759.207458	190.700000
759.244690	198.700000
759.281860	197.900000
759.319031	193.300000
759.356262	191.300000
759.393433	190.500000
759.430603	191.400000
759.467773	191.300000
759.505005	197.200000
759.542175	198.000000
759.579346	192.200000
759.616516	193.300000
759.653687	196.900000
759.690918	191.000000
759.728027	194.700000
759.765259	195.800000
759.802429	196.600000
759.839539	195.000000
759.876770	198.500000
759.913940	202.200000
759.951111	195.500000
759.988281	195.000000
760.025452	194.200000
760.062561	191.700000
760.099792	202.800000
760.136963	198.400000
760.174072	194.200000
760.211243	192.400000
760.248413	192.500000
760.285583	193.100000
760.322754	204.400000
760.359863	201.000000
760.397034	202.100000
760.434204	196.000000
760.471375	195.200000
760.508545	195.100000
760.545715	194.900000
760.582825	192.900000
760.619995	199.800000
760.657166	193.300000
760.694275	202.200000
760.731445	197.700000
760.768555	199.500000
760.805664	200.500000
760.842834	199.100000
760.879944	200.500000
760.917114	197.500000
760.954285	197.000000
760.991394	194.100000
761.028564	202.600000
761.065674	199.400000
761.102783	195.900000
761.139954	202.600000
761.177124	201.200000
761.214172	203.600000
761.251343	199.100000
761.288452	199.300000
761.325562	203.500000
761.362732	197.200000
761.399841	199.200000
761.436951	201.800000
761.474121	198.400000
761.511169	199.700000
761.548340	205.000000
761.585449	203.300000
761.622559	203.500000
761.659668	203.900000
761.696838	206.400000
761.733887	203.400000
761.771057	201.900000
761.808167	200.300000
761.845276	206.100000
761.882385	211.500000
761.919434	204.500000
761.956604	214.500000
761.993713	201.500000
762.030762	207.400000
762.067871	205.100000
762.105042	203.100000
762.142090	210.200000
762.179199	204.900000
762.216309	209.600000
762.253418	215.100000
762.290527	211.800000
762.327637	209.000000
762.364685	203.300000
762.401794	208.800000
762.438904	208.400000
762.475952	203.600000
762.513062	204.000000
762.550110	204.000000
762.587219	213.900000
762.624329	212.500000
762.661377	209.500000
762.698486	209.300000
762.735596	208.000000
762.772644	203.400000
762.809753	202.800000
762.846863	208.500000
762.883911	212.200000
762.921021	211.500000
762.958069	209.700000
762.995117	212.900000
763.032227	215.500000
763.069336	209.300000
763.106323	206.300000
763.143433	204.900000
763.180481	211.500000
763.217590	212.200000
763.254639	211.200000
763.291687	211.000000
763.328735	216.200000
763.365845	211.400000
763.402893	209.100000
763.439941	213.600000
763.477051	214.100000
763.514038	215.900000
763.551147	211.800000
763.588196	215.000000
763.625244	212.300000
763.662292	219.800000
763.699402	220.300000
763.736389	216.600000
763.773499	223.600000
763.810486	218.500000
763.847534	216.100000
763.884644	217.900000
763.921631	215.700000
763.958679	224.500000
763.995728	215.900000
764.032776	219.900000
764.069824	213.800000
764.106873	222.500000
764.143860	225.800000
764.180969	220.000000
764.218018	224.200000
764.255005	220.300000
764.292053	219.700000
764.329102	227.800000
764.366089	226.800000
764.403137	226.200000
764.440125	221.400000
764.477173	223.900000
764.514221	225.400000
764.551208	223.600000
764.588257	221.400000
764.625305	228.000000
764.662292	233.100000
764.699341	231.900000
764.736389	228.000000
764.773376	238.800000
764.810425	230.200000
764.847473	234.000000
764.884399	231.000000
764.921448	237.400000
764.958435	236.400000
764.995483	229.500000
765.032532	241.000000
765.069458	231.200000
765.106506	232.400000
765.143555	230.800000
765.180481	236.000000
765.217529	241.300000
765.254578	230.800000
765.291504	236.300000
765.328552	235.500000
765.365540	231.100000
765.402527	243.400000
765.439575	233.800000
765.476501	231.500000
765.513550	230.400000
765.550537	237.100000
765.587463	242.400000
765.624512	235.200000
765.661499	231.200000
765.698486	240.800000
765.735474	234.600000
765.772461	238.800000
765.809448	242.100000
765.846436	242.700000
765.883423	244.500000
765.920410	240.500000
765.957397	238.100000
765.994385	242.300000
766.031311	246.800000
766.068359	242.800000
766.105286	241.900000
766.142273	248.900000
766.179260	244.900000
766.216187	240.300000
766.253174	238.300000
766.290161	245.000000
766.327148	247.700000
766.364136	247.100000
766.401123	255.600000
766.438049	243.000000
766.475037	252.600000
766.512024	249.600000
766.548950	260.600000
766.585937	253.500000
766.622864	250.600000
766.659790	252.300000
766.696777	246.000000
766.733704	255.300000
766.770691	250.100000
766.807678	258.700000
766.844604	254.000000
766.881531	255.500000
766.918518	259.200000
766.955444	259.800000
766.992432	255.500000
767.029358	258.000000
767.066284	259.700000
767.103271	258.400000
767.140198	289.200000
767.177124	269.200000
767.214050	261.600000
767.251038	261.800000
767.287964	260.900000
767.324890	258.000000
767.361816	262.800000
767.398743	264.400000
767.435730	261.600000
767.472595	263.100000
767.509583	267.800000
767.546509	259.100000
767.583374	263.800000
767.620361	257.300000
767.657288	262.000000
767.694214	262.200000
767.731140	262.200000
767.768066	262.900000
767.804993	264.900000
767.841919	260.300000
767.878845	266.600000
767.915710	270.100000
767.952698	265.000000
767.989563	266.600000
768.026489	267.800000
