Model Number: SPM-001-M   
Serial Number: 10090201
Firmware Version: 004.17.6
Exposure Time: 300000.000000us
Data Taken on: 28-01-2021 10:00:48.504
Wavelength	Amplitude
733.770752	0.000000
733.808716	0.000000
733.846619	0.000000
733.884583	0.000000
733.922546	0.000000
733.960449	0.000000
733.998413	0.000000
734.036377	0.000000
734.074219	0.000000
734.112183	0.000000
734.150085	0.000000
734.188049	0.000000
734.226013	0.000000
734.263916	0.000000
734.301819	0.000000
734.339783	0.000000
734.377686	0.000000
734.415588	0.000000
734.453552	0.000000
734.491455	0.000000
734.529419	0.000000
734.567322	0.000000
734.605225	0.000000
734.643127	0.000000
734.681091	0.000000
734.718994	0.000000
734.756897	0.000000
734.794800	0.000000
734.832703	0.000000
734.870667	0.000000
734.908508	0.000000
734.946472	0.000000
734.984375	0.000000
735.022278	0.000000
735.060181	0.000000
735.098083	0.000000
735.135986	0.000000
735.173889	0.000000
735.211792	0.000000
735.249695	0.000000
735.287598	0.000000
735.325439	0.000000
735.363403	0.000000
735.401306	0.000000
735.439148	0.000000
735.477051	0.000000
735.515015	0.000000
735.552856	0.000000
735.590759	0.000000
735.628662	0.000000
735.666504	0.000000
735.704407	0.000000
735.742310	0.000000
735.780212	0.000000
735.818115	0.000000
735.856018	0.000000
735.893860	0.000000
735.931763	0.000000
735.969604	0.000000
736.007507	0.000000
736.045410	0.000000
736.083252	0.000000
736.121094	0.000000
736.158997	0.000000
736.196838	0.000000
736.234741	0.000000
736.272644	0.000000
736.310486	0.000000
736.348389	0.000000
736.386230	0.000000
736.424072	0.000000
736.461975	0.000000
736.499878	0.000000
736.537720	0.000000
736.575562	0.000000
736.613403	0.000000
736.651306	0.000000
736.689148	0.000000
736.726990	0.000000
736.764893	0.000000
736.802734	0.000000
736.840576	0.000000
736.878418	0.000000
736.916321	0.000000
736.954102	0.000000
736.992004	0.000000
737.029846	0.000000
737.067688	0.000000
737.105530	0.000000
737.143372	0.000000
737.181213	0.000000
737.219116	0.000000
737.256897	0.000000
737.294739	0.000000
737.332642	0.000000
737.370422	0.000000
737.408325	0.000000
737.446167	0.000000
737.483948	0.000000
737.521790	0.000000
737.559692	0.000000
737.597473	0.000000
737.635315	0.000000
737.673157	0.000000
737.710999	0.000000
737.748840	0.000000
737.786621	0.000000
737.824463	0.000000
737.862305	0.000000
737.900085	0.000000
737.937927	0.000000
737.975769	0.000000
738.013550	0.000000
738.051392	0.000000
738.089233	0.000000
738.127014	0.000000
738.164856	0.000000
738.202698	0.000000
738.240479	0.000000
738.278320	0.000000
738.316162	0.000000
738.353943	0.000000
738.391785	0.000000
738.429565	0.000000
738.467407	0.000000
738.505188	0.000000
738.542969	0.000000
738.580811	0.000000
738.618652	0.000000
738.656372	0.000000
738.694214	0.000000
738.732056	0.000000
738.769836	0.000000
738.807617	0.000000
738.845459	0.000000
738.883240	0.000000
738.921021	0.000000
738.958862	0.000000
738.996582	0.000000
739.034424	0.000000
739.072205	0.000000
739.109985	0.000000
739.147827	0.000000
739.185547	0.000000
739.223389	0.000000
739.261169	0.000000
739.298889	0.000000
739.336731	0.000000
739.374512	0.000000
739.412292	0.000000
739.450073	0.000000
739.487854	0.000000
739.525635	0.000000
739.563416	0.000000
739.601135	0.000000
739.638977	0.000000
739.676758	0.000000
739.714478	0.000000
739.752258	0.000000
739.790100	0.000000
739.827820	0.000000
739.865601	0.000000
739.903381	0.000000
739.941101	0.000000
739.978882	182.900000
740.016724	178.400000
740.054443	183.700000
740.092224	178.700000
740.130005	177.700000
740.167725	178.000000
740.205505	177.600000
740.243225	184.600000
740.281006	181.300000
740.318787	175.100000
740.356506	184.900000
740.394287	183.900000
740.432068	178.600000
740.469727	175.600000
740.507507	183.300000
740.545288	179.600000
740.583008	182.100000
740.620789	179.600000
740.658569	175.600000
740.696228	178.800000
740.734009	183.900000
740.771790	173.400000
740.809509	181.800000
740.847229	176.100000
740.884949	178.400000
740.922729	176.100000
740.960449	179.400000
740.998169	176.500000
741.035950	177.400000
741.073669	179.400000
741.111389	180.700000
741.149170	187.500000
741.186890	186.500000
741.224609	182.400000
741.262329	181.300000
741.300110	186.800000
741.337769	176.800000
741.375549	177.100000
741.413208	180.900000
741.450989	178.900000
741.488708	178.100000
741.526367	177.100000
741.564148	182.900000
741.601868	183.600000
741.639526	178.600000
741.677307	181.800000
741.715027	182.100000
741.752686	178.200000
741.790466	182.900000
741.828186	181.200000
741.865845	176.200000
741.903564	174.700000
741.941345	179.200000
741.979004	178.100000
742.016724	182.500000
742.054382	182.100000
742.092102	183.500000
742.129822	175.700000
742.167480	178.200000
742.205200	177.700000
742.242920	181.800000
742.280640	183.500000
742.318359	177.200000
742.356079	179.900000
742.393738	181.900000
742.431396	180.500000
742.469116	183.500000
742.506775	173.600000
742.544495	181.400000
742.582214	182.500000
742.619873	179.000000
742.657593	185.000000
742.695251	184.300000
742.732971	179.000000
742.770630	180.800000
742.808289	180.700000
742.846008	180.000000
742.883728	181.000000
742.921326	179.800000
742.959045	179.300000
742.996765	179.000000
743.034424	180.300000
743.072083	177.700000
743.109802	179.000000
743.147400	176.800000
743.185120	180.700000
743.222839	180.600000
743.260437	184.500000
743.298157	182.400000
743.335754	174.700000
743.373474	180.100000
743.411133	175.300000
743.448792	182.000000
743.486450	180.000000
743.524170	176.100000
743.561768	179.400000
743.599487	184.400000
743.637146	186.300000
743.674744	179.300000
743.712463	179.200000
743.750122	180.100000
743.787720	181.800000
743.825439	178.100000
743.863037	178.000000
743.900696	180.500000
743.938416	204.200000
743.976013	181.100000
744.013672	186.100000
744.051331	184.600000
744.088928	186.900000
744.126587	185.000000
744.164307	181.300000
744.201904	178.900000
744.239563	180.900000
744.277222	181.900000
744.314819	179.100000
744.352478	185.800000
744.390137	182.700000
744.427734	182.300000
744.465393	176.500000
744.502991	177.600000
744.540649	182.800000
744.578308	181.500000
744.615906	177.300000
744.653564	174.300000
744.691223	181.500000
744.728821	176.100000
744.766418	179.100000
744.804077	180.600000
744.841675	179.300000
744.879333	177.200000
744.916992	180.300000
744.954529	178.200000
744.992187	182.900000
745.029785	179.000000
745.067444	179.300000
745.105042	180.400000
745.142639	183.100000
745.180298	187.200000
745.217896	179.900000
745.255493	179.400000
745.293152	183.900000
745.330750	183.000000
745.368347	185.300000
745.405945	182.100000
745.443604	181.500000
745.481140	181.700000
745.518799	181.100000
745.556396	182.100000
745.593994	182.600000
745.631592	180.700000
745.669189	177.300000
745.706787	180.000000
745.744385	177.700000
745.781982	183.200000
745.819580	179.600000
745.857178	178.800000
745.894775	181.300000
745.932373	180.900000
745.969971	181.700000
746.007568	175.000000
746.045166	184.700000
746.082764	183.500000
746.120300	182.700000
746.157898	182.000000
746.195557	181.300000
746.233093	175.600000
746.270691	182.700000
746.308228	182.600000
746.345825	184.600000
746.383423	182.200000
746.420959	179.100000
746.458557	179.700000
746.496155	179.100000
746.533691	180.500000
746.571289	177.500000
746.608887	180.900000
746.646423	182.200000
746.684021	182.100000
746.721619	177.700000
746.759155	183.000000
746.796753	176.100000
746.834351	176.400000
746.871826	177.600000
746.909424	185.300000
746.946960	179.700000
746.984558	180.300000
747.022156	179.700000
747.059631	187.800000
747.097229	182.300000
747.134827	179.300000
747.172363	183.800000
747.209900	182.900000
747.247498	176.500000
747.285034	185.300000
747.322571	184.500000
747.360168	180.500000
747.397644	175.400000
747.435242	183.300000
747.472778	182.800000
747.510315	179.400000
747.547913	179.000000
747.585388	185.000000
747.622925	177.900000
747.660522	175.400000
747.697998	178.200000
747.735596	179.300000
747.773132	177.700000
747.810669	181.400000
747.848206	181.900000
747.885742	178.300000
747.923279	175.800000
747.960815	181.000000
747.998352	179.800000
748.035889	182.900000
748.073425	180.900000
748.110901	178.500000
748.148437	176.600000
748.185974	180.900000
748.223511	186.100000
748.261047	182.400000
748.298584	178.800000
748.336060	180.000000
748.373596	181.900000
748.411133	205.700000
748.448608	177.900000
748.486145	181.700000
748.523682	182.500000
748.561218	186.700000
748.598755	180.700000
748.636292	182.300000
748.673706	180.000000
748.711243	186.600000
748.748718	181.600000
748.786255	180.700000
748.823792	179.800000
748.861267	177.000000
748.898804	183.800000
748.936340	181.100000
748.973816	179.300000
749.011292	184.500000
749.048828	182.300000
749.086304	181.100000
749.123840	186.500000
749.161316	176.700000
749.198792	186.400000
749.236328	183.000000
749.273743	180.300000
749.311279	179.000000
749.348816	182.000000
749.386230	180.000000
749.423767	173.300000
749.461304	182.200000
749.498718	180.300000
749.536255	184.300000
749.573730	188.500000
749.611206	185.300000
749.648682	180.400000
749.686218	179.800000
749.723633	181.800000
749.761169	179.200000
749.798645	177.600000
749.836060	179.600000
749.873596	178.600000
749.911011	181.700000
749.948547	184.800000
749.986023	180.400000
750.023437	181.500000
750.060913	176.800000
750.098450	175.800000
750.135864	179.300000
750.173340	180.600000
750.210815	183.700000
750.248291	178.200000
750.285767	179.700000
750.323242	184.200000
750.360657	182.400000
750.398132	177.100000
750.435608	183.600000
750.473022	177.800000
750.510498	179.100000
750.547974	177.600000
750.585449	178.400000
750.622925	173.100000
750.660339	189.200000
750.697815	180.400000
750.735291	180.000000
750.772644	180.000000
750.810120	181.200000
750.847595	180.500000
750.885010	178.500000
750.922485	185.100000
750.959961	181.100000
750.997375	185.000000
751.034851	183.600000
751.072266	183.200000
751.109680	176.100000
751.147156	184.100000
751.184570	182.700000
751.221985	179.700000
751.259460	175.200000
751.296875	179.700000
751.334290	180.800000
751.371765	182.800000
751.409180	184.600000
751.446594	183.700000
751.484070	183.100000
751.521423	180.900000
751.558899	181.500000
751.596375	187.700000
751.633728	185.600000
751.671204	186.800000
751.708618	180.000000
751.746033	182.300000
751.783447	176.700000
751.820801	178.400000
751.858276	184.000000
751.895691	179.600000
751.933105	178.700000
751.970520	177.400000
752.007935	180.200000
752.045349	183.500000
752.082764	180.600000
752.120178	178.700000
752.157532	178.500000
752.195007	180.800000
752.232422	182.400000
752.269775	183.500000
752.307190	183.400000
752.344543	177.900000
752.382019	180.700000
752.419434	179.500000
752.456787	182.300000
752.494202	184.100000
752.531616	180.200000
752.568970	182.300000
752.606384	182.000000
752.643799	182.000000
752.681152	186.100000
752.718567	183.700000
752.755981	174.300000
752.793335	183.300000
752.830750	176.100000
752.868164	184.300000
752.905518	175.900000
752.942932	184.400000
752.980225	176.600000
753.017639	183.000000
753.055054	182.800000
753.092407	183.000000
753.129822	183.200000
753.167175	185.600000
753.204529	179.600000
753.241943	178.900000
753.279358	177.300000
753.316650	183.500000
753.354065	182.100000
753.391479	184.000000
753.428772	185.700000
753.466187	182.500000
753.503479	177.600000
753.540894	180.000000
753.578308	177.300000
753.615601	177.700000
753.653015	180.500000
753.690369	178.400000
753.727722	177.800000
753.765076	176.500000
753.802490	177.800000
753.839783	174.700000
753.877136	178.700000
753.914551	187.300000
753.951843	178.400000
753.989258	183.500000
754.026611	180.200000
754.063904	182.700000
754.101257	177.700000
754.138611	175.300000
754.175964	182.400000
754.213318	186.500000
754.250610	176.900000
754.288025	178.400000
754.325378	176.400000
754.362671	182.200000
754.400024	181.700000
754.437378	186.000000
754.474670	187.700000
754.512085	179.100000
754.549438	181.200000
754.586731	178.700000
754.624084	179.400000
754.661438	177.500000
754.698730	187.800000
754.736084	179.800000
754.773376	180.600000
754.810730	182.900000
754.848083	181.600000
754.885315	183.300000
754.922668	176.700000
754.960022	177.500000
754.997314	184.900000
755.034668	181.700000
755.072021	182.000000
755.109253	179.300000
755.146606	185.300000
755.183960	180.100000
755.221252	187.700000
755.258545	184.400000
755.295898	186.400000
755.333191	185.000000
755.370544	182.900000
755.407776	181.800000
755.445129	183.400000
755.482422	184.600000
755.519714	180.500000
755.557068	178.300000
755.594360	176.200000
755.631653	184.100000
755.668945	187.400000
755.706299	182.700000
755.743530	190.300000
755.780884	187.500000
755.818176	183.900000
755.855408	185.100000
755.892761	184.300000
755.930054	183.800000
755.967346	183.200000
756.004639	185.900000
756.041870	182.500000
756.079224	187.800000
756.116516	178.500000
756.153748	185.200000
756.191040	189.500000
756.228394	185.600000
756.265625	178.900000
756.302917	183.100000
756.340210	180.900000
756.377441	186.700000
756.414795	186.800000
756.452087	183.600000
756.489319	177.800000
756.526611	186.200000
756.563843	184.000000
756.601135	191.400000
756.638428	190.400000
756.675659	184.000000
756.712952	184.900000
756.750244	185.200000
756.787476	183.000000
756.824768	188.500000
756.862061	182.200000
756.899292	229.000000
756.936584	185.500000
756.973816	191.700000
757.011047	192.300000
757.048340	183.600000
757.085632	185.300000
757.122864	196.700000
757.160156	181.900000
757.197327	185.800000
757.234619	189.400000
757.271912	183.800000
757.309082	187.600000
757.346375	182.700000
757.383667	188.600000
757.420837	185.400000
757.458130	186.300000
757.495422	183.800000
757.532593	186.800000
757.569885	181.200000
757.607117	182.500000
757.644348	186.600000
757.681580	196.200000
757.718811	177.300000
757.756042	187.200000
757.793335	183.100000
757.830505	190.600000
757.867798	184.000000
757.905029	183.900000
757.942200	187.500000
757.979492	184.400000
758.016724	185.200000
758.053894	186.400000
758.091187	196.500000
758.128418	187.400000
758.165588	185.300000
758.202820	194.600000
758.240112	187.200000
758.277283	196.600000
758.314514	187.500000
758.351685	185.700000
758.388916	193.700000
758.426147	191.900000
758.463379	193.300000
758.500610	190.100000
758.537842	188.900000
758.575012	194.200000
758.612244	185.900000
758.649475	196.000000
758.686646	183.900000
758.723877	193.300000
758.761108	194.900000
758.798279	188.600000
758.835510	189.700000
758.872742	192.900000
758.909851	189.800000
758.947083	191.400000
758.984253	189.700000
759.021484	192.500000
759.058716	191.700000
759.095886	193.800000
759.133057	190.000000
759.170288	192.200000
759.207458	187.700000
759.244690	198.500000
759.281860	197.700000
759.319031	191.100000
759.356262	191.500000
759.393433	189.700000
759.430603	191.600000
759.467773	190.700000
759.505005	195.400000
759.542175	196.200000
759.579346	191.700000
759.616516	191.900000
759.653687	194.900000
759.690918	190.000000
759.728027	193.600000
759.765259	192.800000
759.802429	194.200000
759.839539	194.700000
759.876770	197.500000
759.913940	200.700000
759.951111	194.300000
759.988281	193.000000
760.025452	192.300000
760.062561	190.400000
760.099792	201.300000
760.136963	194.900000
760.174072	193.600000
760.211243	191.200000
760.248413	192.000000
760.285583	191.100000
760.322754	202.400000
760.359863	198.200000
760.397034	201.000000
760.434204	194.100000
760.471375	194.500000
760.508545	194.800000
760.545715	195.500000
760.582825	192.200000
760.619995	197.800000
760.657166	192.700000
760.694275	200.700000
760.731445	196.500000
760.768555	197.700000
760.805664	200.000000
760.842834	197.200000
760.879944	199.400000
760.917114	198.200000
760.954285	197.700000
760.991394	191.600000
761.028564	201.600000
761.065674	197.900000
761.102783	195.800000
761.139954	200.600000
761.177124	200.700000
761.214172	201.800000
761.251343	199.300000
761.288452	198.300000
761.325562	201.800000
761.362732	196.700000
761.399841	198.600000
761.436951	199.300000
761.474121	198.400000
761.511169	199.500000
761.548340	203.200000
761.585449	202.000000
761.622559	202.800000
761.659668	201.500000
761.696838	204.600000
761.733887	202.000000
761.771057	201.000000
761.808167	200.300000
761.845276	204.300000
761.882385	208.900000
761.919434	202.700000
761.956604	214.100000
761.993713	201.300000
762.030762	206.200000
762.067871	202.300000
762.105042	201.700000
762.142090	209.200000
762.179199	203.800000
762.216309	209.100000
762.253418	213.300000
762.290527	210.200000
762.327637	206.500000
762.364685	200.000000
762.401794	207.100000
762.438904	206.600000
762.475952	202.400000
762.513062	202.300000
762.550110	202.100000
762.587219	211.800000
762.624329	212.200000
762.661377	208.500000
762.698486	207.200000
762.735596	207.700000
762.772644	204.200000
762.809753	201.800000
762.846863	206.200000
762.883911	210.100000
762.921021	208.700000
762.958069	206.600000
762.995117	213.900000
763.032227	213.400000
763.069336	205.800000
763.106323	205.500000
763.143433	204.700000
763.180481	208.000000
763.217590	209.600000
763.254639	207.100000
763.291687	207.300000
763.328735	213.600000
763.365845	210.900000
763.402893	208.300000
763.439941	212.000000
763.477051	213.800000
763.514038	212.600000
763.551147	209.300000
763.588196	212.500000
763.625244	209.600000
763.662292	218.700000
763.699402	218.700000
763.736389	217.400000
763.773499	219.800000
763.810486	218.200000
763.847534	214.800000
763.884644	217.600000
763.921631	213.600000
763.958679	222.800000
763.995728	215.400000
764.032776	221.400000
764.069824	212.100000
764.106873	219.300000
764.143860	222.700000
764.180969	217.500000
764.218018	223.700000
764.255005	217.800000
764.292053	217.600000
764.329102	226.400000
764.366089	225.100000
764.403137	223.500000
764.440125	219.100000
764.477173	221.500000
764.514221	223.700000
764.551208	221.500000
764.588257	219.200000
764.625305	225.000000
764.662292	228.900000
764.699341	230.800000
764.736389	225.400000
764.773376	236.900000
764.810425	229.900000
764.847473	232.900000
764.884399	229.400000
764.921448	234.300000
764.958435	234.900000
764.995483	227.100000
765.032532	238.700000
765.069458	228.800000
765.106506	230.400000
765.143555	229.200000
765.180481	234.000000
765.217529	237.600000
765.254578	228.800000
765.291504	233.800000
765.328552	233.400000
765.365540	229.500000
765.402527	241.900000
765.439575	230.300000
765.476501	229.600000
765.513550	229.900000
765.550537	234.200000
765.587463	238.100000
765.624512	233.900000
765.661499	227.900000
765.698486	241.700000
765.735474	232.600000
765.772461	234.700000
765.809448	240.500000
765.846436	239.800000
765.883423	243.300000
765.920410	236.700000
765.957397	236.200000
765.994385	238.000000
766.031311	243.900000
766.068359	240.600000
766.105286	240.800000
766.142273	246.000000
766.179260	243.200000
766.216187	239.800000
766.253174	237.500000
766.290161	242.400000
766.327148	245.800000
766.364136	244.400000
766.401123	255.600000
766.438049	240.200000
766.475037	251.200000
766.512024	248.400000
766.548950	258.900000
766.585937	254.100000
766.622864	248.900000
766.659790	247.700000
766.696777	243.900000
766.733704	253.300000
766.770691	247.600000
766.807678	256.400000
766.844604	252.700000
766.881531	252.900000
766.918518	257.100000
766.955444	257.000000
766.992432	252.900000
767.029358	254.300000
767.066284	256.200000
767.103271	255.200000
767.140198	287.000000
767.177124	266.200000
767.214050	258.300000
767.251038	258.800000
767.287964	257.000000
767.324890	254.800000
767.361816	259.300000
767.398743	263.100000
767.435730	258.400000
767.472595	260.300000
767.509583	264.800000
767.546509	256.700000
767.583374	261.400000
767.620361	255.700000
767.657288	260.900000
767.694214	261.500000
767.731140	258.700000
767.768066	262.700000
767.804993	263.700000
767.841919	256.700000
767.878845	263.000000
767.915710	266.600000
767.952698	262.800000
767.989563	266.200000
768.026489	267.200000
