Model Number: SPM-001-M   
Serial Number: 10090201
Firmware Version: 004.17.6
Exposure Time: 500000.000000us
Data Taken on: 27-08-2020 09:32:06.482
Wavelength	Amplitude
733.770752	0.000000
733.808716	0.000000
733.846619	0.000000
733.884583	0.000000
733.922546	0.000000
733.960449	0.000000
733.998413	0.000000
734.036377	0.000000
734.074219	0.000000
734.112183	0.000000
734.150085	0.000000
734.188049	0.000000
734.226013	0.000000
734.263916	0.000000
734.301819	0.000000
734.339783	0.000000
734.377686	0.000000
734.415588	0.000000
734.453552	0.000000
734.491455	0.000000
734.529419	0.000000
734.567322	0.000000
734.605225	0.000000
734.643127	0.000000
734.681091	0.000000
734.718994	0.000000
734.756897	0.000000
734.794800	0.000000
734.832703	0.000000
734.870667	0.000000
734.908508	0.000000
734.946472	0.000000
734.984375	0.000000
735.022278	0.000000
735.060181	0.000000
735.098083	0.000000
735.135986	0.000000
735.173889	0.000000
735.211792	0.000000
735.249695	0.000000
735.287598	0.000000
735.325439	0.000000
735.363403	0.000000
735.401306	0.000000
735.439148	0.000000
735.477051	0.000000
735.515015	0.000000
735.552856	0.000000
735.590759	0.000000
735.628662	0.000000
735.666504	0.000000
735.704407	0.000000
735.742310	0.000000
735.780212	0.000000
735.818115	0.000000
735.856018	0.000000
735.893860	0.000000
735.931763	0.000000
735.969604	0.000000
736.007507	0.000000
736.045410	0.000000
736.083252	0.000000
736.121094	0.000000
736.158997	0.000000
736.196838	0.000000
736.234741	0.000000
736.272644	0.000000
736.310486	0.000000
736.348389	0.000000
736.386230	0.000000
736.424072	0.000000
736.461975	0.000000
736.499878	0.000000
736.537720	0.000000
736.575562	0.000000
736.613403	0.000000
736.651306	0.000000
736.689148	0.000000
736.726990	0.000000
736.764893	0.000000
736.802734	0.000000
736.840576	0.000000
736.878418	0.000000
736.916321	0.000000
736.954102	0.000000
736.992004	0.000000
737.029846	0.000000
737.067688	0.000000
737.105530	0.000000
737.143372	0.000000
737.181213	0.000000
737.219116	0.000000
737.256897	0.000000
737.294739	0.000000
737.332642	0.000000
737.370422	0.000000
737.408325	0.000000
737.446167	0.000000
737.483948	0.000000
737.521790	0.000000
737.559692	0.000000
737.597473	0.000000
737.635315	0.000000
737.673157	0.000000
737.710999	0.000000
737.748840	0.000000
737.786621	0.000000
737.824463	0.000000
737.862305	0.000000
737.900085	0.000000
737.937927	0.000000
737.975769	0.000000
738.013550	0.000000
738.051392	0.000000
738.089233	0.000000
738.127014	0.000000
738.164856	0.000000
738.202698	0.000000
738.240479	0.000000
738.278320	0.000000
738.316162	0.000000
738.353943	0.000000
738.391785	0.000000
738.429565	0.000000
738.467407	0.000000
738.505188	0.000000
738.542969	0.000000
738.580811	0.000000
738.618652	0.000000
738.656372	0.000000
738.694214	0.000000
738.732056	0.000000
738.769836	0.000000
738.807617	0.000000
738.845459	0.000000
738.883240	0.000000
738.921021	0.000000
738.958862	0.000000
738.996582	0.000000
739.034424	0.000000
739.072205	0.000000
739.109985	0.000000
739.147827	0.000000
739.185547	0.000000
739.223389	0.000000
739.261169	0.000000
739.298889	0.000000
739.336731	0.000000
739.374512	0.000000
739.412292	0.000000
739.450073	0.000000
739.487854	0.000000
739.525635	0.000000
739.563416	0.000000
739.601135	0.000000
739.638977	0.000000
739.676758	0.000000
739.714478	0.000000
739.752258	0.000000
739.790100	0.000000
739.827820	0.000000
739.865601	0.000000
739.903381	0.000000
739.941101	0.000000
739.978882	184.000000
740.016724	183.000000
740.054443	188.000000
740.092224	183.000000
740.130005	185.000000
740.167725	182.000000
740.205505	179.000000
740.243225	193.000000
740.281006	181.000000
740.318787	179.000000
740.356506	189.000000
740.394287	190.000000
740.432068	180.000000
740.469727	179.000000
740.507507	183.000000
740.545288	181.000000
740.583008	190.000000
740.620789	186.000000
740.658569	176.000000
740.696228	187.000000
740.734009	186.000000
740.771790	173.000000
740.809509	187.000000
740.847229	181.000000
740.884949	184.000000
740.922729	178.000000
740.960449	181.000000
740.998169	182.000000
741.035950	181.000000
741.073669	187.000000
741.111389	191.000000
741.149170	192.000000
741.186890	195.000000
741.224609	190.000000
741.262329	185.000000
741.300110	192.000000
741.337769	181.000000
741.375549	172.000000
741.413208	187.000000
741.450989	177.000000
741.488708	185.000000
741.526367	179.000000
741.564148	188.000000
741.601868	190.000000
741.639526	185.000000
741.677307	182.000000
741.715027	185.000000
741.752686	177.000000
741.790466	189.000000
741.828186	185.000000
741.865845	183.000000
741.903564	172.000000
741.941345	185.000000
741.979004	173.000000
742.016724	190.000000
742.054382	184.000000
742.092102	185.000000
742.129822	178.000000
742.167480	187.000000
742.205200	179.000000
742.242920	190.000000
742.280640	192.000000
742.318359	180.000000
742.356079	181.000000
742.393738	190.000000
742.431396	178.000000
742.469116	190.000000
742.506775	176.000000
742.544495	181.000000
742.582214	189.000000
742.619873	185.000000
742.657593	187.000000
742.695251	193.000000
742.732971	181.000000
742.770630	187.000000
742.808289	184.000000
742.846008	186.000000
742.883728	190.000000
742.921326	182.000000
742.959045	180.000000
742.996765	179.000000
743.034424	183.000000
743.072083	183.000000
743.109802	187.000000
743.147400	180.000000
743.185120	191.000000
743.222839	181.000000
743.260437	187.000000
743.298157	184.000000
743.335754	176.000000
743.373474	182.000000
743.411133	177.000000
743.448792	179.000000
743.486450	184.000000
743.524170	176.000000
743.561768	184.000000
743.599487	189.000000
743.637146	195.000000
743.674744	182.000000
743.712463	184.000000
743.750122	185.000000
743.787720	185.000000
743.825439	181.000000
743.863037	187.000000
743.900696	178.000000
743.938416	212.000000
743.976013	183.000000
744.013672	191.000000
744.051331	189.000000
744.088928	193.000000
744.126587	190.000000
744.164307	187.000000
744.201904	183.000000
744.239563	185.000000
744.277222	186.000000
744.314819	186.000000
744.352478	194.000000
744.390137	186.000000
744.427734	189.000000
744.465393	179.000000
744.502991	181.000000
744.540649	189.000000
744.578308	179.000000
744.615906	180.000000
744.653564	179.000000
744.691223	185.000000
744.728821	179.000000
744.766418	185.000000
744.804077	188.000000
744.841675	184.000000
744.879333	178.000000
744.916992	184.000000
744.954529	187.000000
744.992187	188.000000
745.029785	181.000000
745.067444	181.000000
745.105042	191.000000
745.142639	183.000000
745.180298	196.000000
745.217896	182.000000
745.255493	183.000000
745.293152	191.000000
745.330750	189.000000
745.368347	188.000000
745.405945	190.000000
745.443604	182.000000
745.481140	189.000000
745.518799	184.000000
745.556396	188.000000
745.593994	181.000000
745.631592	183.000000
745.669189	181.000000
745.706787	186.000000
745.744385	181.000000
745.781982	194.000000
745.819580	177.000000
745.857178	187.000000
745.894775	182.000000
745.932373	185.000000
745.969971	183.000000
746.007568	175.000000
746.045166	189.000000
746.082764	193.000000
746.120300	187.000000
746.157898	185.000000
746.195557	178.000000
746.233093	182.000000
746.270691	182.000000
746.308228	186.000000
746.345825	190.000000
746.383423	185.000000
746.420959	182.000000
746.458557	183.000000
746.496155	182.000000
746.533691	186.000000
746.571289	184.000000
746.608887	188.000000
746.646423	184.000000
746.684021	184.000000
746.721619	183.000000
746.759155	185.000000
746.796753	182.000000
746.834351	184.000000
746.871826	186.000000
746.909424	193.000000
746.946960	187.000000
746.984558	183.000000
747.022156	183.000000
747.059631	187.000000
747.097229	188.000000
747.134827	184.000000
747.172363	189.000000
747.209900	186.000000
747.247498	182.000000
747.285034	188.000000
747.322571	192.000000
747.360168	181.000000
747.397644	175.000000
747.435242	185.000000
747.472778	188.000000
747.510315	176.000000
747.547913	181.000000
747.585388	188.000000
747.622925	182.000000
747.660522	174.000000
747.697998	177.000000
747.735596	182.000000
747.773132	179.000000
747.810669	183.000000
747.848206	186.000000
747.885742	178.000000
747.923279	179.000000
747.960815	185.000000
747.998352	182.000000
748.035889	187.000000
748.073425	186.000000
748.110901	183.000000
748.148437	183.000000
748.185974	184.000000
748.223511	194.000000
748.261047	187.000000
748.298584	185.000000
748.336060	183.000000
748.373596	189.000000
748.411133	202.000000
748.448608	179.000000
748.486145	192.000000
748.523682	191.000000
748.561218	188.000000
748.598755	186.000000
748.636292	190.000000
748.673706	186.000000
748.711243	193.000000
748.748718	188.000000
748.786255	188.000000
748.823792	183.000000
748.861267	179.000000
748.898804	185.000000
748.936340	188.000000
748.973816	182.000000
749.011292	192.000000
749.048828	184.000000
749.086304	188.000000
749.123840	193.000000
749.161316	179.000000
749.198792	192.000000
749.236328	192.000000
749.273743	181.000000
749.311279	183.000000
749.348816	187.000000
749.386230	186.000000
749.423767	171.000000
749.461304	188.000000
749.498718	183.000000
749.536255	190.000000
749.573730	196.000000
749.611206	192.000000
749.648682	182.000000
749.686218	186.000000
749.723633	188.000000
749.761169	187.000000
749.798645	179.000000
749.836060	184.000000
749.873596	176.000000
749.911011	187.000000
749.948547	192.000000
749.986023	183.000000
750.023437	182.000000
750.060913	178.000000
750.098450	176.000000
750.135864	184.000000
750.173340	186.000000
750.210815	185.000000
750.248291	178.000000
750.285767	188.000000
750.323242	187.000000
750.360657	190.000000
750.398132	182.000000
750.435608	189.000000
750.473022	180.000000
750.510498	180.000000
750.547974	176.000000
750.585449	183.000000
750.622925	177.000000
750.660339	192.000000
750.697815	187.000000
750.735291	184.000000
750.772644	189.000000
750.810120	190.000000
750.847595	191.000000
750.885010	178.000000
750.922485	191.000000
750.959961	183.000000
750.997375	191.000000
751.034851	188.000000
751.072266	196.000000
751.109680	174.000000
751.147156	191.000000
751.184570	185.000000
751.221985	188.000000
751.259460	173.000000
751.296875	185.000000
751.334290	186.000000
751.371765	187.000000
751.409180	187.000000
751.446594	193.000000
751.484070	185.000000
751.521423	189.000000
751.558899	183.000000
751.596375	192.000000
751.633728	188.000000
751.671204	197.000000
751.708618	178.000000
751.746033	189.000000
751.783447	175.000000
751.820801	181.000000
751.858276	187.000000
751.895691	183.000000
751.933105	184.000000
751.970520	180.000000
752.007935	182.000000
752.045349	190.000000
752.082764	185.000000
752.120178	184.000000
752.157532	175.000000
752.195007	182.000000
752.232422	188.000000
752.269775	191.000000
752.307190	189.000000
752.344543	181.000000
752.382019	184.000000
752.419434	183.000000
752.456787	185.000000
752.494202	190.000000
752.531616	186.000000
752.568970	188.000000
752.606384	188.000000
752.643799	191.000000
752.681152	195.000000
752.718567	186.000000
752.755981	181.000000
752.793335	186.000000
752.830750	177.000000
752.868164	186.000000
752.905518	181.000000
752.942932	190.000000
752.980225	183.000000
753.017639	185.000000
753.055054	192.000000
753.092407	185.000000
753.129822	193.000000
753.167175	193.000000
753.204529	186.000000
753.241943	182.000000
753.279358	180.000000
753.316650	189.000000
753.354065	184.000000
753.391479	187.000000
753.428772	195.000000
753.466187	183.000000
753.503479	181.000000
753.540894	181.000000
753.578308	179.000000
753.615601	177.000000
753.653015	190.000000
753.690369	182.000000
753.727722	181.000000
753.765076	175.000000
753.802490	181.000000
753.839783	178.000000
753.877136	180.000000
753.914551	195.000000
753.951843	180.000000
753.989258	194.000000
754.026611	184.000000
754.063904	187.000000
754.101257	188.000000
754.138611	176.000000
754.175964	192.000000
754.213318	195.000000
754.250610	176.000000
754.288025	182.000000
754.325378	182.000000
754.362671	187.000000
754.400024	185.000000
754.437378	196.000000
754.474670	194.000000
754.512085	183.000000
754.549438	186.000000
754.586731	182.000000
754.624084	183.000000
754.661438	182.000000
754.698730	188.000000
754.736084	182.000000
754.773376	177.000000
754.810730	187.000000
754.848083	186.000000
754.885315	189.000000
754.922668	176.000000
754.960022	182.000000
754.997314	187.000000
755.034668	183.000000
755.072021	179.000000
755.109253	184.000000
755.146606	187.000000
755.183960	184.000000
755.221252	194.000000
755.258545	192.000000
755.295898	186.000000
755.333191	191.000000
755.370544	185.000000
755.407776	189.000000
755.445129	187.000000
755.482422	192.000000
755.519714	181.000000
755.557068	184.000000
755.594360	174.000000
755.631653	191.000000
755.668945	193.000000
755.706299	190.000000
755.743530	196.000000
755.780884	199.000000
755.818176	192.000000
755.855408	194.000000
755.892761	191.000000
755.930054	189.000000
755.967346	191.000000
756.004639	196.000000
756.041870	188.000000
756.079224	196.000000
756.116516	190.000000
756.153748	189.000000
756.191040	196.000000
756.228394	195.000000
756.265625	185.000000
756.302917	191.000000
756.340210	187.000000
756.377441	197.000000
756.414795	200.000000
756.452087	189.000000
756.489319	186.000000
756.526611	191.000000
756.563843	191.000000
756.601135	202.000000
756.638428	199.000000
756.675659	195.000000
756.712952	195.000000
756.750244	197.000000
756.787476	193.000000
756.824768	197.000000
756.862061	189.000000
756.899292	233.000000
756.936584	198.000000
756.973816	201.000000
757.011047	205.000000
757.048340	189.000000
757.085632	191.000000
757.122864	205.000000
757.160156	193.000000
757.197327	195.000000
757.234619	199.000000
757.271912	189.000000
757.309082	197.000000
757.346375	192.000000
757.383667	203.000000
757.420837	196.000000
757.458130	196.000000
757.495422	188.000000
757.532593	196.000000
757.569885	187.000000
757.607117	190.000000
757.644348	196.000000
757.681580	206.000000
757.718811	182.000000
757.756042	197.000000
757.793335	192.000000
757.830505	197.000000
757.867798	192.000000
757.905029	191.000000
757.942200	198.000000
757.979492	194.000000
758.016724	199.000000
758.053894	198.000000
758.091187	211.000000
758.128418	196.000000
758.165588	193.000000
758.202820	212.000000
758.240112	201.000000
758.277283	206.000000
758.314514	199.000000
758.351685	196.000000
758.388916	206.000000
758.426147	210.000000
758.463379	207.000000
758.500610	198.000000
758.537842	202.000000
758.575012	204.000000
758.612244	193.000000
758.649475	211.000000
758.686646	194.000000
758.723877	207.000000
758.761108	205.000000
758.798279	197.000000
758.835510	207.000000
758.872742	207.000000
758.909851	205.000000
758.947083	197.000000
758.984253	203.000000
759.021484	205.000000
759.058716	204.000000
759.095886	205.000000
759.133057	205.000000
759.170288	202.000000
759.207458	201.000000
759.244690	211.000000
759.281860	214.000000
759.319031	204.000000
759.356262	199.000000
759.393433	201.000000
759.430603	201.000000
759.467773	199.000000
759.505005	206.000000
759.542175	208.000000
759.579346	209.000000
759.616516	206.000000
759.653687	210.000000
759.690918	199.000000
759.728027	205.000000
759.765259	210.000000
759.802429	210.000000
759.839539	204.000000
759.876770	213.000000
759.913940	223.000000
759.951111	205.000000
759.988281	209.000000
760.025452	208.000000
760.062561	203.000000
760.099792	218.000000
760.136963	216.000000
760.174072	211.000000
760.211243	201.000000
760.248413	203.000000
760.285583	203.000000
760.322754	221.000000
760.359863	217.000000
760.397034	216.000000
760.434204	209.000000
760.471375	206.000000
760.508545	205.000000
760.545715	206.000000
760.582825	207.000000
760.619995	214.000000
760.657166	211.000000
760.694275	219.000000
760.731445	213.000000
760.768555	212.000000
760.805664	219.000000
760.842834	214.000000
760.879944	216.000000
760.917114	213.000000
760.954285	213.000000
760.991394	211.000000
761.028564	220.000000
761.065674	216.000000
761.102783	216.000000
761.139954	220.000000
761.177124	218.000000
761.214172	224.000000
761.251343	216.000000
761.288452	212.000000
761.325562	223.000000
761.362732	219.000000
761.399841	223.000000
761.436951	219.000000
761.474121	218.000000
761.511169	216.000000
761.548340	226.000000
761.585449	226.000000
761.622559	222.000000
761.659668	222.000000
761.696838	228.000000
761.733887	220.000000
761.771057	224.000000
761.808167	227.000000
761.845276	233.000000
761.882385	236.000000
761.919434	229.000000
761.956604	243.000000
761.993713	226.000000
762.030762	236.000000
762.067871	231.000000
762.105042	227.000000
762.142090	234.000000
762.179199	229.000000
762.216309	237.000000
762.253418	253.000000
762.290527	243.000000
762.327637	236.000000
762.364685	223.000000
762.401794	239.000000
762.438904	240.000000
762.475952	235.000000
762.513062	226.000000
762.550110	232.000000
762.587219	243.000000
762.624329	236.000000
762.661377	233.000000
762.698486	236.000000
762.735596	237.000000
762.772644	240.000000
762.809753	233.000000
762.846863	235.000000
762.883911	239.000000
762.921021	239.000000
762.958069	229.000000
762.995117	247.000000
763.032227	244.000000
763.069336	239.000000
763.106323	232.000000
763.143433	241.000000
763.180481	239.000000
763.217590	245.000000
763.254639	236.000000
763.291687	238.000000
763.328735	246.000000
763.365845	238.000000
763.402893	234.000000
763.439941	245.000000
763.477051	249.000000
763.514038	245.000000
763.551147	241.000000
763.588196	254.000000
763.625244	245.000000
763.662292	253.000000
763.699402	258.000000
763.736389	247.000000
763.773499	256.000000
763.810486	253.000000
763.847534	243.000000
763.884644	251.000000
763.921631	250.000000
763.958679	263.000000
763.995728	253.000000
764.032776	269.000000
764.069824	249.000000
764.106873	261.000000
764.143860	263.000000
764.180969	254.000000
764.218018	264.000000
764.255005	252.000000
764.292053	261.000000
764.329102	268.000000
764.366089	272.000000
764.403137	265.000000
764.440125	258.000000
764.477173	263.000000
764.514221	266.000000
764.551208	264.000000
764.588257	258.000000
764.625305	259.000000
764.662292	269.000000
764.699341	263.000000
764.736389	264.000000
764.773376	277.000000
764.810425	273.000000
764.847473	275.000000
764.884399	272.000000
764.921448	279.000000
764.958435	278.000000
764.995483	265.000000
765.032532	288.000000
765.069458	264.000000
765.106506	268.000000
765.143555	272.000000
765.180481	273.000000
765.217529	282.000000
765.254578	274.000000
765.291504	277.000000
765.328552	278.000000
765.365540	280.000000
765.402527	292.000000
765.439575	281.000000
765.476501	274.000000
765.513550	272.000000
765.550537	277.000000
765.587463	289.000000
765.624512	277.000000
765.661499	272.000000
765.698486	285.000000
765.735474	274.000000
765.772461	288.000000
765.809448	291.000000
765.846436	288.000000
765.883423	286.000000
765.920410	288.000000
765.957397	285.000000
765.994385	293.000000
766.031311	304.000000
766.068359	302.000000
766.105286	292.000000
766.142273	297.000000
766.179260	292.000000
766.216187	290.000000
766.253174	279.000000
766.290161	299.000000
766.327148	301.000000
766.364136	294.000000
766.401123	316.000000
766.438049	297.000000
766.475037	313.000000
766.512024	299.000000
766.548950	322.000000
766.585937	309.000000
766.622864	313.000000
766.659790	317.000000
766.696777	305.000000
766.733704	313.000000
766.770691	311.000000
766.807678	315.000000
766.844604	321.000000
766.881531	321.000000
766.918518	326.000000
766.955444	323.000000
766.992432	319.000000
767.029358	327.000000
767.066284	325.000000
767.103271	326.000000
767.140198	359.000000
767.177124	339.000000
767.214050	341.000000
767.251038	338.000000
767.287964	332.000000
767.324890	333.000000
767.361816	331.000000
767.398743	342.000000
767.435730	340.000000
767.472595	346.000000
767.509583	348.000000
767.546509	337.000000
767.583374	349.000000
767.620361	335.000000
767.657288	347.000000
767.694214	341.000000
767.731140	343.000000
767.768066	345.000000
767.804993	351.000000
767.841919	335.000000
767.878845	344.000000
767.915710	357.000000
767.952698	351.000000
767.989563	349.000000
768.026489	355.000000
