Model Number: SPM-002-B   
Serial Number: 70087108
Firmware Version: 004.15.4
Exposure Time: 100000.000000us
Data Taken on: 11-12-2020 19:36:20.327
Wavelength	Amplitude
221.570786	0.000000
221.663406	0.000000
221.756027	0.000000
221.848648	0.000000
221.941269	0.000000
222.033905	0.000000
222.126526	0.000000
222.219162	0.000000
222.311798	0.000000
222.404419	0.000000
222.497055	0.000000
222.589676	0.000000
222.682312	0.000000
222.774933	0.000000
222.867569	0.000000
222.960205	0.000000
223.052841	0.000000
223.145462	0.000000
223.238098	0.000000
223.330734	0.000000
223.423386	0.000000
223.516022	0.000000
223.608658	0.000000
223.701309	0.000000
223.793945	0.000000
223.886581	0.000000
223.979218	0.000000
224.071869	0.000000
224.164505	0.000000
224.257156	0.000000
224.349792	0.000000
224.442444	0.000000
224.535095	0.000000
224.627747	0.000000
224.720398	0.000000
224.813034	0.000000
224.905685	0.000000
224.998337	145.680000
225.090988	145.700000
225.183640	145.780000
225.276291	145.220000
225.368942	145.380000
225.461594	146.060000
225.554245	146.140000
225.646912	146.080000
225.739578	146.920000
225.832230	147.400000
225.924896	146.760000
226.017548	147.060000
226.110199	147.480000
226.202866	146.620000
226.295532	146.600000
226.388184	146.480000
226.480850	146.040000
226.573517	145.520000
226.666168	145.900000
226.758835	145.940000
226.851501	146.660000
226.944183	146.660000
227.036850	146.300000
227.129517	146.340000
227.222183	146.480000
227.314850	146.060000
227.407516	146.180000
227.500198	146.860000
227.592865	146.380000
227.685532	146.160000
227.778214	145.800000
227.870880	146.220000
227.963562	146.540000
228.056229	147.160000
228.148926	147.060000
228.241592	148.440000
228.334274	148.180000
228.426956	147.680000
228.519638	147.660000
228.612305	147.040000
228.704987	146.680000
228.797668	146.580000
228.890350	146.460000
228.983032	146.060000
229.075714	147.060000
229.168396	146.380000
229.261108	145.920000
229.353790	146.020000
229.446472	146.080000
229.539169	145.660000
229.631851	145.780000
229.724533	146.480000
229.817230	146.820000
229.909912	147.740000
230.002609	147.560000
230.095306	147.700000
230.187988	147.560000
230.280685	147.140000
230.373383	146.200000
230.466095	146.500000
230.558792	146.540000
230.651474	146.380000
230.744171	146.420000
230.836868	145.940000
230.929581	146.220000
231.022278	146.260000
231.114975	146.240000
231.207672	145.980000
231.300369	146.720000
231.393082	146.140000
231.485779	145.520000
231.578506	145.500000
231.671204	145.700000
231.763916	145.600000
231.856613	145.760000
231.949326	146.040000
232.042023	145.880000
232.134735	146.080000
232.227448	145.600000
232.320160	145.760000
232.412872	145.860000
232.505585	146.580000
232.598297	146.980000
232.691010	147.300000
232.783722	146.500000
232.876450	147.220000
232.969162	146.960000
233.061874	146.240000
233.154587	145.920000
233.247314	146.400000
233.340027	145.520000
233.432739	145.640000
233.525467	145.740000
233.618179	146.060000
233.710907	145.900000
233.803635	146.220000
233.896347	145.820000
233.989090	146.380000
234.081818	146.300000
234.174545	146.440000
234.267258	146.260000
234.359985	146.620000
234.452713	146.360000
234.545441	146.380000
234.638168	146.420000
234.730896	146.740000
234.823639	146.560000
234.916367	146.780000
235.009094	147.020000
235.101822	147.040000
235.194580	146.600000
235.287308	146.400000
235.380051	145.780000
235.472778	145.760000
235.565521	145.880000
235.658249	145.960000
235.750992	146.180000
235.843719	146.180000
235.936462	146.420000
236.029205	146.180000
236.121948	145.840000
236.214691	146.100000
236.307449	146.780000
236.400192	146.080000
236.492935	145.940000
236.585678	146.240000
236.678421	146.180000
236.771164	145.680000
236.863907	146.360000
236.956665	146.800000
237.049408	148.240000
237.142151	147.840000
237.234909	148.600000
237.327652	148.560000
237.420410	148.240000
237.513153	147.340000
237.605927	147.320000
237.698669	146.820000
237.791428	145.840000
237.884186	146.340000
237.976944	145.840000
238.069702	146.140000
238.162445	145.840000
238.255203	146.500000
238.347961	146.560000
238.440720	146.540000
238.533478	146.380000
238.626266	146.100000
238.719025	146.400000
238.811783	146.200000
238.904541	146.200000
238.997314	145.880000
239.090073	145.900000
239.182831	145.780000
239.275604	146.320000
239.368362	146.220000
239.461136	146.940000
239.553909	146.880000
239.646667	146.780000
239.739441	146.300000
239.832214	146.500000
239.925003	146.280000
240.017761	146.900000
240.110535	147.280000
240.203308	146.840000
240.296082	146.600000
240.388855	146.600000
240.481628	146.860000
240.574417	146.960000
240.667191	146.980000
240.759964	146.960000
240.852737	146.880000
240.945526	146.340000
241.038315	145.920000
241.131088	146.460000
241.223877	146.740000
241.316650	146.240000
241.409439	146.480000
241.502228	146.340000
241.595001	146.480000
241.687790	146.380000
241.780579	146.740000
241.873367	146.820000
241.966141	146.800000
242.058929	146.200000
242.151718	146.500000
242.244507	146.640000
242.337311	146.040000
242.430099	146.720000
242.522903	147.000000
242.615692	146.340000
242.708481	146.460000
242.801270	147.040000
242.894073	146.840000
242.986862	146.940000
243.079651	147.680000
243.172455	147.400000
243.265244	147.460000
243.358063	146.700000
243.450867	146.940000
243.543655	146.580000
243.636459	146.600000
243.729263	146.600000
243.822067	147.260000
243.914856	147.420000
244.007660	147.580000
244.100464	147.700000
244.193268	147.260000
244.286072	146.900000
244.378876	146.340000
244.471680	146.040000
244.564499	146.400000
244.657318	147.380000
244.750122	147.820000
244.842926	147.440000
244.935745	147.880000
245.028549	147.160000
245.121368	146.520000
245.214172	146.040000
245.306992	146.340000
245.399796	146.160000
245.492615	146.240000
245.585434	145.960000
245.678253	146.120000
245.771072	146.200000
245.863892	146.420000
245.956711	146.880000
246.049530	146.860000
246.142349	146.620000
246.235168	146.480000
246.327988	146.760000
246.420807	146.400000
246.513626	146.580000
246.606445	146.480000
246.699280	146.620000
246.792099	146.340000
246.884918	145.960000
246.977753	145.500000
247.070587	145.440000
247.163422	145.040000
247.256241	144.780000
247.349075	145.580000
247.441895	146.060000
247.534729	146.400000
247.627563	146.860000
247.720383	147.280000
247.813217	146.720000
247.906052	146.340000
247.998886	146.480000
248.091736	146.120000
248.184570	145.700000
248.277405	145.740000
248.370239	146.660000
248.463074	147.340000
248.555908	147.660000
248.648743	147.860000
248.741592	148.200000
248.834427	147.600000
248.927261	146.400000
249.020111	146.780000
249.112946	147.160000
249.205795	146.520000
249.298630	146.700000
249.391495	146.940000
249.484344	146.360000
249.577179	146.000000
249.670029	146.660000
249.762878	146.780000
249.855728	147.080000
249.948563	146.960000
250.041412	146.520000
250.134262	146.600000
250.227112	146.580000
250.319962	146.320000
250.412827	146.600000
250.505692	146.260000
250.598541	146.000000
250.691391	145.600000
250.784241	145.780000
250.877106	145.880000
250.969955	146.160000
251.062805	146.500000
251.155670	147.000000
251.248520	146.880000
251.341385	147.320000
251.434235	147.500000
251.527100	147.240000
251.619965	146.760000
251.712814	147.520000
251.805695	147.380000
251.898560	147.440000
251.991425	147.580000
252.084290	148.000000
252.177155	146.860000
252.270020	146.220000
252.362885	146.220000
252.455750	146.300000
252.548615	145.880000
252.641479	146.120000
252.734360	146.080000
252.827240	146.060000
252.920105	145.880000
253.012970	146.040000
253.105850	146.160000
253.198715	146.020000
253.291595	146.080000
253.384460	145.960000
253.477341	145.760000
253.570221	145.940000
253.663086	146.080000
253.755966	146.560000
253.848846	146.620000
253.941727	146.860000
254.034592	146.600000
254.127472	146.600000
254.220367	146.120000
254.313248	146.240000
254.406128	145.820000
254.499008	146.300000
254.591904	147.000000
254.684784	147.720000
254.777664	147.700000
254.870544	147.760000
254.963440	147.300000
255.056335	147.060000
255.149216	146.500000
255.242111	146.960000
255.334991	147.300000
255.427887	147.340000
255.520767	147.220000
255.613663	147.380000
255.706558	146.720000
255.799438	146.500000
255.892334	146.300000
255.985229	146.300000
256.078125	146.000000
256.171021	145.800000
256.263916	146.300000
256.356812	146.860000
256.449707	146.840000
256.542603	146.580000
256.635498	147.180000
256.728394	146.580000
256.821289	146.340000
256.914215	146.700000
257.007080	146.880000
257.100006	146.860000
257.192932	147.360000
257.285828	147.360000
257.378723	146.880000
257.471619	147.040000
257.564545	146.300000
257.657440	146.380000
257.750336	146.760000
257.843262	146.680000
257.936157	147.780000
258.029053	148.380000
258.121979	148.380000
258.214874	147.900000
258.307800	147.680000
258.400696	146.480000
258.493622	146.540000
258.586517	145.800000
258.679443	146.300000
258.772339	145.880000
258.865265	145.840000
258.958160	145.400000
259.051086	146.140000
259.144012	145.560000
259.236938	146.560000
259.329834	146.980000
259.422791	146.860000
259.515717	146.100000
259.608612	146.100000
259.701538	146.160000
259.794464	145.500000
259.887390	145.680000
259.980316	145.920000
260.073212	145.920000
260.166138	144.860000
260.259064	145.420000
260.351990	145.860000
260.444916	145.980000
260.537842	146.200000
260.630768	147.360000
260.723694	147.500000
260.816620	147.180000
260.909546	146.940000
261.002472	146.580000
261.095398	145.720000
261.188354	145.400000
261.281281	145.020000
261.374207	145.160000
261.467133	145.960000
261.560089	146.380000
261.653015	146.360000
261.745972	147.400000
261.838867	147.820000
261.931824	147.700000
262.024780	147.040000
262.117706	147.520000
262.210663	147.100000
262.303589	146.820000
262.396515	147.000000
262.489471	148.200000
262.582397	147.640000
262.675354	147.500000
262.768280	147.720000
262.861237	147.480000
262.954163	147.200000
263.047119	147.420000
263.140045	147.180000
263.233002	147.080000
263.325958	146.960000
263.418884	146.520000
263.511841	146.680000
263.604797	146.940000
263.697723	146.980000
263.790680	147.220000
263.883636	147.820000
263.976593	147.320000
264.069550	147.300000
264.162476	147.100000
264.255463	146.840000
264.348419	146.460000
264.441376	146.800000
264.534332	146.400000
264.627289	146.560000
264.720245	147.120000
264.813202	146.680000
264.906158	146.880000
264.999115	147.240000
265.092072	147.020000
265.185028	146.900000
265.277985	147.260000
265.370941	146.900000
265.463898	146.640000
265.556854	146.120000
265.649811	145.060000
265.742798	145.020000
265.835754	145.100000
265.928711	145.460000
266.021667	145.960000
266.114655	146.520000
266.207611	146.780000
266.300568	146.260000
266.393585	145.900000
266.486511	146.080000
266.579498	145.380000
266.672485	145.220000
266.765442	145.460000
266.858429	145.940000
266.951385	145.800000
267.044342	146.160000
267.137329	146.060000
267.230316	146.340000
267.323273	145.900000
267.416260	146.540000
267.509216	146.660000
267.602203	146.740000
267.695160	147.320000
267.788147	147.480000
267.881134	146.680000
267.974091	147.060000
268.067078	147.160000
268.160065	146.800000
268.253052	146.500000
268.346008	146.780000
268.438995	146.300000
268.531982	146.420000
268.624969	146.020000
268.717987	146.420000
268.810944	146.280000
268.903961	146.600000
268.996948	146.340000
269.089905	147.080000
269.182892	147.060000
269.275879	147.340000
269.368866	146.940000
269.461853	147.060000
269.554871	146.440000
269.647858	146.560000
269.740845	146.720000
269.833832	147.140000
269.926819	146.900000
270.019806	147.140000
270.112793	146.600000
270.205811	146.720000
270.298798	146.400000
270.391785	146.980000
270.484772	146.560000
270.577789	147.000000
270.670776	146.100000
270.763763	146.120000
270.856750	145.740000
270.949768	145.640000
271.042786	145.380000
271.135773	146.000000
271.228790	146.480000
271.321808	146.260000
271.414795	146.060000
271.507782	145.800000
271.600800	145.080000
271.693817	144.760000
271.786804	145.100000
271.879822	145.440000
271.972809	145.600000
272.065826	146.320000
272.158844	146.180000
272.251831	146.600000
272.344849	146.640000
272.437866	146.400000
272.530853	146.340000
272.623871	146.500000
272.716888	145.480000
272.809906	145.780000
272.902893	145.900000
272.995911	145.260000
273.088928	145.220000
273.181946	145.380000
273.274963	144.880000
273.367981	145.060000
273.460999	145.620000
273.554047	145.960000
273.647003	146.820000
273.740051	146.780000
273.833069	147.240000
273.926086	147.340000
274.019135	147.020000
274.112152	146.440000
274.205170	146.700000
274.298187	146.660000
274.391205	146.160000
274.484222	146.200000
274.577240	146.040000
274.670258	145.920000
274.763306	145.680000
274.856323	146.180000
274.949341	146.460000
275.042358	147.060000
275.135406	147.080000
275.228424	146.920000
275.321442	146.980000
275.414490	146.560000
275.507507	146.660000
275.600525	147.040000
275.693573	146.780000
275.786591	146.240000
275.879669	146.520000
275.972656	145.820000
276.065735	145.600000
276.158752	146.320000
276.251801	147.100000
276.344818	147.120000
276.437866	147.440000
276.530884	147.220000
276.623932	146.280000
276.716980	146.380000
276.809998	146.360000
276.903046	146.140000
276.996094	146.940000
277.089111	147.900000
277.182159	147.900000
277.275208	147.440000
277.368256	147.860000
277.461304	147.280000
277.554321	146.380000
277.647369	146.000000
277.740417	146.420000
277.833466	146.000000
277.926514	146.100000
278.019562	147.060000
278.112610	146.700000
278.205688	146.740000
278.298706	147.120000
278.391785	146.680000
278.484833	145.980000
278.577881	146.260000
278.670929	146.280000
278.763977	146.120000
278.857025	146.500000
278.950073	146.820000
279.043121	146.540000
279.136169	146.280000
279.229248	146.120000
279.322296	146.200000
279.415344	145.880000
279.508392	145.840000
279.601440	146.080000
279.694519	145.860000
279.787567	145.760000
279.880615	145.660000
279.973694	145.660000
280.066742	145.580000
280.159790	146.020000
280.252869	145.800000
280.345917	145.900000
280.438995	145.680000
280.532074	145.600000
280.625122	145.720000
280.718201	146.440000
280.811279	146.760000
280.904327	146.920000
280.997406	146.880000
281.090454	146.920000
281.183533	146.500000
281.276581	146.080000
281.369659	146.120000
281.462738	146.320000
281.555786	146.140000
281.648865	146.260000
281.741943	146.540000
281.835022	147.320000
281.928070	147.000000
282.021149	146.800000
282.114227	146.300000
282.207306	146.400000
282.300385	146.280000
282.393433	146.480000
282.486511	146.680000
282.579590	147.560000
282.672668	147.760000
282.765747	146.960000
282.858856	146.540000
282.951904	146.500000
283.045013	145.960000
283.138062	146.140000
283.231171	146.540000
283.324249	147.280000
283.417328	147.380000
283.510406	147.040000
283.603485	146.860000
283.696564	146.920000
283.789642	146.720000
283.882751	146.540000
283.975830	147.320000
284.068909	146.780000
284.161987	147.360000
284.255066	146.800000
284.348175	146.780000
284.441254	146.580000
284.534332	146.920000
284.627441	146.100000
284.720520	146.340000
284.813599	146.460000
284.906708	146.200000
284.999786	146.020000
285.092896	146.140000
285.185974	146.860000
285.279053	146.640000
285.372192	147.040000
285.465240	147.760000
285.558380	147.760000
285.651459	147.260000
285.744568	148.080000
285.837677	147.400000
285.930756	146.920000
286.023865	146.920000
286.116943	146.560000
286.210052	146.160000
286.303162	146.240000
286.396240	146.460000
286.489349	146.320000
286.582458	146.740000
286.675568	146.640000
286.768646	146.780000
286.861755	146.900000
286.954865	147.620000
287.047974	147.120000
287.141083	146.740000
287.234161	146.500000
287.327271	146.220000
287.420380	146.300000
287.513519	146.580000
287.606598	146.780000
287.699738	147.380000
287.792816	147.500000
287.885956	146.940000
287.979034	146.860000
288.072174	146.940000
288.165283	146.640000
288.258392	146.620000
288.351501	146.160000
288.444611	146.500000
288.537720	146.740000
288.630859	146.780000
288.723969	146.740000
288.817078	147.400000
288.910187	147.380000
289.003296	147.040000
289.096436	146.460000
289.189545	146.280000
289.282654	145.880000
289.375763	146.300000
289.468903	146.640000
289.562012	147.360000
289.655121	147.140000
289.748260	147.320000
289.841400	147.180000
289.934509	146.900000
290.027649	146.980000
290.120728	147.340000
290.213898	147.220000
290.306976	146.800000
290.400146	147.080000
290.493256	146.460000
290.586395	146.460000
290.679535	146.860000
290.772644	146.720000
290.865784	145.780000
290.958893	146.160000
291.052032	145.840000
291.145172	145.700000
291.238281	145.580000
291.331421	145.980000
291.424561	146.340000
291.517670	146.260000
291.610809	146.380000
291.703949	146.460000
291.797089	147.060000
291.890228	146.360000
291.983337	146.800000
292.076477	146.560000
292.169617	146.940000
292.262756	146.540000
292.355927	146.720000
292.449036	146.360000
292.542206	146.360000
292.635315	146.320000
292.728485	146.580000
292.821625	146.460000
292.914764	147.520000
293.007904	147.680000
293.101044	147.480000
293.194183	147.060000
293.287323	147.380000
293.380463	146.480000
293.473602	146.140000
293.566742	146.520000
293.659882	147.260000
293.753021	147.260000
293.846191	147.400000
293.939331	147.340000
294.032471	147.040000
294.125610	146.500000
294.218781	146.920000
294.311920	147.260000
294.405060	147.320000
294.498230	147.100000
294.591370	147.120000
294.684540	146.320000
294.777679	145.540000
294.870850	146.120000
294.963959	146.360000
295.057159	146.240000
295.150299	146.760000
295.243469	147.000000
295.336609	146.440000
295.429779	146.360000
295.522919	146.440000
295.616089	146.320000
295.709229	146.580000
295.802399	146.860000
295.895569	146.660000
295.988708	146.780000
296.081879	146.940000
296.175018	146.480000
296.268188	146.400000
296.361359	146.980000
296.454529	147.100000
296.547668	146.700000
296.640839	147.160000
296.734009	146.740000
296.827179	146.580000
296.920319	146.780000
297.013519	146.840000
297.106659	147.080000
297.199860	147.000000
297.292999	146.820000
297.386200	146.440000
297.479309	146.360000
297.572510	146.280000
297.665680	146.340000
297.758850	146.400000
297.852020	146.300000
297.945190	146.280000
298.038361	145.480000
298.131531	146.440000
298.224701	146.120000
298.317871	146.120000
298.411072	145.640000
298.504242	145.840000
298.597412	145.140000
298.690582	145.720000
298.783752	145.460000
298.876923	146.080000
298.970093	146.400000
299.063293	146.840000
299.156464	146.780000
299.249634	147.380000
299.342834	147.280000
299.436005	147.560000
299.529205	147.300000
299.622345	147.360000
299.715576	146.540000
299.808716	146.360000
299.901917	146.200000
299.995117	146.000000
300.088287	146.100000
300.181488	146.380000
300.274658	146.240000
300.367828	146.140000
300.461029	146.280000
300.554199	146.100000
300.647400	146.160000
300.740601	146.920000
300.833771	146.620000
300.926971	147.180000
301.020142	146.540000
301.113342	146.520000
301.206512	146.300000
301.299713	146.480000
301.392914	145.880000
301.486084	146.520000
301.579285	146.360000
301.672516	146.460000
301.765686	146.540000
301.858887	146.680000
301.952057	146.660000
302.045288	146.800000
302.138458	146.700000
302.231659	146.400000
302.324860	145.960000
302.418060	145.560000
302.511261	145.440000
302.604462	145.340000
302.697662	145.320000
302.790863	145.400000
302.884064	145.460000
302.977264	145.680000
303.070465	145.980000
303.163666	146.720000
303.256866	147.380000
303.350067	147.140000
303.443268	147.200000
303.536469	147.160000
303.629669	146.560000
303.722870	146.620000
303.816071	146.540000
303.909271	146.680000
304.002472	145.980000
304.095673	145.860000
304.188934	144.900000
304.282104	145.760000
304.375336	145.540000
304.468506	145.620000
304.561768	145.580000
304.654968	146.420000
304.748169	146.060000
304.841370	146.000000
304.934601	146.420000
305.027802	146.380000
305.121002	145.980000
305.214233	145.960000
305.307434	145.860000
305.400665	146.420000
305.493866	146.200000
