Model Number: SPM-002-B   
Serial Number: 70087108
Firmware Version: 004.15.4
Exposure Time: 100000.000000us
Data Taken on: 11-12-2020 19:36:24.682
Wavelength	Amplitude
221.570786	0.000000
221.663406	0.000000
221.756027	0.000000
221.848648	0.000000
221.941269	0.000000
222.033905	0.000000
222.126526	0.000000
222.219162	0.000000
222.311798	0.000000
222.404419	0.000000
222.497055	0.000000
222.589676	0.000000
222.682312	0.000000
222.774933	0.000000
222.867569	0.000000
222.960205	0.000000
223.052841	0.000000
223.145462	0.000000
223.238098	0.000000
223.330734	0.000000
223.423386	0.000000
223.516022	0.000000
223.608658	0.000000
223.701309	0.000000
223.793945	0.000000
223.886581	0.000000
223.979218	0.000000
224.071869	0.000000
224.164505	0.000000
224.257156	0.000000
224.349792	0.000000
224.442444	0.000000
224.535095	0.000000
224.627747	0.000000
224.720398	0.000000
224.813034	0.000000
224.905685	0.000000
224.998337	145.960000
225.090988	146.080000
225.183640	146.140000
225.276291	145.740000
225.368942	146.140000
225.461594	146.520000
225.554245	146.880000
225.646912	146.760000
225.739578	147.040000
225.832230	147.240000
225.924896	146.420000
226.017548	146.620000
226.110199	147.420000
226.202866	146.820000
226.295532	146.460000
226.388184	146.620000
226.480850	146.000000
226.573517	145.420000
226.666168	145.940000
226.758835	146.580000
226.851501	147.140000
226.944183	147.220000
227.036850	147.080000
227.129517	146.740000
227.222183	146.720000
227.314850	146.500000
227.407516	146.800000
227.500198	147.500000
227.592865	147.080000
227.685532	146.720000
227.778214	146.420000
227.870880	146.620000
227.963562	146.580000
228.056229	147.140000
228.148926	147.160000
228.241592	147.860000
228.334274	147.620000
228.426956	147.220000
228.519638	147.400000
228.612305	147.140000
228.704987	146.980000
228.797668	146.860000
228.890350	146.820000
228.983032	145.860000
229.075714	146.420000
229.168396	145.900000
229.261108	145.660000
229.353790	145.660000
229.446472	146.280000
229.539169	146.000000
229.631851	145.660000
229.724533	145.940000
229.817230	146.180000
229.909912	147.080000
230.002609	146.920000
230.095306	147.300000
230.187988	147.500000
230.280685	147.140000
230.373383	146.160000
230.466095	146.000000
230.558792	146.400000
230.651474	146.260000
230.744171	146.100000
230.836868	146.180000
230.929581	146.480000
231.022278	146.280000
231.114975	146.200000
231.207672	146.220000
231.300369	146.480000
231.393082	146.540000
231.485779	146.240000
231.578506	145.840000
231.671204	146.040000
231.763916	146.000000
231.856613	146.080000
231.949326	146.200000
232.042023	146.560000
232.134735	146.500000
232.227448	146.260000
232.320160	146.340000
232.412872	146.280000
232.505585	146.860000
232.598297	147.340000
232.691010	147.180000
232.783722	146.680000
232.876450	147.320000
232.969162	146.600000
233.061874	145.740000
233.154587	145.300000
233.247314	145.440000
233.340027	144.860000
233.432739	145.440000
233.525467	145.860000
233.618179	146.720000
233.710907	146.460000
233.803635	146.840000
233.896347	146.380000
233.989090	146.840000
234.081818	146.380000
234.174545	146.780000
234.267258	146.240000
234.359985	146.560000
234.452713	146.160000
234.545441	146.120000
234.638168	146.020000
234.730896	146.640000
234.823639	146.540000
234.916367	146.960000
235.009094	147.240000
235.101822	147.040000
235.194580	146.820000
235.287308	146.760000
235.380051	145.920000
235.472778	146.120000
235.565521	146.780000
235.658249	146.300000
235.750992	146.220000
235.843719	146.620000
235.936462	146.500000
236.029205	145.640000
236.121948	145.760000
236.214691	146.280000
236.307449	146.900000
236.400192	146.680000
236.492935	146.720000
236.585678	146.720000
236.678421	146.340000
236.771164	145.880000
236.863907	146.480000
236.956665	146.960000
237.049408	148.380000
237.142151	148.140000
237.234909	148.660000
237.327652	148.200000
237.420410	148.000000
237.513153	147.040000
237.605927	146.960000
237.698669	146.240000
237.791428	145.800000
237.884186	146.180000
237.976944	145.560000
238.069702	145.860000
238.162445	145.640000
238.255203	146.040000
238.347961	146.200000
238.440720	146.260000
238.533478	145.920000
238.626266	145.720000
238.719025	145.860000
238.811783	145.340000
238.904541	145.400000
238.997314	145.400000
239.090073	145.420000
239.182831	145.600000
239.275604	146.500000
239.368362	146.500000
239.461136	146.860000
239.553909	147.060000
239.646667	146.680000
239.739441	145.960000
239.832214	146.520000
239.925003	146.420000
240.017761	146.980000
240.110535	147.640000
240.203308	147.440000
240.296082	147.040000
240.388855	147.100000
240.481628	147.020000
240.574417	146.940000
240.667191	147.160000
240.759964	147.180000
240.852737	146.860000
240.945526	146.720000
241.038315	146.380000
241.131088	146.380000
241.223877	146.380000
241.316650	146.200000
241.409439	146.520000
241.502228	146.380000
241.595001	146.660000
241.687790	146.680000
241.780579	146.900000
241.873367	146.660000
241.966141	146.880000
242.058929	146.160000
242.151718	146.080000
242.244507	146.760000
242.337311	145.920000
242.430099	146.380000
242.522903	146.800000
242.615692	146.560000
242.708481	145.940000
242.801270	146.840000
242.894073	146.420000
242.986862	146.160000
243.079651	146.800000
243.172455	146.560000
243.265244	146.440000
243.358063	145.960000
243.450867	146.520000
243.543655	146.080000
243.636459	146.320000
243.729263	146.440000
243.822067	146.740000
243.914856	146.960000
244.007660	147.340000
244.100464	147.500000
244.193268	147.200000
244.286072	147.300000
244.378876	146.520000
244.471680	146.200000
244.564499	146.440000
244.657318	146.900000
244.750122	146.980000
244.842926	146.700000
244.935745	146.980000
245.028549	146.440000
245.121368	145.960000
245.214172	145.560000
245.306992	146.180000
245.399796	145.700000
245.492615	145.800000
245.585434	145.740000
245.678253	145.920000
245.771072	145.660000
245.863892	145.980000
245.956711	146.260000
246.049530	146.100000
246.142349	145.860000
246.235168	145.820000
246.327988	146.420000
246.420807	146.260000
246.513626	146.520000
246.606445	146.560000
246.699280	146.900000
246.792099	146.120000
246.884918	145.880000
246.977753	145.400000
247.070587	145.620000
247.163422	145.340000
247.256241	145.580000
247.349075	146.060000
247.441895	146.660000
247.534729	146.560000
247.627563	146.540000
247.720383	147.080000
247.813217	146.540000
247.906052	146.260000
247.998886	146.400000
248.091736	146.520000
248.184570	145.980000
248.277405	146.380000
248.370239	147.200000
248.463074	148.060000
248.555908	148.160000
248.648743	148.180000
248.741592	148.320000
248.834427	147.600000
248.927261	146.500000
249.020111	147.080000
249.112946	147.460000
249.205795	146.660000
249.298630	146.700000
249.391495	146.640000
249.484344	145.680000
249.577179	145.700000
249.670029	146.460000
249.762878	146.960000
249.855728	147.200000
249.948563	147.420000
250.041412	146.780000
250.134262	146.540000
250.227112	146.360000
250.319962	146.560000
250.412827	146.780000
250.505692	146.560000
250.598541	146.500000
250.691391	146.080000
250.784241	145.840000
250.877106	145.900000
250.969955	145.820000
251.062805	146.360000
251.155670	147.160000
251.248520	147.000000
251.341385	146.780000
251.434235	146.920000
251.527100	146.500000
251.619965	145.700000
251.712814	146.420000
251.805695	146.460000
251.898560	146.700000
251.991425	146.660000
252.084290	147.000000
252.177155	146.160000
252.270020	145.960000
252.362885	145.720000
252.455750	145.980000
252.548615	145.580000
252.641479	145.820000
252.734360	145.800000
252.827240	145.800000
252.920105	145.760000
253.012970	145.680000
253.105850	145.400000
253.198715	145.160000
253.291595	145.400000
253.384460	144.920000
253.477341	144.800000
253.570221	145.240000
253.663086	145.520000
253.755966	146.020000
253.848846	146.320000
253.941727	146.700000
254.034592	146.660000
254.127472	146.120000
254.220367	145.760000
254.313248	145.600000
254.406128	145.160000
254.499008	144.940000
254.591904	145.840000
254.684784	146.500000
254.777664	146.660000
254.870544	146.740000
254.963440	146.640000
255.056335	146.560000
255.149216	145.920000
255.242111	146.320000
255.334991	146.540000
255.427887	146.860000
255.520767	147.000000
255.613663	147.180000
255.706558	146.680000
255.799438	146.820000
255.892334	146.560000
255.985229	146.060000
256.078125	146.080000
256.171021	146.040000
256.263916	146.460000
256.356812	146.620000
256.449707	147.080000
256.542603	146.640000
256.635498	147.160000
256.728394	146.720000
256.821289	146.460000
256.914215	146.420000
257.007080	146.640000
257.100006	146.420000
257.192932	146.860000
257.285828	147.120000
257.378723	146.720000
257.471619	146.700000
257.564545	146.220000
257.657440	145.840000
257.750336	146.420000
257.843262	146.340000
257.936157	147.280000
258.029053	148.000000
258.121979	148.340000
258.214874	147.760000
258.307800	148.120000
258.400696	147.040000
258.493622	146.780000
258.586517	145.720000
258.679443	145.900000
258.772339	145.440000
258.865265	145.400000
258.958160	144.920000
259.051086	145.960000
259.144012	145.920000
259.236938	146.820000
259.329834	146.980000
259.422791	147.180000
259.515717	146.600000
259.608612	146.220000
259.701538	145.940000
259.794464	145.800000
259.887390	145.740000
259.980316	145.800000
260.073212	145.940000
260.166138	145.080000
260.259064	145.440000
260.351990	146.180000
260.444916	146.240000
260.537842	146.840000
260.630768	147.600000
260.723694	147.180000
260.816620	147.000000
260.909546	146.980000
261.002472	146.200000
261.095398	145.720000
261.188354	145.940000
261.281281	145.160000
261.374207	145.200000
261.467133	145.980000
261.560089	146.200000
261.653015	145.840000
261.745972	146.580000
261.838867	146.960000
261.931824	146.940000
262.024780	146.580000
262.117706	147.000000
262.210663	147.080000
262.303589	146.920000
262.396515	146.640000
262.489471	147.600000
262.582397	147.500000
262.675354	147.020000
262.768280	146.820000
262.861237	146.920000
262.954163	146.600000
263.047119	146.740000
263.140045	146.640000
263.233002	146.820000
263.325958	146.580000
263.418884	146.220000
263.511841	146.240000
263.604797	146.320000
263.697723	146.180000
263.790680	146.220000
263.883636	146.780000
263.976593	146.420000
264.069550	146.740000
264.162476	146.440000
264.255463	146.620000
264.348419	145.940000
264.441376	146.220000
264.534332	145.580000
264.627289	145.760000
264.720245	146.200000
264.813202	146.160000
264.906158	146.420000
264.999115	147.120000
265.092072	147.140000
265.185028	147.180000
265.277985	147.260000
265.370941	146.960000
265.463898	146.500000
265.556854	146.260000
265.649811	145.300000
265.742798	145.260000
265.835754	145.040000
265.928711	145.540000
266.021667	145.860000
266.114655	146.280000
266.207611	146.660000
266.300568	146.520000
266.393585	146.080000
266.486511	146.360000
266.579498	145.700000
266.672485	145.580000
266.765442	145.640000
266.858429	146.200000
266.951385	145.760000
267.044342	145.980000
267.137329	145.680000
267.230316	146.020000
267.323273	145.500000
267.416260	146.360000
267.509216	146.260000
267.602203	146.480000
267.695160	146.900000
267.788147	146.860000
267.881134	145.960000
267.974091	146.500000
268.067078	146.680000
268.160065	146.140000
268.253052	145.860000
268.346008	146.160000
268.438995	145.780000
268.531982	145.680000
268.624969	145.420000
268.717987	145.920000
268.810944	145.620000
268.903961	145.820000
268.996948	145.560000
269.089905	146.480000
269.182892	146.480000
269.275879	146.900000
269.368866	146.320000
269.461853	146.660000
269.554871	146.000000
269.647858	145.960000
269.740845	146.100000
269.833832	146.800000
269.926819	146.520000
270.019806	146.780000
270.112793	146.560000
270.205811	146.460000
270.298798	146.120000
270.391785	146.620000
270.484772	146.400000
270.577789	146.720000
270.670776	146.500000
270.763763	146.560000
270.856750	146.520000
270.949768	146.240000
271.042786	146.020000
271.135773	145.960000
271.228790	146.360000
271.321808	145.940000
271.414795	145.900000
271.507782	145.720000
271.600800	145.580000
271.693817	145.540000
271.786804	145.900000
271.879822	146.100000
271.972809	146.260000
272.065826	146.840000
272.158844	146.440000
272.251831	146.980000
272.344849	147.140000
272.437866	146.740000
272.530853	146.800000
272.623871	146.980000
272.716888	145.800000
272.809906	146.340000
272.902893	146.720000
272.995911	146.180000
273.088928	146.360000
273.181946	146.660000
273.274963	145.940000
273.367981	145.500000
273.460999	145.480000
273.554047	145.760000
273.647003	146.640000
273.740051	146.760000
273.833069	147.360000
273.926086	147.520000
274.019135	147.200000
274.112152	146.440000
274.205170	146.420000
274.298187	146.620000
274.391205	146.000000
274.484222	146.020000
274.577240	146.380000
274.670258	146.340000
274.763306	145.880000
274.856323	146.780000
274.949341	146.760000
275.042358	146.840000
275.135406	146.680000
275.228424	147.080000
275.321442	146.760000
275.414490	146.420000
275.507507	146.480000
275.600525	147.140000
275.693573	146.600000
275.786591	146.460000
275.879669	147.060000
275.972656	146.760000
276.065735	146.160000
276.158752	146.940000
276.251801	147.600000
276.344818	147.240000
276.437866	147.080000
276.530884	147.020000
276.623932	146.060000
276.716980	146.020000
276.809998	146.100000
276.903046	146.180000
276.996094	147.260000
277.089111	148.140000
277.182159	148.380000
277.275208	148.420000
277.368256	148.200000
277.461304	147.380000
277.554321	146.660000
277.647369	146.140000
277.740417	146.040000
277.833466	146.060000
277.926514	145.960000
278.019562	146.680000
278.112610	146.380000
278.205688	146.520000
278.298706	146.700000
278.391785	146.460000
278.484833	145.820000
278.577881	145.800000
278.670929	145.480000
278.763977	145.760000
278.857025	146.380000
278.950073	146.480000
279.043121	146.380000
279.136169	146.780000
279.229248	146.220000
279.322296	146.120000
279.415344	146.120000
279.508392	145.960000
279.601440	145.700000
279.694519	145.680000
279.787567	145.380000
279.880615	145.240000
279.973694	145.360000
280.066742	145.640000
280.159790	145.960000
280.252869	145.840000
280.345917	146.040000
280.438995	146.340000
280.532074	145.960000
280.625122	146.260000
280.718201	147.060000
280.811279	146.940000
280.904327	146.780000
280.997406	147.260000
281.090454	147.160000
281.183533	146.420000
281.276581	146.520000
281.369659	146.240000
281.462738	146.060000
281.555786	146.020000
281.648865	146.200000
281.741943	146.000000
281.835022	146.640000
281.928070	146.380000
282.021149	146.180000
282.114227	146.100000
282.207306	146.360000
282.300385	146.780000
282.393433	146.820000
282.486511	146.700000
282.579590	147.060000
282.672668	147.240000
282.765747	146.180000
282.858856	145.960000
282.951904	146.420000
283.045013	146.420000
283.138062	146.480000
283.231171	147.160000
283.324249	147.820000
283.417328	147.540000
283.510406	147.180000
283.603485	147.060000
283.696564	146.760000
283.789642	146.760000
283.882751	146.620000
283.975830	147.140000
284.068909	146.660000
284.161987	147.420000
284.255066	146.800000
284.348175	147.120000
284.441254	146.980000
284.534332	147.480000
284.627441	146.460000
284.720520	146.380000
284.813599	146.200000
284.906708	146.260000
284.999786	145.660000
285.092896	145.540000
285.185974	146.520000
285.279053	146.100000
285.372192	146.200000
285.465240	147.140000
285.558380	147.320000
285.651459	146.440000
285.744568	147.320000
285.837677	146.800000
285.930756	146.440000
286.023865	146.600000
286.116943	146.560000
286.210052	146.440000
286.303162	146.320000
286.396240	146.280000
286.489349	146.160000
286.582458	146.740000
286.675568	146.460000
286.768646	146.700000
286.861755	147.100000
286.954865	147.760000
287.047974	146.900000
287.141083	146.740000
287.234161	146.400000
287.327271	145.920000
287.420380	146.060000
287.513519	146.340000
287.606598	146.540000
287.699738	146.880000
287.792816	146.740000
287.885956	146.100000
287.979034	146.140000
288.072174	146.180000
288.165283	146.200000
288.258392	146.560000
288.351501	146.320000
288.444611	146.560000
288.537720	146.880000
288.630859	146.940000
288.723969	147.040000
288.817078	147.640000
288.910187	147.480000
289.003296	146.800000
289.096436	146.520000
289.189545	146.440000
289.282654	146.060000
289.375763	146.640000
289.468903	147.400000
289.562012	147.580000
289.655121	147.460000
289.748260	147.400000
289.841400	147.320000
289.934509	146.780000
290.027649	147.020000
290.120728	146.600000
290.213898	146.640000
290.306976	146.280000
290.400146	146.440000
290.493256	145.720000
290.586395	146.140000
290.679535	146.440000
290.772644	146.300000
290.865784	145.600000
290.958893	145.840000
291.052032	145.720000
291.145172	145.620000
291.238281	145.480000
291.331421	145.860000
291.424561	146.660000
291.517670	146.360000
291.610809	146.420000
291.703949	146.380000
291.797089	146.360000
291.890228	145.620000
291.983337	145.900000
292.076477	145.580000
292.169617	146.020000
292.262756	146.100000
292.355927	146.260000
292.449036	146.020000
292.542206	146.240000
292.635315	146.240000
292.728485	146.620000
292.821625	146.300000
292.914764	147.320000
293.007904	147.560000
293.101044	147.480000
293.194183	147.140000
293.287323	147.420000
293.380463	146.740000
293.473602	146.000000
293.566742	146.440000
293.659882	146.880000
293.753021	146.880000
293.846191	146.680000
293.939331	146.740000
294.032471	146.220000
294.125610	145.620000
294.218781	146.040000
294.311920	146.560000
294.405060	146.960000
294.498230	146.820000
294.591370	147.180000
294.684540	146.160000
294.777679	145.580000
294.870850	146.060000
294.963959	146.080000
295.057159	145.760000
295.150299	146.580000
295.243469	146.560000
295.336609	145.820000
295.429779	146.000000
295.522919	146.560000
295.616089	146.560000
295.709229	147.100000
295.802399	147.340000
295.895569	147.200000
295.988708	146.760000
296.081879	146.640000
296.175018	146.400000
296.268188	146.300000
296.361359	146.900000
296.454529	147.020000
296.547668	147.040000
296.640839	146.980000
296.734009	146.860000
296.827179	146.640000
296.920319	147.040000
297.013519	146.820000
297.106659	147.220000
297.199860	147.580000
297.292999	147.500000
297.386200	147.020000
297.479309	146.720000
297.572510	146.680000
297.665680	146.280000
297.758850	146.540000
297.852020	146.400000
297.945190	146.320000
298.038361	145.660000
298.131531	146.660000
298.224701	146.380000
298.317871	146.300000
298.411072	146.400000
298.504242	146.500000
298.597412	145.540000
298.690582	145.800000
298.783752	145.820000
298.876923	146.360000
298.970093	146.520000
299.063293	147.000000
299.156464	147.200000
299.249634	147.520000
299.342834	147.500000
299.436005	147.740000
299.529205	147.660000
299.622345	147.380000
299.715576	146.980000
299.808716	146.560000
299.901917	146.500000
299.995117	146.560000
300.088287	146.460000
300.181488	146.260000
300.274658	146.200000
300.367828	146.300000
300.461029	146.440000
300.554199	146.720000
300.647400	147.280000
300.740601	147.900000
300.833771	147.340000
300.926971	147.160000
301.020142	146.340000
301.113342	145.940000
301.206512	145.640000
301.299713	145.960000
301.392914	146.000000
301.486084	146.840000
301.579285	146.980000
301.672516	147.380000
301.765686	147.420000
301.858887	147.180000
301.952057	146.640000
302.045288	146.740000
302.138458	146.440000
302.231659	146.160000
302.324860	146.220000
302.418060	145.880000
302.511261	145.800000
302.604462	146.000000
302.697662	146.060000
302.790863	145.900000
302.884064	146.040000
302.977264	145.780000
303.070465	145.700000
303.163666	146.180000
303.256866	146.480000
303.350067	146.640000
303.443268	146.660000
303.536469	146.780000
303.629669	146.400000
303.722870	146.440000
303.816071	146.420000
303.909271	146.700000
304.002472	146.000000
304.095673	145.760000
304.188934	145.000000
304.282104	145.500000
304.375336	145.360000
304.468506	145.620000
304.561768	145.460000
304.654968	146.300000
304.748169	145.820000
304.841370	145.920000
304.934601	146.140000
305.027802	146.140000
305.121002	145.500000
305.214233	145.420000
305.307434	145.320000
305.400665	145.740000
305.493866	145.940000
