Model Number: SPM-002-B   
Serial Number: 70087108
Firmware Version: 004.15.4
Exposure Time: 100000.000000us
Data Taken on: 11-12-2020 19:36:35.460
Wavelength	Amplitude
221.570786	0.000000
221.663406	0.000000
221.756027	0.000000
221.848648	0.000000
221.941269	0.000000
222.033905	0.000000
222.126526	0.000000
222.219162	0.000000
222.311798	0.000000
222.404419	0.000000
222.497055	0.000000
222.589676	0.000000
222.682312	0.000000
222.774933	0.000000
222.867569	0.000000
222.960205	0.000000
223.052841	0.000000
223.145462	0.000000
223.238098	0.000000
223.330734	0.000000
223.423386	0.000000
223.516022	0.000000
223.608658	0.000000
223.701309	0.000000
223.793945	0.000000
223.886581	0.000000
223.979218	0.000000
224.071869	0.000000
224.164505	0.000000
224.257156	0.000000
224.349792	0.000000
224.442444	0.000000
224.535095	0.000000
224.627747	0.000000
224.720398	0.000000
224.813034	0.000000
224.905685	0.000000
224.998337	145.180000
225.090988	144.820000
225.183640	145.060000
225.276291	144.900000
225.368942	145.340000
225.461594	145.860000
225.554245	146.240000
225.646912	145.980000
225.739578	146.660000
225.832230	146.960000
225.924896	145.920000
226.017548	146.260000
226.110199	146.720000
226.202866	145.820000
226.295532	145.480000
226.388184	145.540000
226.480850	144.900000
226.573517	144.640000
226.666168	145.120000
226.758835	145.440000
226.851501	146.320000
226.944183	146.300000
227.036850	145.820000
227.129517	145.560000
227.222183	145.440000
227.314850	145.040000
227.407516	145.700000
227.500198	146.620000
227.592865	146.580000
227.685532	146.540000
227.778214	146.400000
227.870880	146.500000
227.963562	146.560000
228.056229	147.140000
228.148926	147.060000
228.241592	147.680000
228.334274	146.980000
228.426956	146.700000
228.519638	146.540000
228.612305	146.220000
228.704987	146.240000
228.797668	146.580000
228.890350	146.500000
228.983032	145.980000
229.075714	146.800000
229.168396	146.620000
229.261108	146.280000
229.353790	146.480000
229.446472	146.720000
229.539169	146.480000
229.631851	145.880000
229.724533	146.200000
229.817230	146.080000
229.909912	146.960000
230.002609	146.880000
230.095306	147.140000
230.187988	146.780000
230.280685	146.620000
230.373383	145.420000
230.466095	145.260000
230.558792	145.300000
230.651474	145.760000
230.744171	145.720000
230.836868	145.780000
230.929581	145.660000
231.022278	145.620000
231.114975	145.220000
231.207672	144.960000
231.300369	145.740000
231.393082	146.220000
231.485779	145.880000
231.578506	145.980000
231.671204	146.220000
231.763916	145.920000
231.856613	145.340000
231.949326	145.900000
232.042023	145.720000
232.134735	145.840000
232.227448	145.540000
232.320160	146.040000
232.412872	145.700000
232.505585	146.580000
232.598297	146.600000
232.691010	146.620000
232.783722	146.300000
232.876450	147.020000
232.969162	146.260000
233.061874	145.700000
233.154587	145.540000
233.247314	145.780000
233.340027	144.920000
233.432739	145.520000
233.525467	145.720000
233.618179	146.280000
233.710907	145.920000
233.803635	146.560000
233.896347	146.400000
233.989090	147.000000
234.081818	146.560000
234.174545	146.840000
234.267258	146.100000
234.359985	145.660000
234.452713	145.500000
234.545441	145.340000
234.638168	145.320000
234.730896	146.300000
234.823639	146.180000
234.916367	146.660000
235.009094	146.940000
235.101822	146.500000
235.194580	145.940000
235.287308	146.220000
235.380051	145.480000
235.472778	145.800000
235.565521	146.320000
235.658249	146.120000
235.750992	146.240000
235.843719	146.400000
235.936462	146.380000
236.029205	146.100000
236.121948	145.980000
236.214691	146.320000
236.307449	146.860000
236.400192	146.460000
236.492935	146.300000
236.585678	146.660000
236.678421	146.360000
236.771164	145.800000
236.863907	146.400000
236.956665	146.620000
237.049408	148.140000
237.142151	147.640000
237.234909	148.380000
237.327652	148.000000
237.420410	147.820000
237.513153	146.600000
237.605927	146.680000
237.698669	145.940000
237.791428	145.700000
237.884186	146.360000
237.976944	145.760000
238.069702	146.140000
238.162445	145.920000
238.255203	145.720000
238.347961	145.640000
238.440720	145.740000
238.533478	145.540000
238.626266	145.400000
238.719025	145.760000
238.811783	145.760000
238.904541	145.820000
238.997314	145.720000
239.090073	145.580000
239.182831	145.920000
239.275604	146.300000
239.368362	146.120000
239.461136	146.300000
239.553909	146.540000
239.646667	146.140000
239.739441	145.520000
239.832214	145.800000
239.925003	146.140000
240.017761	146.880000
240.110535	147.220000
240.203308	146.980000
240.296082	147.060000
240.388855	146.840000
240.481628	146.700000
240.574417	146.600000
240.667191	146.840000
240.759964	146.820000
240.852737	146.780000
240.945526	146.180000
241.038315	146.200000
241.131088	146.160000
241.223877	146.040000
241.316650	145.600000
241.409439	146.220000
241.502228	145.860000
241.595001	146.380000
241.687790	146.580000
241.780579	146.740000
241.873367	146.800000
241.966141	147.120000
242.058929	146.460000
242.151718	146.380000
242.244507	146.880000
242.337311	145.760000
242.430099	145.940000
242.522903	146.100000
242.615692	145.500000
242.708481	145.400000
242.801270	146.560000
242.894073	146.320000
242.986862	146.900000
243.079651	147.900000
243.172455	147.520000
243.265244	147.180000
243.358063	146.900000
243.450867	146.400000
243.543655	146.100000
243.636459	146.240000
243.729263	146.380000
243.822067	146.760000
243.914856	147.520000
244.007660	147.480000
244.100464	147.520000
244.193268	147.160000
244.286072	147.060000
244.378876	146.120000
244.471680	145.660000
244.564499	145.920000
244.657318	146.800000
244.750122	146.860000
244.842926	146.560000
244.935745	147.260000
245.028549	146.500000
245.121368	145.860000
245.214172	145.900000
245.306992	146.080000
245.399796	145.360000
245.492615	145.740000
245.585434	145.620000
245.678253	145.240000
245.771072	145.360000
245.863892	145.760000
245.956711	146.020000
246.049530	145.900000
246.142349	145.600000
246.235168	145.760000
246.327988	146.520000
246.420807	146.440000
246.513626	146.440000
246.606445	146.820000
246.699280	146.860000
246.792099	146.080000
246.884918	145.540000
246.977753	145.240000
247.070587	145.460000
247.163422	145.180000
247.256241	145.220000
247.349075	145.760000
247.441895	145.920000
247.534729	145.920000
247.627563	145.800000
247.720383	146.540000
247.813217	146.320000
247.906052	146.280000
247.998886	146.460000
248.091736	146.560000
248.184570	145.820000
248.277405	146.120000
248.370239	147.200000
248.463074	147.720000
248.555908	148.240000
248.648743	148.200000
248.741592	148.040000
248.834427	146.900000
248.927261	145.560000
249.020111	145.600000
249.112946	146.100000
249.205795	146.200000
249.298630	146.580000
249.391495	147.120000
249.484344	146.620000
249.577179	146.480000
249.670029	146.340000
249.762878	146.740000
249.855728	146.680000
249.948563	146.780000
250.041412	146.140000
250.134262	146.560000
250.227112	146.480000
250.319962	146.560000
250.412827	146.560000
250.505692	146.440000
250.598541	145.920000
250.691391	145.400000
250.784241	145.620000
250.877106	145.880000
250.969955	145.820000
251.062805	146.480000
251.155670	147.140000
251.248520	146.640000
251.341385	146.700000
251.434235	146.580000
251.527100	146.100000
251.619965	145.700000
251.712814	146.600000
251.805695	146.400000
251.898560	146.680000
251.991425	146.860000
252.084290	147.280000
252.177155	146.560000
252.270020	146.360000
252.362885	146.580000
252.455750	146.620000
252.548615	146.080000
252.641479	145.940000
252.734360	146.220000
252.827240	145.960000
252.920105	145.900000
253.012970	145.780000
253.105850	146.000000
253.198715	145.640000
253.291595	145.960000
253.384460	145.780000
253.477341	145.780000
253.570221	145.900000
253.663086	145.880000
253.755966	146.240000
253.848846	146.300000
253.941727	146.580000
254.034592	146.500000
254.127472	146.040000
254.220367	145.900000
254.313248	145.820000
254.406128	145.340000
254.499008	145.520000
254.591904	146.420000
254.684784	146.820000
254.777664	146.700000
254.870544	146.720000
254.963440	146.640000
255.056335	146.420000
255.149216	145.680000
255.242111	146.120000
255.334991	146.420000
255.427887	146.360000
255.520767	146.400000
255.613663	146.920000
255.706558	146.560000
255.799438	146.340000
255.892334	146.020000
255.985229	145.840000
256.078125	145.380000
256.171021	145.480000
256.263916	145.940000
256.356812	146.480000
256.449707	146.880000
256.542603	146.800000
256.635498	147.100000
256.728394	146.800000
256.821289	146.160000
256.914215	146.100000
257.007080	146.540000
257.100006	146.340000
257.192932	146.660000
257.285828	147.300000
257.378723	146.940000
257.471619	146.460000
257.564545	146.160000
257.657440	146.180000
257.750336	146.540000
257.843262	146.220000
257.936157	147.220000
258.029053	147.640000
258.121979	147.600000
258.214874	146.660000
258.307800	147.040000
258.400696	146.140000
258.493622	146.000000
258.586517	145.060000
258.679443	145.440000
258.772339	144.900000
258.865265	144.720000
258.958160	144.260000
259.051086	145.620000
259.144012	145.580000
259.236938	146.480000
259.329834	146.760000
259.422791	146.980000
259.515717	145.900000
259.608612	145.640000
259.701538	145.620000
259.794464	145.680000
259.887390	145.200000
259.980316	145.460000
260.073212	145.360000
260.166138	144.240000
260.259064	144.400000
260.351990	145.280000
260.444916	145.220000
260.537842	145.680000
260.630768	146.560000
260.723694	146.340000
260.816620	146.140000
260.909546	146.140000
261.002472	145.760000
261.095398	145.500000
261.188354	145.540000
261.281281	145.020000
261.374207	145.280000
261.467133	146.040000
261.560089	146.000000
261.653015	145.960000
261.745972	146.980000
261.838867	147.460000
261.931824	147.560000
262.024780	147.140000
262.117706	147.120000
262.210663	147.100000
262.303589	146.500000
262.396515	146.260000
262.489471	147.420000
262.582397	147.260000
262.675354	146.640000
262.768280	146.920000
262.861237	146.780000
262.954163	146.420000
263.047119	146.900000
263.140045	146.700000
263.233002	146.360000
263.325958	146.320000
263.418884	145.820000
263.511841	145.520000
263.604797	145.800000
263.697723	146.040000
263.790680	145.880000
263.883636	146.440000
263.976593	145.880000
264.069550	145.920000
264.162476	145.900000
264.255463	146.000000
264.348419	145.580000
264.441376	146.400000
264.534332	146.120000
264.627289	146.140000
264.720245	146.480000
264.813202	146.160000
264.906158	146.100000
264.999115	146.360000
265.092072	146.380000
265.185028	146.400000
265.277985	146.880000
265.370941	146.780000
265.463898	146.500000
265.556854	146.320000
265.649811	145.320000
265.742798	145.240000
265.835754	145.140000
265.928711	145.480000
266.021667	145.040000
266.114655	145.540000
266.207611	145.760000
266.300568	145.200000
266.393585	144.760000
266.486511	145.420000
266.579498	144.860000
266.672485	144.760000
266.765442	145.180000
266.858429	145.720000
266.951385	145.260000
267.044342	145.620000
267.137329	145.280000
267.230316	145.360000
267.323273	144.580000
267.416260	145.360000
267.509216	145.280000
267.602203	145.580000
267.695160	145.980000
267.788147	146.480000
267.881134	145.580000
267.974091	145.900000
268.067078	145.840000
268.160065	145.220000
268.253052	145.000000
268.346008	145.560000
268.438995	144.980000
268.531982	144.900000
268.624969	145.100000
268.717987	145.620000
268.810944	145.580000
268.903961	146.080000
268.996948	145.740000
269.089905	146.260000
269.182892	146.080000
269.275879	146.200000
269.368866	145.600000
269.461853	146.300000
269.554871	145.760000
269.647858	145.400000
269.740845	145.580000
269.833832	146.460000
269.926819	146.100000
270.019806	146.220000
270.112793	146.220000
270.205811	146.020000
270.298798	145.440000
270.391785	145.880000
270.484772	145.620000
270.577789	146.100000
270.670776	145.680000
270.763763	145.820000
270.856750	145.660000
270.949768	145.660000
271.042786	145.660000
271.135773	145.860000
271.228790	146.100000
271.321808	145.620000
271.414795	145.480000
271.507782	144.940000
271.600800	144.700000
271.693817	144.860000
271.786804	145.240000
271.879822	145.600000
271.972809	145.980000
272.065826	146.560000
272.158844	145.900000
272.251831	146.320000
272.344849	146.180000
272.437866	145.600000
272.530853	145.520000
272.623871	145.820000
272.716888	145.000000
272.809906	145.280000
272.902893	145.660000
272.995911	145.200000
273.088928	145.360000
273.181946	145.860000
273.274963	145.460000
273.367981	145.480000
273.460999	145.520000
273.554047	145.540000
273.647003	145.960000
273.740051	146.180000
273.833069	146.500000
273.926086	146.940000
274.019135	146.820000
274.112152	146.100000
274.205170	146.020000
274.298187	146.140000
274.391205	145.480000
274.484222	145.200000
274.577240	145.440000
274.670258	145.260000
274.763306	145.140000
274.856323	145.900000
274.949341	146.440000
275.042358	146.800000
275.135406	146.980000
275.228424	146.860000
275.321442	146.840000
275.414490	146.500000
275.507507	146.660000
275.600525	147.100000
275.693573	146.740000
275.786591	146.220000
275.879669	146.540000
275.972656	145.840000
276.065735	145.660000
276.158752	146.460000
276.251801	147.060000
276.344818	147.040000
276.437866	147.300000
276.530884	146.740000
276.623932	145.740000
276.716980	145.680000
276.809998	145.560000
276.903046	145.540000
276.996094	146.620000
277.089111	147.320000
277.182159	147.640000
277.275208	147.500000
277.368256	147.380000
277.461304	146.580000
277.554321	146.080000
277.647369	145.880000
277.740417	145.900000
277.833466	146.100000
277.926514	146.120000
278.019562	146.620000
278.112610	145.880000
278.205688	146.060000
278.298706	146.020000
278.391785	145.940000
278.484833	145.600000
278.577881	145.680000
278.670929	145.840000
278.763977	145.940000
278.857025	146.680000
278.950073	147.000000
279.043121	146.820000
279.136169	146.780000
279.229248	146.480000
279.322296	145.960000
279.415344	145.540000
279.508392	145.900000
279.601440	145.880000
279.694519	145.860000
279.787567	146.000000
279.880615	145.920000
279.973694	145.780000
280.066742	145.520000
280.159790	145.980000
280.252869	145.620000
280.345917	146.040000
280.438995	146.300000
280.532074	146.320000
280.625122	146.460000
280.718201	147.220000
280.811279	146.980000
280.904327	146.740000
280.997406	147.060000
281.090454	146.860000
281.183533	146.240000
281.276581	146.060000
281.369659	145.580000
281.462738	145.460000
281.555786	145.260000
281.648865	145.400000
281.741943	145.380000
281.835022	146.300000
281.928070	145.820000
282.021149	145.680000
282.114227	145.380000
282.207306	145.400000
282.300385	145.200000
282.393433	145.780000
282.486511	145.820000
282.579590	146.400000
282.672668	146.740000
282.765747	146.420000
282.858856	146.200000
282.951904	146.260000
283.045013	146.320000
283.138062	146.500000
283.231171	146.720000
283.324249	146.740000
283.417328	147.060000
283.510406	146.400000
283.603485	146.120000
283.696564	146.220000
283.789642	146.420000
283.882751	145.960000
283.975830	146.860000
284.068909	146.480000
284.161987	146.660000
284.255066	146.300000
284.348175	146.580000
284.441254	146.160000
284.534332	146.900000
284.627441	146.520000
284.720520	146.160000
284.813599	146.160000
284.906708	145.940000
284.999786	145.360000
285.092896	145.380000
285.185974	146.380000
285.279053	145.860000
285.372192	146.060000
285.465240	146.640000
285.558380	146.460000
285.651459	146.020000
285.744568	146.740000
285.837677	146.220000
285.930756	146.020000
286.023865	146.200000
286.116943	145.780000
286.210052	145.700000
286.303162	146.080000
286.396240	146.200000
286.489349	146.100000
286.582458	146.420000
286.675568	145.920000
286.768646	145.960000
286.861755	145.840000
286.954865	146.520000
287.047974	146.120000
287.141083	146.080000
287.234161	145.780000
287.327271	145.760000
287.420380	145.860000
287.513519	145.860000
287.606598	146.280000
287.699738	146.800000
287.792816	146.560000
287.885956	146.060000
287.979034	146.160000
288.072174	145.940000
288.165283	145.520000
288.258392	145.920000
288.351501	145.320000
288.444611	145.920000
288.537720	146.420000
288.630859	146.420000
288.723969	146.500000
288.817078	147.220000
288.910187	146.700000
289.003296	145.960000
289.096436	145.760000
289.189545	145.500000
289.282654	144.920000
289.375763	145.680000
289.468903	146.360000
289.562012	146.860000
289.655121	146.700000
289.748260	146.980000
289.841400	146.880000
289.934509	146.340000
290.027649	146.300000
290.120728	146.540000
290.213898	146.480000
290.306976	146.140000
290.400146	146.440000
290.493256	146.000000
290.586395	145.920000
290.679535	146.300000
290.772644	146.200000
290.865784	145.200000
290.958893	145.260000
291.052032	144.980000
291.145172	144.800000
291.238281	144.420000
291.331421	144.940000
291.424561	145.480000
291.517670	145.440000
291.610809	145.360000
291.703949	145.500000
291.797089	145.700000
291.890228	145.040000
291.983337	145.060000
292.076477	145.140000
292.169617	145.380000
292.262756	145.500000
292.355927	145.520000
292.449036	145.220000
292.542206	145.340000
292.635315	145.620000
292.728485	145.820000
292.821625	145.800000
292.914764	147.340000
293.007904	147.080000
293.101044	146.760000
293.194183	146.440000
293.287323	146.500000
293.380463	145.400000
293.473602	145.280000
293.566742	145.460000
293.659882	145.940000
293.753021	146.420000
293.846191	146.560000
293.939331	146.320000
294.032471	146.200000
294.125610	145.660000
294.218781	145.640000
294.311920	146.140000
294.405060	146.380000
294.498230	146.320000
294.591370	146.440000
294.684540	145.660000
294.777679	144.720000
294.870850	145.360000
294.963959	145.360000
295.057159	145.200000
295.150299	146.080000
295.243469	146.600000
295.336609	145.740000
295.429779	145.840000
295.522919	146.360000
295.616089	146.040000
295.709229	146.440000
295.802399	146.760000
295.895569	146.360000
295.988708	146.140000
296.081879	146.280000
296.175018	145.520000
296.268188	145.500000
296.361359	146.080000
296.454529	146.100000
296.547668	145.820000
296.640839	146.220000
296.734009	146.140000
296.827179	146.000000
296.920319	146.280000
297.013519	146.020000
297.106659	146.000000
297.199860	146.280000
297.292999	146.320000
297.386200	145.840000
297.479309	145.960000
297.572510	145.640000
297.665680	145.280000
297.758850	145.340000
297.852020	145.420000
297.945190	145.480000
298.038361	145.320000
298.131531	146.120000
298.224701	145.980000
298.317871	145.880000
298.411072	145.440000
298.504242	145.580000
298.597412	145.120000
298.690582	145.080000
298.783752	145.060000
298.876923	145.960000
298.970093	145.980000
299.063293	146.480000
299.156464	146.780000
299.249634	146.860000
299.342834	146.640000
299.436005	147.260000
299.529205	146.540000
299.622345	146.660000
299.715576	146.020000
299.808716	145.720000
299.901917	145.380000
299.995117	145.720000
300.088287	145.560000
300.181488	145.720000
300.274658	145.800000
300.367828	145.940000
300.461029	145.680000
300.554199	145.800000
300.647400	146.160000
300.740601	146.860000
300.833771	146.500000
300.926971	146.900000
301.020142	146.100000
301.113342	146.220000
301.206512	145.800000
301.299713	146.200000
301.392914	146.160000
301.486084	146.900000
301.579285	146.660000
301.672516	147.020000
301.765686	146.540000
301.858887	146.560000
301.952057	146.480000
302.045288	146.480000
302.138458	146.080000
302.231659	146.080000
302.324860	145.660000
302.418060	145.200000
302.511261	145.160000
302.604462	145.360000
302.697662	145.440000
302.790863	145.560000
302.884064	145.500000
302.977264	145.520000
303.070465	145.700000
303.163666	146.300000
303.256866	146.420000
303.350067	146.900000
303.443268	146.900000
303.536469	146.660000
303.629669	146.020000
303.722870	146.260000
303.816071	145.740000
303.909271	145.760000
304.002472	144.940000
304.095673	144.960000
304.188934	143.980000
304.282104	144.900000
304.375336	145.020000
304.468506	145.660000
304.561768	145.660000
304.654968	146.420000
304.748169	146.080000
304.841370	145.700000
304.934601	146.060000
305.027802	145.760000
305.121002	145.560000
305.214233	145.380000
305.307434	146.020000
305.400665	146.020000
305.493866	145.840000
