Model Number: SPM-002-B   
Serial Number: 70087108
Firmware Version: 004.15.4
Exposure Time: 100000.000000us
Data Taken on: 11-12-2020 19:36:46.099
Wavelength	Amplitude
221.570786	0.000000
221.663406	0.000000
221.756027	0.000000
221.848648	0.000000
221.941269	0.000000
222.033905	0.000000
222.126526	0.000000
222.219162	0.000000
222.311798	0.000000
222.404419	0.000000
222.497055	0.000000
222.589676	0.000000
222.682312	0.000000
222.774933	0.000000
222.867569	0.000000
222.960205	0.000000
223.052841	0.000000
223.145462	0.000000
223.238098	0.000000
223.330734	0.000000
223.423386	0.000000
223.516022	0.000000
223.608658	0.000000
223.701309	0.000000
223.793945	0.000000
223.886581	0.000000
223.979218	0.000000
224.071869	0.000000
224.164505	0.000000
224.257156	0.000000
224.349792	0.000000
224.442444	0.000000
224.535095	0.000000
224.627747	0.000000
224.720398	0.000000
224.813034	0.000000
224.905685	0.000000
224.998337	145.020000
225.090988	144.780000
225.183640	145.040000
225.276291	144.740000
225.368942	145.320000
225.461594	145.800000
225.554245	146.060000
225.646912	145.860000
225.739578	146.380000
225.832230	146.780000
225.924896	146.180000
226.017548	146.280000
226.110199	147.000000
226.202866	146.200000
226.295532	145.960000
226.388184	145.960000
226.480850	145.540000
226.573517	144.700000
226.666168	145.260000
226.758835	145.500000
226.851501	145.960000
226.944183	145.900000
227.036850	145.740000
227.129517	145.340000
227.222183	145.340000
227.314850	145.180000
227.407516	145.940000
227.500198	146.780000
227.592865	146.440000
227.685532	146.080000
227.778214	146.000000
227.870880	145.920000
227.963562	146.140000
228.056229	146.760000
228.148926	147.140000
228.241592	147.980000
228.334274	147.600000
228.426956	147.140000
228.519638	147.120000
228.612305	146.260000
228.704987	145.980000
228.797668	146.140000
228.890350	145.940000
228.983032	145.400000
229.075714	146.160000
229.168396	145.420000
229.261108	144.900000
229.353790	145.000000
229.446472	145.320000
229.539169	145.100000
229.631851	145.020000
229.724533	145.160000
229.817230	145.280000
229.909912	146.000000
230.002609	145.880000
230.095306	146.400000
230.187988	146.700000
230.280685	146.540000
230.373383	145.520000
230.466095	145.280000
230.558792	145.380000
230.651474	145.260000
230.744171	145.380000
230.836868	145.300000
230.929581	145.780000
231.022278	145.520000
231.114975	145.700000
231.207672	145.500000
231.300369	145.840000
231.393082	145.920000
231.485779	145.760000
231.578506	145.600000
231.671204	145.820000
231.763916	145.900000
231.856613	145.780000
231.949326	146.040000
232.042023	146.100000
232.134735	146.140000
232.227448	145.740000
232.320160	146.040000
232.412872	146.020000
232.505585	146.680000
232.598297	147.100000
232.691010	147.220000
232.783722	146.780000
232.876450	147.080000
232.969162	146.460000
233.061874	145.740000
233.154587	145.740000
233.247314	146.080000
233.340027	145.540000
233.432739	145.900000
233.525467	145.900000
233.618179	146.140000
233.710907	146.020000
233.803635	146.440000
233.896347	146.140000
233.989090	147.100000
234.081818	146.960000
234.174545	146.820000
234.267258	146.060000
234.359985	145.980000
234.452713	145.380000
234.545441	145.340000
234.638168	145.280000
234.730896	146.040000
234.823639	146.340000
234.916367	146.560000
235.009094	146.700000
235.101822	146.660000
235.194580	146.620000
235.287308	146.560000
235.380051	146.060000
235.472778	146.240000
235.565521	146.580000
235.658249	146.060000
235.750992	146.040000
235.843719	145.880000
235.936462	146.060000
236.029205	145.800000
236.121948	145.620000
236.214691	146.020000
236.307449	146.860000
236.400192	146.340000
236.492935	146.320000
236.585678	146.700000
236.678421	146.220000
236.771164	146.060000
236.863907	146.560000
236.956665	146.620000
237.049408	147.920000
237.142151	147.740000
237.234909	148.060000
237.327652	147.620000
237.420410	147.480000
237.513153	146.820000
237.605927	146.740000
237.698669	145.860000
237.791428	145.620000
237.884186	146.320000
237.976944	145.700000
238.069702	146.080000
238.162445	146.360000
238.255203	146.460000
238.347961	146.360000
238.440720	146.380000
238.533478	146.060000
238.626266	145.480000
238.719025	146.020000
238.811783	145.680000
238.904541	145.540000
238.997314	145.540000
239.090073	145.580000
239.182831	145.400000
239.275604	146.280000
239.368362	146.260000
239.461136	146.500000
239.553909	146.740000
239.646667	146.660000
239.739441	146.000000
239.832214	146.400000
239.925003	146.220000
240.017761	146.700000
240.110535	147.200000
240.203308	146.800000
240.296082	146.580000
240.388855	146.780000
240.481628	146.400000
240.574417	146.200000
240.667191	146.380000
240.759964	146.140000
240.852737	145.860000
240.945526	145.880000
241.038315	145.620000
241.131088	145.880000
241.223877	146.340000
241.316650	146.500000
241.409439	146.760000
241.502228	146.520000
241.595001	146.660000
241.687790	146.360000
241.780579	146.360000
241.873367	146.460000
241.966141	146.720000
242.058929	146.380000
242.151718	146.680000
242.244507	146.760000
242.337311	145.900000
242.430099	146.400000
242.522903	146.300000
242.615692	145.880000
242.708481	146.040000
242.801270	146.700000
242.894073	146.380000
242.986862	146.380000
243.079651	146.880000
243.172455	146.480000
243.265244	146.800000
243.358063	146.180000
243.450867	146.540000
243.543655	146.460000
243.636459	146.580000
243.729263	146.680000
243.822067	147.260000
243.914856	147.520000
244.007660	147.720000
244.100464	147.740000
244.193268	146.900000
244.286072	146.600000
244.378876	145.800000
244.471680	145.300000
244.564499	145.660000
244.657318	146.520000
244.750122	146.580000
244.842926	146.460000
244.935745	146.560000
245.028549	146.100000
245.121368	145.760000
245.214172	145.660000
245.306992	146.040000
245.399796	146.140000
245.492615	146.040000
245.585434	145.640000
245.678253	145.720000
245.771072	145.540000
245.863892	145.760000
245.956711	146.400000
246.049530	146.540000
246.142349	146.320000
246.235168	146.420000
246.327988	146.740000
246.420807	146.300000
246.513626	146.360000
246.606445	146.340000
246.699280	146.220000
246.792099	145.920000
246.884918	145.700000
246.977753	145.260000
247.070587	145.580000
247.163422	145.840000
247.256241	145.500000
247.349075	145.980000
247.441895	146.340000
247.534729	146.220000
247.627563	145.720000
247.720383	146.280000
247.813217	145.940000
247.906052	145.840000
247.998886	145.820000
248.091736	145.960000
248.184570	145.840000
248.277405	145.880000
248.370239	146.760000
248.463074	147.960000
248.555908	148.120000
248.648743	147.820000
248.741592	148.020000
248.834427	147.060000
248.927261	145.800000
249.020111	146.200000
249.112946	146.520000
249.205795	146.100000
249.298630	146.640000
249.391495	146.680000
249.484344	146.360000
249.577179	146.260000
249.670029	146.760000
249.762878	147.000000
249.855728	147.380000
249.948563	147.240000
250.041412	146.820000
250.134262	146.920000
250.227112	146.640000
250.319962	146.480000
250.412827	146.560000
250.505692	146.280000
250.598541	146.060000
250.691391	145.880000
250.784241	145.960000
250.877106	146.000000
250.969955	146.080000
251.062805	146.320000
251.155670	146.840000
251.248520	146.380000
251.341385	146.760000
251.434235	146.800000
251.527100	146.580000
251.619965	145.540000
251.712814	146.580000
251.805695	146.280000
251.898560	146.540000
251.991425	146.720000
252.084290	147.420000
252.177155	146.340000
252.270020	146.180000
252.362885	146.080000
252.455750	145.800000
252.548615	145.460000
252.641479	145.920000
252.734360	145.940000
252.827240	145.720000
252.920105	145.980000
253.012970	145.960000
253.105850	145.700000
253.198715	145.540000
253.291595	145.900000
253.384460	145.340000
253.477341	145.280000
253.570221	145.400000
253.663086	145.240000
253.755966	145.940000
253.848846	146.040000
253.941727	146.380000
254.034592	146.380000
254.127472	146.120000
254.220367	145.720000
254.313248	146.160000
254.406128	145.800000
254.499008	145.980000
254.591904	146.940000
254.684784	147.260000
254.777664	146.960000
254.870544	146.880000
254.963440	146.700000
255.056335	146.640000
255.149216	146.200000
255.242111	146.700000
255.334991	146.980000
255.427887	147.280000
255.520767	146.920000
255.613663	146.780000
255.706558	146.160000
255.799438	146.040000
255.892334	145.400000
255.985229	145.500000
256.078125	145.400000
256.171021	145.520000
256.263916	145.960000
256.356812	146.520000
256.449707	146.900000
256.542603	147.020000
256.635498	147.340000
256.728394	146.940000
256.821289	146.600000
256.914215	146.620000
257.007080	146.660000
257.100006	146.940000
257.192932	147.380000
257.285828	147.640000
257.378723	147.320000
257.471619	147.080000
257.564545	146.360000
257.657440	146.420000
257.750336	146.740000
257.843262	146.360000
257.936157	147.360000
258.029053	147.900000
258.121979	147.720000
258.214874	147.060000
258.307800	147.260000
258.400696	146.240000
258.493622	146.260000
258.586517	145.140000
258.679443	145.540000
258.772339	145.180000
258.865265	145.100000
258.958160	144.400000
259.051086	145.880000
259.144012	145.720000
259.236938	146.560000
259.329834	146.600000
259.422791	146.760000
259.515717	146.040000
259.608612	146.080000
259.701538	146.020000
259.794464	146.140000
259.887390	146.240000
259.980316	146.160000
260.073212	145.560000
260.166138	144.720000
260.259064	144.960000
260.351990	145.520000
260.444916	145.220000
260.537842	146.020000
260.630768	146.900000
260.723694	146.740000
260.816620	146.300000
260.909546	146.600000
261.002472	146.120000
261.095398	145.400000
261.188354	145.480000
261.281281	144.980000
261.374207	145.080000
261.467133	145.920000
261.560089	146.100000
261.653015	146.040000
261.745972	147.020000
261.838867	147.340000
261.931824	147.140000
262.024780	146.740000
262.117706	146.920000
262.210663	146.620000
262.303589	146.340000
262.396515	146.300000
262.489471	147.380000
262.582397	147.060000
262.675354	146.880000
262.768280	146.940000
262.861237	146.720000
262.954163	146.560000
263.047119	146.720000
263.140045	146.440000
263.233002	146.640000
263.325958	146.400000
263.418884	145.660000
263.511841	145.680000
263.604797	145.800000
263.697723	145.700000
263.790680	146.100000
263.883636	146.360000
263.976593	146.000000
264.069550	146.060000
264.162476	145.680000
264.255463	145.280000
264.348419	145.400000
264.441376	145.980000
264.534332	145.560000
264.627289	145.960000
264.720245	146.580000
264.813202	146.060000
264.906158	146.140000
264.999115	146.700000
265.092072	146.260000
265.185028	146.440000
265.277985	147.140000
265.370941	147.020000
265.463898	146.880000
265.556854	146.880000
265.649811	145.840000
265.742798	145.680000
265.835754	145.540000
265.928711	145.960000
266.021667	146.140000
266.114655	146.460000
266.207611	146.680000
266.300568	146.420000
266.393585	146.020000
266.486511	146.360000
266.579498	146.060000
266.672485	145.820000
266.765442	145.740000
266.858429	146.280000
266.951385	145.860000
267.044342	146.200000
267.137329	146.240000
267.230316	146.320000
267.323273	145.800000
267.416260	146.400000
267.509216	146.500000
267.602203	146.340000
267.695160	147.000000
267.788147	146.960000
267.881134	146.320000
267.974091	146.340000
268.067078	146.400000
268.160065	145.820000
268.253052	145.660000
268.346008	145.860000
268.438995	145.520000
268.531982	145.800000
268.624969	145.700000
268.717987	145.980000
268.810944	146.000000
268.903961	146.200000
268.996948	145.420000
269.089905	145.820000
269.182892	145.980000
269.275879	146.240000
269.368866	145.960000
269.461853	146.360000
269.554871	146.520000
269.647858	146.380000
269.740845	146.580000
269.833832	146.860000
269.926819	146.740000
270.019806	146.680000
270.112793	146.280000
270.205811	146.160000
270.298798	145.960000
270.391785	146.940000
270.484772	146.420000
270.577789	146.660000
270.670776	146.220000
270.763763	146.420000
270.856750	145.980000
270.949768	146.000000
271.042786	146.040000
271.135773	145.940000
271.228790	145.940000
271.321808	145.220000
271.414795	144.960000
271.507782	144.680000
271.600800	144.620000
271.693817	144.900000
271.786804	145.640000
271.879822	146.040000
271.972809	146.320000
272.065826	147.020000
272.158844	146.420000
272.251831	146.880000
272.344849	146.880000
272.437866	146.360000
272.530853	146.200000
272.623871	146.620000
272.716888	145.480000
272.809906	145.760000
272.902893	145.780000
272.995911	144.980000
273.088928	145.100000
273.181946	145.600000
273.274963	145.300000
273.367981	145.660000
273.460999	146.100000
273.554047	146.120000
273.647003	146.580000
273.740051	146.540000
273.833069	146.760000
273.926086	147.180000
274.019135	146.760000
274.112152	146.380000
274.205170	146.460000
274.298187	146.880000
274.391205	146.060000
274.484222	146.220000
274.577240	145.940000
274.670258	145.960000
274.763306	145.320000
274.856323	145.840000
274.949341	146.060000
275.042358	146.320000
275.135406	146.020000
275.228424	146.120000
275.321442	146.060000
275.414490	145.540000
275.507507	145.840000
275.600525	146.240000
275.693573	146.000000
275.786591	145.960000
275.879669	146.320000
275.972656	145.900000
276.065735	145.780000
276.158752	146.520000
276.251801	147.320000
276.344818	147.540000
276.437866	147.680000
276.530884	147.620000
276.623932	146.600000
276.716980	146.200000
276.809998	146.120000
276.903046	146.060000
276.996094	146.760000
277.089111	147.900000
277.182159	148.100000
277.275208	147.560000
277.368256	147.560000
277.461304	147.160000
277.554321	146.280000
277.647369	146.200000
277.740417	146.460000
277.833466	146.160000
277.926514	145.980000
278.019562	146.500000
278.112610	145.620000
278.205688	145.980000
278.298706	146.300000
278.391785	145.920000
278.484833	145.540000
278.577881	145.980000
278.670929	146.020000
278.763977	146.020000
278.857025	146.960000
278.950073	147.000000
279.043121	146.760000
279.136169	146.720000
279.229248	146.300000
279.322296	145.840000
279.415344	145.680000
279.508392	145.620000
279.601440	145.340000
279.694519	145.780000
279.787567	145.460000
279.880615	145.340000
279.973694	145.600000
280.066742	145.600000
280.159790	145.580000
280.252869	145.440000
280.345917	145.960000
280.438995	145.680000
280.532074	145.620000
280.625122	145.880000
280.718201	146.860000
280.811279	146.680000
280.904327	147.020000
280.997406	147.240000
281.090454	147.020000
281.183533	146.580000
281.276581	146.420000
281.369659	145.820000
281.462738	145.820000
281.555786	145.960000
281.648865	145.880000
281.741943	145.920000
281.835022	146.940000
281.928070	146.860000
282.021149	146.480000
282.114227	146.240000
282.207306	146.220000
282.300385	146.180000
282.393433	146.380000
282.486511	146.440000
282.579590	147.180000
282.672668	147.340000
282.765747	146.480000
282.858856	145.860000
282.951904	146.200000
283.045013	145.920000
283.138062	146.160000
283.231171	146.720000
283.324249	147.320000
283.417328	146.980000
283.510406	146.480000
283.603485	146.340000
283.696564	146.460000
283.789642	146.220000
283.882751	146.220000
283.975830	146.660000
284.068909	146.380000
284.161987	146.860000
284.255066	146.480000
284.348175	146.620000
284.441254	146.660000
284.534332	147.060000
284.627441	146.260000
284.720520	146.460000
284.813599	146.480000
284.906708	146.360000
284.999786	145.520000
285.092896	145.200000
285.185974	145.920000
285.279053	145.500000
285.372192	145.420000
285.465240	146.440000
285.558380	146.620000
285.651459	146.140000
285.744568	146.920000
285.837677	146.520000
285.930756	146.180000
286.023865	146.280000
286.116943	146.100000
286.210052	146.240000
286.303162	146.440000
286.396240	146.380000
286.489349	146.300000
286.582458	146.720000
286.675568	146.120000
286.768646	146.540000
286.861755	146.860000
286.954865	147.700000
287.047974	147.020000
287.141083	146.820000
287.234161	146.340000
287.327271	146.180000
287.420380	145.960000
287.513519	146.180000
287.606598	146.440000
287.699738	146.700000
287.792816	146.560000
287.885956	146.400000
287.979034	146.360000
288.072174	146.480000
288.165283	146.460000
288.258392	146.840000
288.351501	146.440000
288.444611	146.740000
288.537720	147.060000
288.630859	146.880000
288.723969	146.720000
288.817078	146.960000
288.910187	146.820000
289.003296	146.200000
289.096436	145.880000
289.189545	145.480000
289.282654	145.100000
289.375763	145.580000
289.468903	145.820000
289.562012	146.340000
289.655121	146.520000
289.748260	146.860000
289.841400	146.680000
289.934509	146.640000
290.027649	146.760000
290.120728	146.580000
290.213898	146.600000
290.306976	146.600000
290.400146	146.720000
290.493256	146.140000
290.586395	146.580000
290.679535	146.800000
290.772644	146.100000
290.865784	145.480000
290.958893	145.400000
291.052032	145.300000
291.145172	145.080000
291.238281	145.320000
291.331421	145.440000
291.424561	146.060000
291.517670	145.520000
291.610809	145.660000
291.703949	145.340000
291.797089	145.600000
291.890228	145.180000
291.983337	145.140000
292.076477	144.760000
292.169617	145.420000
292.262756	145.500000
292.355927	145.420000
292.449036	145.540000
292.542206	145.760000
292.635315	145.460000
292.728485	145.420000
292.821625	145.420000
292.914764	146.560000
293.007904	146.660000
293.101044	146.820000
293.194183	146.780000
293.287323	147.000000
293.380463	146.240000
293.473602	145.980000
293.566742	146.280000
293.659882	146.960000
293.753021	147.240000
293.846191	146.920000
293.939331	146.720000
294.032471	146.280000
294.125610	145.760000
294.218781	145.820000
294.311920	146.400000
294.405060	146.700000
294.498230	146.960000
294.591370	146.880000
294.684540	146.160000
294.777679	145.760000
294.870850	146.240000
294.963959	145.860000
295.057159	145.480000
295.150299	145.940000
295.243469	145.740000
295.336609	145.020000
295.429779	145.120000
295.522919	145.740000
295.616089	145.880000
295.709229	146.560000
295.802399	146.760000
295.895569	146.520000
295.988708	146.260000
296.081879	146.260000
296.175018	145.500000
296.268188	145.520000
296.361359	146.120000
296.454529	146.340000
296.547668	146.300000
296.640839	146.580000
296.734009	146.540000
296.827179	146.540000
296.920319	146.780000
297.013519	146.440000
297.106659	146.680000
297.199860	146.540000
297.292999	146.300000
297.386200	145.740000
297.479309	145.560000
297.572510	145.600000
297.665680	145.500000
297.758850	145.780000
297.852020	145.840000
297.945190	145.920000
298.038361	145.560000
298.131531	146.360000
298.224701	145.980000
298.317871	145.700000
298.411072	145.380000
298.504242	145.260000
298.597412	144.740000
298.690582	145.280000
298.783752	145.340000
298.876923	146.060000
298.970093	146.280000
299.063293	146.860000
299.156464	146.660000
299.249634	146.980000
299.342834	146.980000
299.436005	146.920000
299.529205	146.480000
299.622345	146.720000
299.715576	146.140000
299.808716	146.000000
299.901917	145.960000
299.995117	145.920000
300.088287	145.680000
300.181488	145.720000
300.274658	145.320000
300.367828	145.280000
300.461029	145.300000
300.554199	145.740000
300.647400	145.960000
300.740601	146.560000
300.833771	146.580000
300.926971	146.720000
301.020142	146.100000
301.113342	146.120000
301.206512	146.240000
301.299713	146.600000
301.392914	146.380000
301.486084	146.640000
301.579285	146.520000
301.672516	146.420000
301.765686	145.920000
301.858887	145.760000
301.952057	145.540000
302.045288	145.620000
302.138458	145.480000
302.231659	145.320000
302.324860	145.360000
302.418060	145.040000
302.511261	145.040000
302.604462	145.340000
302.697662	145.600000
302.790863	145.400000
302.884064	145.460000
302.977264	145.440000
303.070465	145.480000
303.163666	146.100000
303.256866	146.740000
303.350067	146.860000
303.443268	146.800000
303.536469	146.780000
303.629669	146.060000
303.722870	145.800000
303.816071	145.580000
303.909271	145.800000
304.002472	145.200000
304.095673	145.260000
304.188934	144.680000
304.282104	145.560000
304.375336	145.340000
304.468506	145.360000
304.561768	145.140000
304.654968	145.980000
304.748169	145.360000
304.841370	145.400000
304.934601	145.680000
305.027802	145.760000
305.121002	145.500000
305.214233	145.580000
305.307434	145.580000
305.400665	146.340000
305.493866	146.140000
