Model Number: SPM-002-B   
Serial Number: 70087108
Firmware Version: 004.15.4
Exposure Time: 100000.000000us
Data Taken on: 11-12-2020 19:36:57.478
Wavelength	Amplitude
221.570786	0.000000
221.663406	0.000000
221.756027	0.000000
221.848648	0.000000
221.941269	0.000000
222.033905	0.000000
222.126526	0.000000
222.219162	0.000000
222.311798	0.000000
222.404419	0.000000
222.497055	0.000000
222.589676	0.000000
222.682312	0.000000
222.774933	0.000000
222.867569	0.000000
222.960205	0.000000
223.052841	0.000000
223.145462	0.000000
223.238098	0.000000
223.330734	0.000000
223.423386	0.000000
223.516022	0.000000
223.608658	0.000000
223.701309	0.000000
223.793945	0.000000
223.886581	0.000000
223.979218	0.000000
224.071869	0.000000
224.164505	0.000000
224.257156	0.000000
224.349792	0.000000
224.442444	0.000000
224.535095	0.000000
224.627747	0.000000
224.720398	0.000000
224.813034	0.000000
224.905685	0.000000
224.998337	145.620000
225.090988	145.580000
225.183640	145.820000
225.276291	145.120000
225.368942	145.300000
225.461594	145.640000
225.554245	145.520000
225.646912	145.180000
225.739578	145.720000
225.832230	145.980000
225.924896	145.280000
226.017548	145.580000
226.110199	146.280000
226.202866	145.800000
226.295532	145.660000
226.388184	145.820000
226.480850	145.560000
226.573517	145.080000
226.666168	145.480000
226.758835	145.760000
226.851501	146.600000
226.944183	146.640000
227.036850	146.200000
227.129517	145.960000
227.222183	146.100000
227.314850	145.980000
227.407516	146.200000
227.500198	147.200000
227.592865	146.960000
227.685532	146.620000
227.778214	146.460000
227.870880	146.480000
227.963562	146.560000
228.056229	147.200000
228.148926	147.040000
228.241592	147.540000
228.334274	147.400000
228.426956	147.220000
228.519638	146.940000
228.612305	146.700000
228.704987	146.220000
228.797668	146.240000
228.890350	146.000000
228.983032	145.560000
229.075714	146.220000
229.168396	146.100000
229.261108	145.680000
229.353790	145.500000
229.446472	145.700000
229.539169	145.320000
229.631851	144.860000
229.724533	145.140000
229.817230	145.260000
229.909912	146.080000
230.002609	146.380000
230.095306	146.380000
230.187988	146.340000
230.280685	146.200000
230.373383	145.080000
230.466095	145.040000
230.558792	145.700000
230.651474	145.600000
230.744171	145.540000
230.836868	145.800000
230.929581	145.840000
231.022278	145.680000
231.114975	145.940000
231.207672	145.720000
231.300369	146.000000
231.393082	145.560000
231.485779	145.380000
231.578506	145.300000
231.671204	145.560000
231.763916	145.500000
231.856613	145.620000
231.949326	145.800000
232.042023	145.520000
232.134735	145.480000
232.227448	145.140000
232.320160	145.480000
232.412872	145.600000
232.505585	146.640000
232.598297	146.960000
232.691010	147.000000
232.783722	146.400000
232.876450	147.000000
232.969162	146.200000
233.061874	145.600000
233.154587	145.340000
233.247314	145.540000
233.340027	144.620000
233.432739	145.140000
233.525467	145.520000
233.618179	146.220000
233.710907	146.060000
233.803635	146.680000
233.896347	146.340000
233.989090	146.720000
234.081818	146.280000
234.174545	146.680000
234.267258	146.020000
234.359985	146.100000
234.452713	145.960000
234.545441	146.000000
234.638168	145.740000
234.730896	146.180000
234.823639	146.060000
234.916367	146.040000
235.009094	146.100000
235.101822	146.160000
235.194580	145.920000
235.287308	145.760000
235.380051	145.360000
235.472778	145.580000
235.565521	145.820000
235.658249	145.540000
235.750992	145.640000
235.843719	145.860000
235.936462	146.080000
236.029205	145.620000
236.121948	145.580000
236.214691	145.900000
236.307449	146.660000
236.400192	146.120000
236.492935	146.100000
236.585678	146.340000
236.678421	146.260000
236.771164	145.360000
236.863907	146.060000
236.956665	146.300000
237.049408	147.720000
237.142151	147.220000
237.234909	148.180000
237.327652	148.080000
237.420410	148.000000
237.513153	147.120000
237.605927	147.280000
237.698669	146.780000
237.791428	145.860000
237.884186	146.340000
237.976944	145.780000
238.069702	146.280000
238.162445	145.960000
238.255203	146.220000
238.347961	146.460000
238.440720	146.660000
238.533478	146.180000
238.626266	145.900000
238.719025	146.320000
238.811783	146.000000
238.904541	145.500000
238.997314	145.220000
239.090073	145.180000
239.182831	145.380000
239.275604	146.100000
239.368362	146.300000
239.461136	146.620000
239.553909	146.580000
239.646667	146.200000
239.739441	145.500000
239.832214	146.120000
239.925003	146.440000
240.017761	146.980000
240.110535	147.580000
240.203308	147.120000
240.296082	146.980000
240.388855	146.760000
240.481628	146.940000
240.574417	146.800000
240.667191	147.060000
240.759964	146.600000
240.852737	146.620000
240.945526	145.880000
241.038315	145.460000
241.131088	145.720000
241.223877	145.840000
241.316650	145.420000
241.409439	145.780000
241.502228	145.640000
241.595001	145.560000
241.687790	145.460000
241.780579	145.580000
241.873367	145.960000
241.966141	146.240000
242.058929	145.700000
242.151718	146.100000
242.244507	146.600000
242.337311	145.660000
242.430099	145.900000
242.522903	146.400000
242.615692	145.940000
242.708481	145.740000
242.801270	146.640000
242.894073	146.840000
242.986862	146.880000
243.079651	147.540000
243.172455	147.060000
243.265244	147.160000
243.358063	146.260000
243.450867	146.480000
243.543655	146.060000
243.636459	146.400000
243.729263	146.440000
243.822067	146.900000
243.914856	147.160000
244.007660	147.180000
244.100464	147.180000
244.193268	146.560000
244.286072	146.420000
244.378876	145.720000
244.471680	145.420000
244.564499	145.660000
244.657318	146.460000
244.750122	146.680000
244.842926	146.180000
244.935745	146.900000
245.028549	146.440000
245.121368	145.960000
245.214172	145.960000
245.306992	146.900000
245.399796	146.420000
245.492615	146.540000
245.585434	146.380000
245.678253	146.160000
245.771072	145.620000
245.863892	146.080000
245.956711	146.500000
246.049530	146.320000
246.142349	146.380000
246.235168	146.700000
246.327988	146.600000
246.420807	146.280000
246.513626	146.560000
246.606445	146.300000
246.699280	146.100000
246.792099	145.880000
246.884918	145.500000
246.977753	145.340000
247.070587	145.680000
247.163422	145.660000
247.256241	145.700000
247.349075	146.380000
247.441895	146.260000
247.534729	146.020000
247.627563	145.920000
247.720383	146.400000
247.813217	146.300000
247.906052	146.060000
247.998886	146.080000
248.091736	145.960000
248.184570	145.400000
248.277405	145.080000
248.370239	146.180000
248.463074	146.940000
248.555908	147.340000
248.648743	147.380000
248.741592	147.560000
248.834427	146.680000
248.927261	145.960000
249.020111	146.100000
249.112946	146.640000
249.205795	146.320000
249.298630	146.820000
249.391495	146.500000
249.484344	146.300000
249.577179	146.120000
249.670029	146.460000
249.762878	146.660000
249.855728	147.080000
249.948563	147.200000
250.041412	146.660000
250.134262	146.820000
250.227112	146.740000
250.319962	146.780000
250.412827	146.500000
250.505692	146.040000
250.598541	146.120000
250.691391	145.880000
250.784241	145.780000
250.877106	145.980000
250.969955	146.240000
251.062805	146.400000
251.155670	146.800000
251.248520	146.800000
251.341385	147.020000
251.434235	147.020000
251.527100	146.620000
251.619965	145.980000
251.712814	146.640000
251.805695	146.400000
251.898560	146.640000
251.991425	146.860000
252.084290	147.080000
252.177155	146.260000
252.270020	146.100000
252.362885	146.380000
252.455750	146.200000
252.548615	145.660000
252.641479	145.640000
252.734360	145.240000
252.827240	144.600000
252.920105	144.600000
253.012970	144.900000
253.105850	145.000000
253.198715	145.100000
253.291595	145.200000
253.384460	144.820000
253.477341	144.960000
253.570221	145.020000
253.663086	144.880000
253.755966	145.800000
253.848846	145.880000
253.941727	146.040000
254.034592	145.900000
254.127472	145.700000
254.220367	145.400000
254.313248	145.400000
254.406128	144.740000
254.499008	145.100000
254.591904	146.180000
254.684784	146.340000
254.777664	146.560000
254.870544	146.740000
254.963440	146.560000
255.056335	146.060000
255.149216	145.580000
255.242111	146.100000
255.334991	146.380000
255.427887	146.480000
255.520767	146.760000
255.613663	147.020000
255.706558	146.420000
255.799438	146.000000
255.892334	146.020000
255.985229	146.020000
256.078125	145.720000
256.171021	145.960000
256.263916	146.780000
256.356812	146.940000
256.449707	146.700000
256.542603	146.460000
256.635498	146.620000
256.728394	145.960000
256.821289	145.560000
256.914215	145.700000
257.007080	146.040000
257.100006	146.220000
257.192932	146.960000
257.285828	147.140000
257.378723	147.240000
257.471619	147.060000
257.564545	146.240000
257.657440	146.120000
257.750336	146.440000
257.843262	146.200000
257.936157	147.360000
258.029053	147.900000
258.121979	147.760000
258.214874	147.440000
258.307800	147.500000
258.400696	146.380000
258.493622	146.400000
258.586517	145.500000
258.679443	145.740000
258.772339	145.240000
258.865265	145.340000
258.958160	144.880000
259.051086	146.240000
259.144012	146.160000
259.236938	146.900000
259.329834	147.140000
259.422791	147.100000
259.515717	146.200000
259.608612	145.820000
259.701538	145.740000
259.794464	145.380000
259.887390	145.680000
259.980316	145.600000
260.073212	145.620000
260.166138	144.840000
260.259064	145.020000
260.351990	145.440000
260.444916	145.700000
260.537842	146.160000
260.630768	146.940000
260.723694	147.040000
260.816620	146.760000
260.909546	146.900000
261.002472	146.520000
261.095398	146.260000
261.188354	146.340000
261.281281	146.160000
261.374207	145.980000
261.467133	146.520000
261.560089	146.620000
261.653015	146.320000
261.745972	146.920000
261.838867	147.360000
261.931824	147.340000
262.024780	147.020000
262.117706	147.360000
262.210663	147.460000
262.303589	147.200000
262.396515	147.180000
262.489471	147.960000
262.582397	147.680000
262.675354	146.800000
262.768280	146.820000
262.861237	146.580000
262.954163	146.300000
263.047119	146.460000
263.140045	146.340000
263.233002	146.280000
263.325958	146.000000
263.418884	145.280000
263.511841	145.060000
263.604797	145.300000
263.697723	145.180000
263.790680	145.440000
263.883636	146.240000
263.976593	146.320000
264.069550	146.400000
264.162476	146.040000
264.255463	146.160000
264.348419	145.780000
264.441376	146.060000
264.534332	145.580000
264.627289	146.400000
264.720245	146.600000
264.813202	146.220000
264.906158	146.280000
264.999115	147.080000
265.092072	146.700000
265.185028	146.960000
265.277985	147.520000
265.370941	147.220000
265.463898	146.820000
265.556854	146.620000
265.649811	145.500000
265.742798	145.240000
265.835754	145.200000
265.928711	145.540000
266.021667	145.640000
266.114655	146.120000
266.207611	146.280000
266.300568	146.020000
266.393585	145.500000
266.486511	145.660000
266.579498	145.200000
266.672485	145.120000
266.765442	145.280000
266.858429	146.000000
266.951385	145.680000
267.044342	146.040000
267.137329	145.960000
267.230316	146.080000
267.323273	145.280000
267.416260	146.040000
267.509216	145.920000
267.602203	145.800000
267.695160	145.940000
267.788147	146.120000
267.881134	145.480000
267.974091	145.620000
268.067078	145.560000
268.160065	145.560000
268.253052	145.480000
268.346008	145.700000
268.438995	145.780000
268.531982	146.140000
268.624969	145.640000
268.717987	146.300000
268.810944	146.160000
268.903961	146.060000
268.996948	145.720000
269.089905	146.580000
269.182892	146.300000
269.275879	146.420000
269.368866	146.160000
269.461853	146.380000
269.554871	146.140000
269.647858	146.120000
269.740845	146.280000
269.833832	146.840000
269.926819	146.860000
270.019806	146.860000
270.112793	146.620000
270.205811	146.540000
270.298798	146.260000
270.391785	146.800000
270.484772	146.440000
270.577789	146.780000
270.670776	146.240000
270.763763	146.360000
270.856750	146.220000
270.949768	145.820000
271.042786	145.520000
271.135773	145.820000
271.228790	145.880000
271.321808	145.340000
271.414795	145.400000
271.507782	145.280000
271.600800	145.220000
271.693817	145.260000
271.786804	145.760000
271.879822	146.440000
271.972809	146.540000
272.065826	147.080000
272.158844	146.760000
272.251831	147.260000
272.344849	146.860000
272.437866	146.720000
272.530853	146.560000
272.623871	146.660000
272.716888	145.240000
272.809906	145.480000
272.902893	145.520000
272.995911	145.020000
273.088928	144.940000
273.181946	145.680000
273.274963	145.380000
273.367981	145.440000
273.460999	145.500000
273.554047	146.040000
273.647003	146.360000
273.740051	146.480000
273.833069	147.000000
273.926086	147.520000
274.019135	147.060000
274.112152	146.600000
274.205170	146.720000
274.298187	146.680000
274.391205	145.940000
274.484222	146.260000
274.577240	146.360000
274.670258	146.260000
274.763306	145.960000
274.856323	146.860000
274.949341	146.760000
275.042358	147.220000
275.135406	147.060000
275.228424	147.020000
275.321442	146.520000
275.414490	145.940000
275.507507	146.160000
275.600525	146.420000
275.693573	146.040000
275.786591	145.800000
275.879669	146.560000
275.972656	146.000000
276.065735	145.860000
276.158752	146.660000
276.251801	147.560000
276.344818	147.400000
276.437866	147.400000
276.530884	147.380000
276.623932	146.440000
276.716980	146.720000
276.809998	146.660000
276.903046	146.620000
276.996094	147.360000
277.089111	148.060000
277.182159	147.820000
277.275208	147.320000
277.368256	147.080000
277.461304	146.580000
277.554321	146.020000
277.647369	145.720000
277.740417	145.980000
277.833466	145.940000
277.926514	145.920000
278.019562	146.720000
278.112610	146.160000
278.205688	146.220000
278.298706	146.660000
278.391785	146.180000
278.484833	145.740000
278.577881	145.520000
278.670929	146.040000
278.763977	145.520000
278.857025	146.260000
278.950073	146.140000
279.043121	146.460000
279.136169	145.820000
279.229248	145.860000
279.322296	145.420000
279.415344	145.300000
279.508392	145.160000
279.601440	145.160000
279.694519	145.160000
279.787567	145.380000
279.880615	145.640000
279.973694	145.780000
280.066742	146.040000
280.159790	146.340000
280.252869	146.020000
280.345917	145.700000
280.438995	145.680000
280.532074	145.700000
280.625122	145.900000
280.718201	146.900000
280.811279	147.200000
280.904327	147.260000
280.997406	147.240000
281.090454	147.220000
281.183533	146.440000
281.276581	146.380000
281.369659	146.200000
281.462738	146.260000
281.555786	146.540000
281.648865	146.580000
281.741943	146.320000
281.835022	147.000000
281.928070	146.620000
282.021149	146.180000
282.114227	146.020000
282.207306	146.440000
282.300385	146.400000
282.393433	146.700000
282.486511	146.740000
282.579590	147.400000
282.672668	147.240000
282.765747	146.520000
282.858856	146.360000
282.951904	146.600000
283.045013	146.260000
283.138062	146.460000
283.231171	146.940000
283.324249	147.400000
283.417328	147.340000
283.510406	146.800000
283.603485	146.640000
283.696564	146.300000
283.789642	146.040000
283.882751	145.520000
283.975830	146.560000
284.068909	146.160000
284.161987	146.760000
284.255066	146.180000
284.348175	146.660000
284.441254	145.780000
284.534332	146.420000
284.627441	145.940000
284.720520	145.560000
284.813599	145.580000
284.906708	145.860000
284.999786	145.080000
285.092896	144.900000
285.185974	146.420000
285.279053	145.760000
285.372192	145.980000
285.465240	146.720000
285.558380	146.600000
285.651459	145.920000
285.744568	146.880000
285.837677	146.300000
285.930756	146.140000
286.023865	146.380000
286.116943	146.140000
286.210052	146.100000
286.303162	146.300000
286.396240	146.280000
286.489349	146.200000
286.582458	146.580000
286.675568	146.160000
286.768646	146.260000
286.861755	146.880000
286.954865	147.540000
287.047974	147.100000
287.141083	146.820000
287.234161	146.620000
287.327271	145.860000
287.420380	145.920000
287.513519	145.840000
287.606598	146.040000
287.699738	146.200000
287.792816	146.100000
287.885956	145.580000
287.979034	145.620000
288.072174	145.700000
288.165283	145.480000
288.258392	146.000000
288.351501	145.500000
288.444611	145.900000
288.537720	146.140000
288.630859	146.220000
288.723969	145.940000
288.817078	146.780000
288.910187	146.580000
289.003296	145.740000
289.096436	145.760000
289.189545	145.660000
289.282654	145.040000
289.375763	145.300000
289.468903	146.200000
289.562012	146.300000
289.655121	146.500000
289.748260	146.620000
289.841400	146.660000
289.934509	146.320000
290.027649	146.420000
290.120728	146.140000
290.213898	146.280000
290.306976	146.080000
290.400146	146.240000
290.493256	145.600000
290.586395	145.900000
290.679535	146.100000
290.772644	146.140000
290.865784	145.460000
290.958893	146.020000
291.052032	145.700000
291.145172	145.360000
291.238281	145.020000
291.331421	145.460000
291.424561	145.760000
291.517670	145.660000
291.610809	145.800000
291.703949	145.820000
291.797089	145.680000
291.890228	144.960000
291.983337	145.040000
292.076477	144.840000
292.169617	145.140000
292.262756	145.100000
292.355927	145.220000
292.449036	145.020000
292.542206	145.300000
292.635315	145.420000
292.728485	145.860000
292.821625	145.680000
292.914764	146.720000
293.007904	146.720000
293.101044	146.620000
293.194183	146.360000
293.287323	146.740000
293.380463	145.880000
293.473602	145.600000
293.566742	145.800000
293.659882	146.340000
293.753021	146.420000
293.846191	146.740000
293.939331	146.880000
294.032471	146.340000
294.125610	145.940000
294.218781	146.180000
294.311920	146.420000
294.405060	146.480000
294.498230	146.840000
294.591370	146.800000
294.684540	146.360000
294.777679	145.820000
294.870850	146.440000
294.963959	146.320000
295.057159	146.300000
295.150299	146.720000
295.243469	146.780000
295.336609	145.840000
295.429779	145.940000
295.522919	146.320000
295.616089	145.960000
295.709229	146.440000
295.802399	146.720000
295.895569	146.260000
295.988708	145.920000
296.081879	146.220000
296.175018	145.720000
296.268188	145.960000
296.361359	147.020000
296.454529	147.100000
296.547668	146.800000
296.640839	147.100000
296.734009	146.660000
296.827179	146.300000
296.920319	146.660000
297.013519	146.480000
297.106659	146.300000
297.199860	146.280000
297.292999	146.080000
297.386200	145.620000
297.479309	145.660000
297.572510	145.680000
297.665680	145.400000
297.758850	145.640000
297.852020	145.400000
297.945190	145.400000
298.038361	145.320000
298.131531	146.420000
298.224701	145.920000
298.317871	145.780000
298.411072	145.280000
298.504242	145.340000
298.597412	144.700000
298.690582	145.280000
298.783752	145.480000
298.876923	146.280000
298.970093	146.320000
299.063293	146.760000
299.156464	146.440000
299.249634	146.820000
299.342834	146.780000
299.436005	146.960000
299.529205	146.620000
299.622345	146.860000
299.715576	146.200000
299.808716	145.940000
299.901917	145.800000
299.995117	145.960000
300.088287	146.160000
300.181488	146.240000
300.274658	146.160000
300.367828	146.260000
300.461029	146.320000
300.554199	146.340000
300.647400	146.640000
300.740601	147.320000
300.833771	147.020000
300.926971	147.300000
301.020142	146.700000
301.113342	146.540000
301.206512	146.380000
301.299713	146.560000
301.392914	146.140000
301.486084	146.480000
301.579285	146.520000
301.672516	146.680000
301.765686	146.760000
301.858887	147.000000
301.952057	146.960000
302.045288	146.980000
302.138458	146.540000
302.231659	146.120000
302.324860	145.700000
302.418060	145.320000
302.511261	145.160000
302.604462	145.640000
302.697662	145.940000
302.790863	145.820000
302.884064	145.720000
302.977264	145.800000
303.070465	145.980000
303.163666	146.300000
303.256866	146.740000
303.350067	147.060000
303.443268	147.080000
303.536469	146.760000
303.629669	146.380000
303.722870	146.580000
303.816071	146.300000
303.909271	146.400000
304.002472	145.740000
304.095673	145.780000
304.188934	144.980000
304.282104	145.880000
304.375336	145.720000
304.468506	145.820000
304.561768	145.260000
304.654968	145.860000
304.748169	145.040000
304.841370	145.180000
304.934601	145.660000
305.027802	145.860000
305.121002	145.360000
305.214233	145.440000
305.307434	145.420000
305.400665	145.780000
305.493866	145.520000
