Model Number: SPM-002-B   
Serial Number: 70087108
Firmware Version: 004.15.4
Exposure Time: 100000.000000us
Data Taken on: 11-12-2020 19:37:13.938
Wavelength	Amplitude
221.570786	0.000000
221.663406	0.000000
221.756027	0.000000
221.848648	0.000000
221.941269	0.000000
222.033905	0.000000
222.126526	0.000000
222.219162	0.000000
222.311798	0.000000
222.404419	0.000000
222.497055	0.000000
222.589676	0.000000
222.682312	0.000000
222.774933	0.000000
222.867569	0.000000
222.960205	0.000000
223.052841	0.000000
223.145462	0.000000
223.238098	0.000000
223.330734	0.000000
223.423386	0.000000
223.516022	0.000000
223.608658	0.000000
223.701309	0.000000
223.793945	0.000000
223.886581	0.000000
223.979218	0.000000
224.071869	0.000000
224.164505	0.000000
224.257156	0.000000
224.349792	0.000000
224.442444	0.000000
224.535095	0.000000
224.627747	0.000000
224.720398	0.000000
224.813034	0.000000
224.905685	0.000000
224.998337	145.260000
225.090988	145.100000
225.183640	144.680000
225.276291	144.400000
225.368942	145.120000
225.461594	145.720000
225.554245	146.140000
225.646912	146.540000
225.739578	147.100000
225.832230	147.400000
225.924896	146.480000
226.017548	146.820000
226.110199	147.260000
226.202866	146.520000
226.295532	146.120000
226.388184	146.180000
226.480850	145.320000
226.573517	144.360000
226.666168	144.960000
226.758835	145.340000
226.851501	145.880000
226.944183	146.120000
227.036850	146.240000
227.129517	146.100000
227.222183	146.020000
227.314850	146.060000
227.407516	146.300000
227.500198	147.180000
227.592865	147.020000
227.685532	146.600000
227.778214	146.400000
227.870880	146.380000
227.963562	146.500000
228.056229	146.800000
228.148926	146.980000
228.241592	147.400000
228.334274	147.260000
228.426956	146.740000
228.519638	146.760000
228.612305	146.440000
228.704987	146.580000
228.797668	146.620000
228.890350	146.740000
228.983032	146.040000
229.075714	146.740000
229.168396	146.140000
229.261108	145.880000
229.353790	145.660000
229.446472	146.140000
229.539169	145.820000
229.631851	145.680000
229.724533	145.900000
229.817230	146.100000
229.909912	147.260000
230.002609	147.300000
230.095306	147.460000
230.187988	147.480000
230.280685	147.400000
230.373383	145.960000
230.466095	145.800000
230.558792	145.980000
230.651474	145.920000
230.744171	145.680000
230.836868	145.900000
230.929581	146.060000
231.022278	145.860000
231.114975	145.940000
231.207672	145.720000
231.300369	146.080000
231.393082	146.260000
231.485779	146.000000
231.578506	145.780000
231.671204	146.100000
231.763916	145.880000
231.856613	145.480000
231.949326	145.960000
232.042023	146.000000
232.134735	146.100000
232.227448	145.760000
232.320160	146.040000
232.412872	146.040000
232.505585	146.740000
232.598297	147.100000
232.691010	146.820000
232.783722	146.680000
232.876450	147.080000
232.969162	146.700000
233.061874	145.980000
233.154587	145.920000
233.247314	146.100000
233.340027	145.500000
233.432739	145.860000
233.525467	145.800000
233.618179	146.340000
233.710907	146.020000
233.803635	146.460000
233.896347	146.240000
233.989090	147.260000
234.081818	147.060000
234.174545	147.240000
234.267258	146.920000
234.359985	146.860000
234.452713	146.460000
234.545441	146.500000
234.638168	146.360000
234.730896	146.680000
234.823639	146.480000
234.916367	146.740000
235.009094	146.680000
235.101822	146.780000
235.194580	146.540000
235.287308	146.680000
235.380051	146.000000
235.472778	146.420000
235.565521	146.900000
235.658249	146.580000
235.750992	146.620000
235.843719	146.960000
235.936462	146.780000
236.029205	145.940000
236.121948	145.960000
236.214691	146.120000
236.307449	146.600000
236.400192	146.460000
236.492935	146.680000
236.585678	146.740000
236.678421	146.440000
236.771164	146.100000
236.863907	146.580000
236.956665	146.820000
237.049408	148.300000
237.142151	147.880000
237.234909	148.260000
237.327652	148.060000
237.420410	147.900000
237.513153	146.960000
237.605927	147.260000
237.698669	146.660000
237.791428	146.040000
237.884186	146.580000
237.976944	146.060000
238.069702	146.160000
238.162445	145.960000
238.255203	146.260000
238.347961	146.220000
238.440720	146.500000
238.533478	146.280000
238.626266	145.980000
238.719025	146.320000
238.811783	146.200000
238.904541	145.800000
238.997314	145.800000
239.090073	145.720000
239.182831	145.860000
239.275604	146.380000
239.368362	146.180000
239.461136	146.220000
239.553909	146.420000
239.646667	146.300000
239.739441	145.880000
239.832214	146.540000
239.925003	146.940000
240.017761	147.680000
240.110535	147.980000
240.203308	147.440000
240.296082	147.260000
240.388855	147.140000
240.481628	147.280000
240.574417	147.320000
240.667191	147.700000
240.759964	147.340000
240.852737	147.040000
240.945526	146.320000
241.038315	145.920000
241.131088	145.920000
241.223877	146.360000
241.316650	145.980000
241.409439	146.280000
241.502228	146.140000
241.595001	146.440000
241.687790	146.160000
241.780579	146.620000
241.873367	146.680000
241.966141	146.960000
242.058929	146.220000
242.151718	146.820000
242.244507	147.240000
242.337311	146.620000
242.430099	146.680000
242.522903	146.980000
242.615692	146.260000
242.708481	145.900000
242.801270	146.580000
242.894073	146.420000
242.986862	146.440000
243.079651	147.200000
243.172455	146.880000
243.265244	146.880000
243.358063	146.400000
243.450867	146.780000
243.543655	146.560000
243.636459	147.120000
243.729263	147.200000
243.822067	147.680000
243.914856	147.920000
244.007660	147.840000
244.100464	147.340000
244.193268	146.860000
244.286072	146.700000
244.378876	145.880000
244.471680	145.440000
244.564499	146.000000
244.657318	146.620000
244.750122	146.900000
244.842926	146.680000
244.935745	147.140000
245.028549	146.560000
245.121368	146.200000
245.214172	146.120000
245.306992	146.640000
245.399796	146.320000
245.492615	146.640000
245.585434	146.420000
245.678253	146.140000
245.771072	145.940000
245.863892	146.340000
245.956711	146.700000
246.049530	146.440000
246.142349	146.280000
246.235168	146.300000
246.327988	146.720000
246.420807	146.120000
246.513626	146.260000
246.606445	146.120000
246.699280	146.060000
246.792099	145.500000
246.884918	145.280000
246.977753	144.920000
247.070587	145.060000
247.163422	145.200000
247.256241	145.080000
247.349075	145.580000
247.441895	145.880000
247.534729	146.020000
247.627563	145.540000
247.720383	146.140000
247.813217	146.080000
247.906052	146.060000
247.998886	146.040000
248.091736	146.340000
248.184570	145.740000
248.277405	145.680000
248.370239	146.760000
248.463074	147.760000
248.555908	147.940000
248.648743	147.800000
248.741592	147.980000
248.834427	147.020000
248.927261	145.720000
249.020111	146.100000
249.112946	146.500000
249.205795	145.920000
249.298630	146.020000
249.391495	146.420000
249.484344	146.160000
249.577179	146.280000
249.670029	146.700000
249.762878	147.140000
249.855728	147.040000
249.948563	146.780000
250.041412	146.260000
250.134262	146.600000
250.227112	146.380000
250.319962	146.640000
250.412827	146.760000
250.505692	146.580000
250.598541	146.280000
250.691391	145.960000
250.784241	145.780000
250.877106	146.260000
250.969955	146.220000
251.062805	146.700000
251.155670	147.180000
251.248520	147.040000
251.341385	146.760000
251.434235	146.620000
251.527100	146.220000
251.619965	146.100000
251.712814	146.900000
251.805695	146.960000
251.898560	147.380000
251.991425	147.380000
252.084290	147.440000
252.177155	146.560000
252.270020	146.300000
252.362885	146.080000
252.455750	146.080000
252.548615	145.800000
252.641479	146.060000
252.734360	146.120000
252.827240	146.160000
252.920105	146.360000
253.012970	146.340000
253.105850	146.320000
253.198715	145.980000
253.291595	146.360000
253.384460	146.020000
253.477341	145.800000
253.570221	146.120000
253.663086	145.920000
253.755966	146.380000
253.848846	146.340000
253.941727	146.640000
254.034592	146.440000
254.127472	146.180000
254.220367	145.880000
254.313248	146.040000
254.406128	145.640000
254.499008	145.960000
254.591904	147.000000
254.684784	147.360000
254.777664	147.240000
254.870544	147.560000
254.963440	147.080000
255.056335	146.960000
255.149216	146.300000
255.242111	146.800000
255.334991	147.120000
255.427887	147.060000
255.520767	147.120000
255.613663	147.420000
255.706558	146.900000
255.799438	146.420000
255.892334	146.240000
255.985229	145.900000
256.078125	145.440000
256.171021	145.560000
256.263916	146.100000
256.356812	146.720000
256.449707	146.860000
256.542603	147.020000
256.635498	147.300000
256.728394	146.940000
256.821289	146.580000
256.914215	146.780000
257.007080	147.260000
257.100006	147.140000
257.192932	147.680000
257.285828	147.960000
257.378723	147.520000
257.471619	146.760000
257.564545	146.420000
257.657440	146.140000
257.750336	146.500000
257.843262	146.400000
257.936157	147.620000
258.029053	148.140000
258.121979	148.020000
258.214874	147.580000
258.307800	147.640000
258.400696	146.820000
258.493622	146.360000
258.586517	145.660000
258.679443	145.920000
258.772339	145.980000
258.865265	145.740000
258.958160	145.420000
259.051086	146.620000
259.144012	146.080000
259.236938	146.900000
259.329834	147.080000
259.422791	147.200000
259.515717	146.740000
259.608612	146.660000
259.701538	146.240000
259.794464	146.060000
259.887390	146.060000
259.980316	145.620000
260.073212	145.780000
260.166138	144.880000
260.259064	145.320000
260.351990	146.160000
260.444916	146.240000
260.537842	146.480000
260.630768	147.380000
260.723694	147.360000
260.816620	146.820000
260.909546	146.820000
261.002472	146.260000
261.095398	145.520000
261.188354	145.240000
261.281281	145.060000
261.374207	145.300000
261.467133	146.260000
261.560089	146.660000
261.653015	146.480000
261.745972	147.120000
261.838867	147.580000
261.931824	147.340000
262.024780	146.780000
262.117706	147.160000
262.210663	147.060000
262.303589	146.780000
262.396515	146.880000
262.489471	148.060000
262.582397	147.880000
262.675354	147.320000
262.768280	147.100000
262.861237	147.020000
262.954163	146.480000
263.047119	146.540000
263.140045	146.700000
263.233002	146.560000
263.325958	146.360000
263.418884	146.080000
263.511841	146.520000
263.604797	146.460000
263.697723	146.900000
263.790680	146.720000
263.883636	147.120000
263.976593	146.560000
264.069550	146.620000
264.162476	146.180000
264.255463	146.420000
264.348419	146.400000
264.441376	146.880000
264.534332	146.600000
264.627289	146.800000
264.720245	147.280000
264.813202	146.620000
264.906158	146.460000
264.999115	147.060000
265.092072	146.980000
265.185028	147.260000
265.277985	147.720000
265.370941	147.420000
265.463898	146.960000
265.556854	146.580000
265.649811	145.360000
265.742798	145.280000
265.835754	145.400000
265.928711	145.720000
266.021667	145.960000
266.114655	146.380000
266.207611	146.920000
266.300568	146.500000
266.393585	145.900000
266.486511	146.060000
266.579498	145.420000
266.672485	144.860000
266.765442	144.940000
266.858429	145.740000
266.951385	145.420000
267.044342	145.800000
267.137329	145.940000
267.230316	146.360000
267.323273	146.000000
267.416260	146.880000
267.509216	146.900000
267.602203	146.940000
267.695160	147.220000
267.788147	147.040000
267.881134	146.380000
267.974091	146.600000
268.067078	146.440000
268.160065	146.040000
268.253052	146.160000
268.346008	146.280000
268.438995	146.160000
268.531982	146.260000
268.624969	146.260000
268.717987	146.500000
268.810944	146.460000
268.903961	146.460000
268.996948	146.220000
269.089905	146.340000
269.182892	146.320000
269.275879	146.440000
269.368866	145.800000
269.461853	146.060000
269.554871	146.320000
269.647858	146.120000
269.740845	146.260000
269.833832	146.800000
269.926819	146.500000
270.019806	146.520000
270.112793	146.340000
270.205811	146.300000
270.298798	146.000000
270.391785	146.820000
270.484772	146.400000
270.577789	146.600000
270.670776	146.500000
270.763763	146.740000
270.856750	146.600000
270.949768	146.440000
271.042786	146.340000
271.135773	146.140000
271.228790	146.240000
271.321808	145.680000
271.414795	145.320000
271.507782	144.960000
271.600800	144.960000
271.693817	145.200000
271.786804	145.540000
271.879822	146.100000
271.972809	146.240000
272.065826	146.660000
272.158844	146.160000
272.251831	147.020000
272.344849	146.680000
272.437866	146.440000
272.530853	146.500000
272.623871	146.860000
272.716888	145.380000
272.809906	145.920000
272.902893	146.180000
272.995911	145.280000
273.088928	145.260000
273.181946	145.600000
273.274963	145.160000
273.367981	145.240000
273.460999	145.620000
273.554047	145.900000
273.647003	146.660000
273.740051	146.580000
273.833069	146.840000
273.926086	147.120000
274.019135	146.800000
274.112152	146.340000
274.205170	146.600000
274.298187	146.880000
274.391205	145.920000
274.484222	145.900000
274.577240	145.960000
274.670258	145.820000
274.763306	145.500000
274.856323	146.460000
274.949341	146.500000
275.042358	146.820000
275.135406	146.800000
275.228424	146.600000
275.321442	146.540000
275.414490	146.180000
275.507507	146.320000
275.600525	146.820000
275.693573	146.720000
275.786591	146.480000
275.879669	146.880000
275.972656	146.060000
276.065735	145.540000
276.158752	146.080000
276.251801	146.540000
276.344818	146.500000
276.437866	146.720000
276.530884	146.800000
276.623932	146.220000
276.716980	146.260000
276.809998	146.240000
276.903046	146.320000
276.996094	147.040000
277.089111	147.640000
277.182159	148.040000
277.275208	148.240000
277.368256	148.140000
277.461304	147.740000
277.554321	147.140000
277.647369	146.740000
277.740417	146.580000
277.833466	146.660000
277.926514	146.700000
278.019562	147.300000
278.112610	146.740000
278.205688	146.860000
278.298706	146.900000
278.391785	146.720000
278.484833	146.100000
278.577881	146.240000
278.670929	146.420000
278.763977	146.700000
278.857025	146.660000
278.950073	146.580000
279.043121	146.540000
279.136169	146.120000
279.229248	145.440000
279.322296	145.660000
279.415344	146.200000
279.508392	146.020000
279.601440	146.260000
279.694519	146.240000
279.787567	145.960000
279.880615	145.520000
279.973694	145.460000
280.066742	145.080000
280.159790	145.280000
280.252869	145.300000
280.345917	145.660000
280.438995	145.740000
280.532074	146.020000
280.625122	146.360000
280.718201	147.040000
280.811279	147.020000
280.904327	147.160000
280.997406	147.360000
281.090454	147.340000
281.183533	146.580000
281.276581	146.280000
281.369659	146.100000
281.462738	145.960000
281.555786	146.220000
281.648865	146.240000
281.741943	146.400000
281.835022	147.140000
281.928070	147.000000
282.021149	146.420000
282.114227	146.240000
282.207306	146.280000
282.300385	146.240000
282.393433	146.440000
282.486511	146.580000
282.579590	147.280000
282.672668	147.480000
282.765747	146.940000
282.858856	146.780000
282.951904	146.920000
283.045013	147.040000
283.138062	147.260000
283.231171	147.620000
283.324249	147.900000
283.417328	148.160000
283.510406	147.620000
283.603485	147.340000
283.696564	147.160000
283.789642	147.000000
283.882751	146.460000
283.975830	146.800000
284.068909	146.560000
284.161987	146.840000
284.255066	146.580000
284.348175	147.000000
284.441254	146.920000
284.534332	147.380000
284.627441	147.280000
284.720520	147.320000
284.813599	147.100000
284.906708	147.060000
284.999786	146.360000
285.092896	145.940000
285.185974	146.720000
285.279053	146.200000
285.372192	146.360000
285.465240	147.200000
285.558380	147.140000
285.651459	146.520000
285.744568	147.540000
285.837677	147.280000
285.930756	146.840000
286.023865	147.060000
286.116943	146.880000
286.210052	146.740000
286.303162	146.700000
286.396240	146.800000
286.489349	146.400000
286.582458	146.660000
286.675568	146.340000
286.768646	146.180000
286.861755	146.260000
286.954865	147.260000
287.047974	146.720000
287.141083	146.440000
287.234161	146.500000
287.327271	146.360000
287.420380	146.560000
287.513519	146.680000
287.606598	147.040000
287.699738	147.180000
287.792816	147.140000
287.885956	146.280000
287.979034	146.340000
288.072174	146.100000
288.165283	145.840000
288.258392	146.240000
288.351501	146.340000
288.444611	146.640000
288.537720	147.260000
288.630859	147.520000
288.723969	147.360000
288.817078	147.520000
288.910187	147.420000
289.003296	146.780000
289.096436	146.340000
289.189545	146.200000
289.282654	145.920000
289.375763	146.460000
289.468903	146.960000
289.562012	147.380000
289.655121	147.760000
289.748260	148.100000
289.841400	148.140000
289.934509	147.680000
290.027649	147.660000
290.120728	147.100000
290.213898	147.060000
290.306976	146.640000
290.400146	146.800000
290.493256	146.380000
290.586395	146.500000
290.679535	146.660000
290.772644	146.300000
290.865784	145.660000
290.958893	145.900000
291.052032	146.000000
291.145172	145.780000
291.238281	145.760000
291.331421	146.200000
291.424561	146.740000
291.517670	146.480000
291.610809	146.500000
291.703949	146.640000
291.797089	147.040000
291.890228	146.420000
291.983337	146.440000
292.076477	146.520000
292.169617	146.920000
292.262756	146.580000
292.355927	146.660000
292.449036	146.460000
292.542206	146.420000
292.635315	146.400000
292.728485	146.720000
292.821625	146.500000
292.914764	147.420000
293.007904	147.440000
293.101044	147.140000
293.194183	146.640000
293.287323	146.760000
293.380463	146.260000
293.473602	146.260000
293.566742	146.380000
293.659882	147.100000
293.753021	147.360000
293.846191	147.160000
293.939331	146.660000
294.032471	146.760000
294.125610	146.100000
294.218781	146.080000
294.311920	146.820000
294.405060	147.180000
294.498230	146.720000
294.591370	147.200000
294.684540	146.820000
294.777679	145.920000
294.870850	145.980000
294.963959	146.020000
295.057159	145.700000
295.150299	146.180000
295.243469	146.300000
295.336609	145.800000
295.429779	145.940000
295.522919	146.480000
295.616089	146.380000
295.709229	147.100000
295.802399	147.460000
295.895569	147.200000
295.988708	146.560000
296.081879	146.720000
296.175018	146.080000
296.268188	145.980000
296.361359	146.480000
296.454529	146.920000
296.547668	146.760000
296.640839	147.140000
296.734009	147.020000
296.827179	146.860000
296.920319	146.880000
297.013519	146.560000
297.106659	146.240000
297.199860	146.420000
297.292999	146.360000
297.386200	145.960000
297.479309	145.880000
297.572510	146.060000
297.665680	145.820000
297.758850	146.020000
297.852020	145.820000
297.945190	145.820000
298.038361	145.580000
298.131531	146.400000
298.224701	146.100000
298.317871	146.160000
298.411072	145.960000
298.504242	145.800000
298.597412	145.180000
298.690582	145.380000
298.783752	145.800000
298.876923	146.360000
298.970093	146.500000
299.063293	146.600000
299.156464	146.800000
299.249634	146.580000
299.342834	146.800000
299.436005	147.180000
299.529205	146.940000
299.622345	146.860000
299.715576	146.240000
299.808716	146.060000
299.901917	145.880000
299.995117	146.360000
300.088287	146.460000
300.181488	146.580000
300.274658	146.540000
300.367828	146.420000
300.461029	146.340000
300.554199	146.440000
300.647400	146.640000
300.740601	146.880000
300.833771	146.840000
300.926971	147.280000
301.020142	146.640000
301.113342	146.520000
301.206512	146.400000
301.299713	146.620000
301.392914	146.300000
301.486084	146.960000
301.579285	147.000000
301.672516	147.300000
301.765686	147.020000
301.858887	147.060000
301.952057	146.520000
302.045288	146.700000
302.138458	146.520000
302.231659	146.200000
302.324860	145.740000
302.418060	145.580000
302.511261	145.420000
302.604462	145.300000
302.697662	145.220000
302.790863	145.160000
302.884064	145.440000
302.977264	145.680000
303.070465	145.740000
303.163666	146.520000
303.256866	147.080000
303.350067	147.040000
303.443268	146.720000
303.536469	146.840000
303.629669	146.480000
303.722870	146.360000
303.816071	146.400000
303.909271	146.620000
304.002472	145.720000
304.095673	145.320000
304.188934	144.740000
304.282104	145.380000
304.375336	145.540000
304.468506	146.100000
304.561768	146.060000
304.654968	146.380000
304.748169	146.140000
304.841370	145.900000
304.934601	146.060000
305.027802	146.220000
305.121002	146.000000
305.214233	145.700000
305.307434	145.920000
305.400665	146.220000
305.493866	146.060000
