Model Number: SPM-002-B   
Serial Number: 70087108
Firmware Version: 004.15.4
Exposure Time: 100000.000000us
Data Taken on: 11-12-2020 19:37:36.289
Wavelength	Amplitude
221.570786	0.000000
221.663406	0.000000
221.756027	0.000000
221.848648	0.000000
221.941269	0.000000
222.033905	0.000000
222.126526	0.000000
222.219162	0.000000
222.311798	0.000000
222.404419	0.000000
222.497055	0.000000
222.589676	0.000000
222.682312	0.000000
222.774933	0.000000
222.867569	0.000000
222.960205	0.000000
223.052841	0.000000
223.145462	0.000000
223.238098	0.000000
223.330734	0.000000
223.423386	0.000000
223.516022	0.000000
223.608658	0.000000
223.701309	0.000000
223.793945	0.000000
223.886581	0.000000
223.979218	0.000000
224.071869	0.000000
224.164505	0.000000
224.257156	0.000000
224.349792	0.000000
224.442444	0.000000
224.535095	0.000000
224.627747	0.000000
224.720398	0.000000
224.813034	0.000000
224.905685	0.000000
224.998337	145.440000
225.090988	144.900000
225.183640	144.840000
225.276291	144.660000
225.368942	145.260000
225.461594	145.620000
225.554245	145.940000
225.646912	146.420000
225.739578	146.760000
225.832230	146.900000
225.924896	146.160000
226.017548	146.580000
226.110199	146.680000
226.202866	146.140000
226.295532	145.880000
226.388184	145.640000
226.480850	144.940000
226.573517	144.600000
226.666168	145.020000
226.758835	145.420000
226.851501	146.260000
226.944183	146.280000
227.036850	145.860000
227.129517	145.560000
227.222183	145.300000
227.314850	145.320000
227.407516	145.760000
227.500198	146.860000
227.592865	146.560000
227.685532	146.220000
227.778214	145.620000
227.870880	145.620000
227.963562	145.500000
228.056229	146.220000
228.148926	145.960000
228.241592	146.740000
228.334274	146.120000
228.426956	145.720000
228.519638	145.620000
228.612305	145.480000
228.704987	145.560000
228.797668	146.040000
228.890350	145.740000
228.983032	144.960000
229.075714	145.720000
229.168396	145.220000
229.261108	144.760000
229.353790	144.640000
229.446472	145.360000
229.539169	145.460000
229.631851	145.200000
229.724533	145.480000
229.817230	145.800000
229.909912	146.520000
230.002609	146.300000
230.095306	146.360000
230.187988	146.500000
230.280685	146.560000
230.373383	145.560000
230.466095	145.520000
230.558792	145.700000
230.651474	145.560000
230.744171	145.320000
230.836868	145.220000
230.929581	145.240000
231.022278	145.180000
231.114975	145.080000
231.207672	144.900000
231.300369	145.380000
231.393082	145.620000
231.485779	145.380000
231.578506	145.260000
231.671204	145.600000
231.763916	145.440000
231.856613	144.980000
231.949326	145.580000
232.042023	145.620000
232.134735	145.580000
232.227448	145.340000
232.320160	145.920000
232.412872	145.640000
232.505585	146.500000
232.598297	147.020000
232.691010	147.080000
232.783722	146.560000
232.876450	147.240000
232.969162	146.320000
233.061874	145.500000
233.154587	145.120000
233.247314	145.360000
233.340027	144.420000
233.432739	145.160000
233.525467	145.220000
233.618179	145.700000
233.710907	145.380000
233.803635	145.840000
233.896347	145.320000
233.989090	146.140000
234.081818	145.920000
234.174545	145.980000
234.267258	145.640000
234.359985	145.740000
234.452713	145.300000
234.545441	145.460000
234.638168	145.220000
234.730896	145.580000
234.823639	145.780000
234.916367	145.960000
235.009094	146.040000
235.101822	146.520000
235.194580	146.380000
235.287308	146.280000
235.380051	145.880000
235.472778	145.980000
235.565521	145.940000
235.658249	145.500000
235.750992	145.360000
235.843719	145.100000
235.936462	145.220000
236.029205	144.660000
236.121948	144.940000
236.214691	145.300000
236.307449	145.900000
236.400192	145.440000
236.492935	145.600000
236.585678	145.700000
236.678421	145.500000
236.771164	145.300000
236.863907	145.900000
236.956665	146.240000
237.049408	147.420000
237.142151	146.880000
237.234909	147.660000
237.327652	147.240000
237.420410	146.820000
237.513153	146.080000
237.605927	146.160000
237.698669	145.400000
237.791428	144.760000
237.884186	145.580000
237.976944	145.240000
238.069702	145.960000
238.162445	145.660000
238.255203	146.140000
238.347961	146.320000
238.440720	146.120000
238.533478	145.620000
238.626266	145.640000
238.719025	145.760000
238.811783	145.140000
238.904541	144.980000
238.997314	145.040000
239.090073	144.660000
239.182831	144.720000
239.275604	145.380000
239.368362	145.260000
239.461136	145.480000
239.553909	145.800000
239.646667	145.980000
239.739441	145.500000
239.832214	146.060000
239.925003	145.860000
240.017761	146.760000
240.110535	147.100000
240.203308	146.640000
240.296082	146.620000
240.388855	146.620000
240.481628	146.380000
240.574417	146.300000
240.667191	146.940000
240.759964	146.620000
240.852737	146.620000
240.945526	146.160000
241.038315	146.100000
241.131088	145.940000
241.223877	146.420000
241.316650	145.780000
241.409439	145.980000
241.502228	145.640000
241.595001	145.940000
241.687790	145.640000
241.780579	146.260000
241.873367	146.100000
241.966141	146.040000
242.058929	145.400000
242.151718	145.440000
242.244507	145.620000
242.337311	145.200000
242.430099	145.660000
242.522903	146.240000
242.615692	145.760000
242.708481	145.620000
242.801270	146.260000
242.894073	146.220000
242.986862	146.080000
243.079651	146.520000
243.172455	146.360000
243.265244	146.440000
243.358063	145.840000
243.450867	146.160000
243.543655	146.400000
243.636459	146.600000
243.729263	146.900000
243.822067	147.100000
243.914856	147.140000
244.007660	147.120000
244.100464	147.080000
244.193268	146.360000
244.286072	146.200000
244.378876	145.620000
244.471680	145.460000
244.564499	146.000000
244.657318	146.940000
244.750122	147.500000
244.842926	147.020000
244.935745	147.280000
245.028549	146.400000
245.121368	145.960000
245.214172	145.660000
245.306992	146.220000
245.399796	145.880000
245.492615	146.220000
245.585434	145.880000
245.678253	145.920000
245.771072	145.800000
245.863892	146.180000
245.956711	146.480000
246.049530	146.380000
246.142349	145.960000
246.235168	146.240000
246.327988	146.220000
246.420807	145.820000
246.513626	146.220000
246.606445	146.180000
246.699280	145.880000
246.792099	145.960000
246.884918	145.860000
246.977753	145.260000
247.070587	145.820000
247.163422	145.720000
247.256241	145.480000
247.349075	145.840000
247.441895	146.100000
247.534729	145.740000
247.627563	145.720000
247.720383	146.020000
247.813217	145.700000
247.906052	145.520000
247.998886	145.660000
248.091736	145.700000
248.184570	145.240000
248.277405	145.420000
248.370239	146.300000
248.463074	147.200000
248.555908	147.520000
248.648743	147.520000
248.741592	147.720000
248.834427	147.100000
248.927261	145.760000
249.020111	146.200000
249.112946	146.780000
249.205795	146.400000
249.298630	146.560000
249.391495	147.020000
249.484344	146.480000
249.577179	146.280000
249.670029	146.500000
249.762878	147.020000
249.855728	146.920000
249.948563	146.740000
250.041412	146.180000
250.134262	146.300000
250.227112	145.940000
250.319962	146.000000
250.412827	146.340000
250.505692	146.140000
250.598541	145.880000
250.691391	145.740000
250.784241	145.580000
250.877106	145.440000
250.969955	145.440000
251.062805	145.900000
251.155670	146.160000
251.248520	145.980000
251.341385	146.220000
251.434235	146.320000
251.527100	146.040000
251.619965	145.740000
251.712814	146.440000
251.805695	146.220000
251.898560	146.520000
251.991425	146.800000
252.084290	147.020000
252.177155	146.300000
252.270020	146.320000
252.362885	146.120000
252.455750	145.960000
252.548615	145.680000
252.641479	145.780000
252.734360	145.660000
252.827240	145.780000
252.920105	145.600000
253.012970	145.220000
253.105850	145.220000
253.198715	145.000000
253.291595	144.880000
253.384460	144.620000
253.477341	144.880000
253.570221	144.960000
253.663086	144.940000
253.755966	145.600000
253.848846	145.660000
253.941727	145.960000
254.034592	146.160000
254.127472	145.940000
254.220367	145.700000
254.313248	146.120000
254.406128	145.500000
254.499008	145.800000
254.591904	146.760000
254.684784	147.200000
254.777664	146.800000
254.870544	146.880000
254.963440	146.500000
255.056335	146.240000
255.149216	145.620000
255.242111	146.040000
255.334991	146.400000
255.427887	146.440000
255.520767	146.560000
255.613663	146.660000
255.706558	146.180000
255.799438	145.800000
255.892334	145.640000
255.985229	145.300000
256.078125	145.100000
256.171021	145.080000
256.263916	145.880000
256.356812	146.260000
256.449707	146.060000
256.542603	145.860000
256.635498	146.440000
256.728394	145.980000
256.821289	145.680000
256.914215	145.880000
257.007080	146.120000
257.100006	146.100000
257.192932	146.580000
257.285828	146.940000
257.378723	146.980000
257.471619	147.100000
257.564545	146.440000
257.657440	146.040000
257.750336	146.340000
257.843262	146.120000
257.936157	147.260000
258.029053	147.900000
258.121979	148.120000
258.214874	147.360000
258.307800	147.320000
258.400696	145.800000
258.493622	145.840000
258.586517	145.220000
258.679443	145.720000
258.772339	145.360000
258.865265	145.660000
258.958160	144.860000
259.051086	145.740000
259.144012	145.520000
259.236938	146.620000
259.329834	146.960000
259.422791	147.080000
259.515717	146.120000
259.608612	146.060000
259.701538	145.740000
259.794464	145.260000
259.887390	145.300000
259.980316	145.540000
260.073212	145.180000
260.166138	144.360000
260.259064	144.740000
260.351990	145.560000
260.444916	145.500000
260.537842	146.060000
260.630768	146.920000
260.723694	146.500000
260.816620	145.940000
260.909546	145.940000
261.002472	145.540000
261.095398	145.120000
261.188354	145.280000
261.281281	145.100000
261.374207	145.220000
261.467133	145.740000
261.560089	145.960000
261.653015	145.920000
261.745972	146.660000
261.838867	147.300000
261.931824	147.440000
262.024780	146.820000
262.117706	147.000000
262.210663	146.940000
262.303589	146.040000
262.396515	145.820000
262.489471	146.860000
262.582397	146.940000
262.675354	146.360000
262.768280	146.520000
262.861237	146.580000
262.954163	146.300000
263.047119	146.080000
263.140045	145.600000
263.233002	145.780000
263.325958	145.400000
263.418884	144.800000
263.511841	144.920000
263.604797	145.540000
263.697723	145.440000
263.790680	145.900000
263.883636	146.560000
263.976593	146.560000
264.069550	146.680000
264.162476	146.660000
264.255463	146.480000
264.348419	146.360000
264.441376	146.580000
264.534332	146.280000
264.627289	146.580000
264.720245	146.860000
264.813202	146.220000
264.906158	146.140000
264.999115	146.480000
265.092072	146.160000
265.185028	146.500000
265.277985	146.960000
265.370941	146.640000
265.463898	146.140000
265.556854	145.680000
265.649811	144.460000
265.742798	144.500000
265.835754	144.500000
265.928711	145.220000
266.021667	145.820000
266.114655	146.420000
266.207611	146.720000
266.300568	146.080000
266.393585	145.640000
266.486511	145.840000
266.579498	145.420000
266.672485	144.900000
266.765442	145.260000
266.858429	145.660000
266.951385	145.280000
267.044342	145.440000
267.137329	145.520000
267.230316	145.780000
267.323273	145.000000
267.416260	145.740000
267.509216	145.760000
267.602203	145.820000
267.695160	146.780000
267.788147	147.300000
267.881134	146.520000
267.974091	146.880000
268.067078	146.820000
268.160065	145.920000
268.253052	145.440000
268.346008	145.800000
268.438995	145.320000
268.531982	145.500000
268.624969	145.380000
268.717987	146.040000
268.810944	145.720000
268.903961	146.280000
268.996948	146.040000
269.089905	146.700000
269.182892	146.740000
269.275879	147.300000
269.368866	146.360000
269.461853	146.540000
269.554871	145.880000
269.647858	145.840000
269.740845	145.820000
269.833832	146.640000
269.926819	146.380000
270.019806	146.700000
270.112793	146.080000
270.205811	146.000000
270.298798	145.700000
270.391785	146.220000
270.484772	145.920000
270.577789	146.340000
270.670776	145.780000
270.763763	145.700000
270.856750	145.600000
270.949768	145.340000
271.042786	145.400000
271.135773	145.560000
271.228790	145.700000
271.321808	145.420000
271.414795	145.400000
271.507782	144.900000
271.600800	144.800000
271.693817	145.060000
271.786804	145.360000
271.879822	146.100000
271.972809	146.180000
272.065826	146.880000
272.158844	146.060000
272.251831	146.580000
272.344849	146.360000
272.437866	146.400000
272.530853	145.980000
272.623871	146.400000
272.716888	145.440000
272.809906	145.560000
272.902893	145.380000
272.995911	144.960000
273.088928	145.240000
273.181946	145.340000
273.274963	144.860000
273.367981	145.180000
273.460999	145.720000
273.554047	145.960000
273.647003	146.580000
273.740051	146.540000
273.833069	146.700000
273.926086	146.740000
274.019135	146.380000
274.112152	146.020000
274.205170	146.240000
274.298187	146.160000
274.391205	145.660000
274.484222	145.680000
274.577240	145.680000
274.670258	145.540000
274.763306	145.500000
274.856323	146.080000
274.949341	146.040000
275.042358	146.040000
275.135406	146.060000
275.228424	146.200000
275.321442	145.940000
275.414490	145.460000
275.507507	145.760000
275.600525	146.220000
275.693573	145.780000
275.786591	145.420000
275.879669	145.980000
275.972656	145.560000
276.065735	145.300000
276.158752	145.980000
276.251801	146.780000
276.344818	146.700000
276.437866	146.880000
276.530884	146.540000
276.623932	145.680000
276.716980	145.320000
276.809998	145.340000
276.903046	145.620000
276.996094	146.620000
277.089111	147.220000
277.182159	147.940000
277.275208	147.380000
277.368256	146.620000
277.461304	146.140000
277.554321	145.600000
277.647369	145.120000
277.740417	145.660000
277.833466	145.800000
277.926514	145.500000
278.019562	146.620000
278.112610	146.080000
278.205688	146.260000
278.298706	146.520000
278.391785	146.580000
278.484833	145.540000
278.577881	145.700000
278.670929	145.640000
278.763977	145.720000
278.857025	146.060000
278.950073	146.400000
279.043121	146.180000
279.136169	146.040000
279.229248	145.740000
279.322296	145.360000
279.415344	145.000000
279.508392	144.780000
279.601440	144.640000
279.694519	144.760000
279.787567	144.840000
279.880615	144.900000
279.973694	145.340000
280.066742	145.580000
280.159790	145.840000
280.252869	145.340000
280.345917	145.360000
280.438995	145.000000
280.532074	144.700000
280.625122	145.000000
280.718201	146.100000
280.811279	146.160000
280.904327	146.400000
280.997406	146.580000
281.090454	146.300000
281.183533	145.720000
281.276581	145.760000
281.369659	145.580000
281.462738	145.540000
281.555786	145.540000
281.648865	145.640000
281.741943	145.620000
281.835022	146.440000
281.928070	146.320000
282.021149	146.200000
282.114227	146.020000
282.207306	146.040000
282.300385	145.760000
282.393433	146.220000
282.486511	146.240000
282.579590	146.820000
282.672668	147.000000
282.765747	146.740000
282.858856	146.320000
282.951904	146.340000
283.045013	146.160000
283.138062	146.480000
283.231171	146.480000
283.324249	147.000000
283.417328	147.180000
283.510406	146.720000
283.603485	146.520000
283.696564	146.600000
283.789642	146.380000
283.882751	146.120000
283.975830	146.640000
284.068909	146.200000
284.161987	146.800000
284.255066	146.300000
284.348175	146.320000
284.441254	146.240000
284.534332	146.640000
284.627441	145.860000
284.720520	145.880000
284.813599	145.800000
284.906708	145.540000
284.999786	144.880000
285.092896	144.760000
285.185974	145.700000
285.279053	145.300000
285.372192	145.420000
285.465240	146.320000
285.558380	146.280000
285.651459	145.960000
285.744568	147.000000
285.837677	146.820000
285.930756	146.540000
286.023865	146.740000
286.116943	146.220000
286.210052	145.680000
286.303162	145.440000
286.396240	145.280000
286.489349	145.000000
286.582458	145.040000
286.675568	144.760000
286.768646	144.900000
286.861755	145.160000
286.954865	146.000000
287.047974	145.960000
287.141083	145.980000
287.234161	145.920000
287.327271	145.640000
287.420380	145.640000
287.513519	145.360000
287.606598	145.600000
287.699738	145.780000
287.792816	145.880000
287.885956	145.640000
287.979034	146.020000
288.072174	146.120000
288.165283	146.000000
288.258392	145.840000
288.351501	145.180000
288.444611	145.380000
288.537720	145.600000
288.630859	145.700000
288.723969	146.100000
288.817078	146.740000
288.910187	146.300000
289.003296	145.660000
289.096436	145.240000
289.189545	144.980000
289.282654	144.440000
289.375763	144.960000
289.468903	145.420000
289.562012	145.880000
289.655121	146.160000
289.748260	146.360000
289.841400	146.720000
289.934509	146.580000
290.027649	146.600000
290.120728	146.140000
290.213898	146.380000
290.306976	146.100000
290.400146	146.200000
290.493256	145.740000
290.586395	146.200000
290.679535	146.100000
290.772644	145.640000
290.865784	144.940000
290.958893	145.120000
291.052032	144.660000
291.145172	144.860000
291.238281	144.760000
291.331421	145.080000
291.424561	145.680000
291.517670	145.540000
291.610809	145.520000
291.703949	145.800000
291.797089	146.200000
291.890228	145.560000
291.983337	145.860000
292.076477	145.500000
292.169617	145.420000
292.262756	145.360000
292.355927	145.560000
292.449036	145.100000
292.542206	145.180000
292.635315	145.520000
292.728485	145.560000
292.821625	144.960000
292.914764	146.300000
293.007904	146.540000
293.101044	146.460000
293.194183	146.500000
293.287323	147.100000
293.380463	146.400000
293.473602	146.060000
293.566742	146.200000
293.659882	146.340000
293.753021	146.360000
293.846191	146.180000
293.939331	145.760000
294.032471	145.680000
294.125610	145.320000
294.218781	145.900000
294.311920	146.160000
294.405060	146.700000
294.498230	146.840000
294.591370	147.040000
294.684540	145.920000
294.777679	145.680000
294.870850	146.160000
294.963959	145.620000
295.057159	145.380000
295.150299	146.140000
295.243469	146.080000
295.336609	145.260000
295.429779	145.440000
295.522919	145.600000
295.616089	145.460000
295.709229	145.960000
295.802399	146.180000
295.895569	145.820000
295.988708	145.740000
296.081879	145.960000
296.175018	145.260000
296.268188	145.300000
296.361359	145.900000
296.454529	146.120000
296.547668	145.720000
296.640839	146.200000
296.734009	146.140000
296.827179	146.200000
296.920319	146.300000
297.013519	146.280000
297.106659	146.380000
297.199860	146.320000
297.292999	146.040000
297.386200	145.480000
297.479309	145.280000
297.572510	145.100000
297.665680	144.820000
297.758850	144.940000
297.852020	145.200000
297.945190	145.220000
298.038361	144.780000
298.131531	146.080000
298.224701	145.660000
298.317871	145.300000
298.411072	145.020000
298.504242	145.400000
298.597412	144.480000
298.690582	145.040000
298.783752	145.200000
298.876923	145.960000
298.970093	145.920000
299.063293	146.300000
299.156464	146.400000
299.249634	146.860000
299.342834	146.860000
299.436005	147.420000
299.529205	147.220000
299.622345	147.020000
299.715576	146.160000
299.808716	145.840000
299.901917	145.340000
299.995117	145.520000
300.088287	145.500000
300.181488	145.720000
300.274658	145.440000
300.367828	145.600000
300.461029	145.380000
300.554199	145.540000
300.647400	145.880000
300.740601	146.560000
300.833771	146.400000
300.926971	146.760000
301.020142	146.240000
301.113342	145.800000
301.206512	145.800000
301.299713	145.920000
301.392914	145.660000
301.486084	146.160000
301.579285	146.260000
301.672516	146.620000
301.765686	146.340000
301.858887	146.240000
301.952057	145.840000
302.045288	145.960000
302.138458	145.500000
302.231659	145.320000
302.324860	145.120000
302.418060	145.080000
302.511261	144.840000
302.604462	144.820000
302.697662	144.640000
302.790863	144.440000
302.884064	144.540000
302.977264	144.940000
303.070465	145.120000
303.163666	145.680000
303.256866	146.340000
303.350067	146.180000
303.443268	146.200000
303.536469	146.220000
303.629669	146.040000
303.722870	146.040000
303.816071	145.820000
303.909271	146.060000
304.002472	145.320000
304.095673	145.180000
304.188934	144.460000
304.282104	145.440000
304.375336	145.240000
304.468506	145.340000
304.561768	145.260000
304.654968	145.900000
304.748169	145.240000
304.841370	145.020000
304.934601	145.420000
305.027802	145.160000
305.121002	144.880000
305.214233	144.900000
305.307434	144.920000
305.400665	145.360000
305.493866	145.320000
