Model Number: SPM-002-B   
Serial Number: 70087108
Firmware Version: 004.15.4
Exposure Time: 100000.000000us
Data Taken on: 11-12-2020 19:37:20.049
Wavelength	Amplitude
221.570786	0.000000
221.663406	0.000000
221.756027	0.000000
221.848648	0.000000
221.941269	0.000000
222.033905	0.000000
222.126526	0.000000
222.219162	0.000000
222.311798	0.000000
222.404419	0.000000
222.497055	0.000000
222.589676	0.000000
222.682312	0.000000
222.774933	0.000000
222.867569	0.000000
222.960205	0.000000
223.052841	0.000000
223.145462	0.000000
223.238098	0.000000
223.330734	0.000000
223.423386	0.000000
223.516022	0.000000
223.608658	0.000000
223.701309	0.000000
223.793945	0.000000
223.886581	0.000000
223.979218	0.000000
224.071869	0.000000
224.164505	0.000000
224.257156	0.000000
224.349792	0.000000
224.442444	0.000000
224.535095	0.000000
224.627747	0.000000
224.720398	0.000000
224.813034	0.000000
224.905685	0.000000
224.998337	145.580000
225.090988	145.320000
225.183640	145.080000
225.276291	145.040000
225.368942	145.720000
225.461594	146.420000
225.554245	146.600000
225.646912	146.800000
225.739578	147.420000
225.832230	147.500000
225.924896	146.280000
226.017548	146.480000
226.110199	146.900000
226.202866	146.020000
226.295532	145.820000
226.388184	146.120000
226.480850	145.220000
226.573517	144.900000
226.666168	145.520000
226.758835	145.900000
226.851501	146.840000
226.944183	147.520000
227.036850	146.940000
227.129517	147.020000
227.222183	146.940000
227.314850	146.480000
227.407516	146.840000
227.500198	147.520000
227.592865	146.760000
227.685532	146.140000
227.778214	145.920000
227.870880	146.040000
227.963562	146.380000
228.056229	147.080000
228.148926	147.400000
228.241592	148.060000
228.334274	147.320000
228.426956	146.720000
228.519638	146.660000
228.612305	146.520000
228.704987	146.120000
228.797668	146.520000
228.890350	146.320000
228.983032	145.560000
229.075714	146.040000
229.168396	145.560000
229.261108	144.820000
229.353790	145.020000
229.446472	145.420000
229.539169	145.120000
229.631851	145.360000
229.724533	145.780000
229.817230	146.080000
229.909912	147.000000
230.002609	146.980000
230.095306	146.920000
230.187988	146.900000
230.280685	146.680000
230.373383	145.760000
230.466095	145.760000
230.558792	146.100000
230.651474	145.920000
230.744171	145.760000
230.836868	145.760000
230.929581	145.800000
231.022278	145.700000
231.114975	146.200000
231.207672	145.980000
231.300369	146.720000
231.393082	146.700000
231.485779	146.520000
231.578506	146.360000
231.671204	146.620000
231.763916	146.280000
231.856613	146.280000
231.949326	146.240000
232.042023	145.900000
232.134735	145.840000
232.227448	145.360000
232.320160	145.620000
232.412872	145.700000
232.505585	146.760000
232.598297	147.340000
232.691010	147.580000
232.783722	146.980000
232.876450	147.720000
232.969162	146.840000
233.061874	146.140000
233.154587	145.640000
233.247314	146.280000
233.340027	145.320000
233.432739	145.920000
233.525467	145.860000
233.618179	146.360000
233.710907	145.800000
233.803635	146.620000
233.896347	146.040000
233.989090	146.760000
234.081818	146.560000
234.174545	146.920000
234.267258	146.320000
234.359985	146.660000
234.452713	146.440000
234.545441	146.340000
234.638168	146.100000
234.730896	146.380000
234.823639	146.120000
234.916367	146.620000
235.009094	146.880000
235.101822	147.120000
235.194580	147.060000
235.287308	147.040000
235.380051	146.140000
235.472778	146.580000
235.565521	146.900000
235.658249	146.500000
235.750992	146.580000
235.843719	146.880000
235.936462	146.640000
236.029205	145.980000
236.121948	145.780000
236.214691	146.100000
236.307449	146.540000
236.400192	146.160000
236.492935	146.100000
236.585678	146.740000
236.678421	146.660000
236.771164	146.380000
236.863907	146.980000
236.956665	147.360000
237.049408	148.580000
237.142151	148.040000
237.234909	148.520000
237.327652	148.300000
237.420410	148.000000
237.513153	146.820000
237.605927	146.620000
237.698669	146.100000
237.791428	145.480000
237.884186	146.080000
237.976944	145.780000
238.069702	146.440000
238.162445	145.840000
238.255203	146.240000
238.347961	146.340000
238.440720	146.220000
238.533478	146.160000
238.626266	146.200000
238.719025	146.080000
238.811783	145.960000
238.904541	146.060000
238.997314	145.960000
239.090073	145.780000
239.182831	146.280000
239.275604	146.600000
239.368362	146.520000
239.461136	146.420000
239.553909	146.720000
239.646667	146.520000
239.739441	146.140000
239.832214	146.500000
239.925003	146.940000
240.017761	147.580000
240.110535	148.180000
240.203308	147.740000
240.296082	147.560000
240.388855	147.140000
240.481628	147.120000
240.574417	146.780000
240.667191	146.960000
240.759964	147.040000
240.852737	147.160000
240.945526	146.600000
241.038315	146.240000
241.131088	146.420000
241.223877	146.300000
241.316650	146.020000
241.409439	146.680000
241.502228	146.380000
241.595001	146.640000
241.687790	146.280000
241.780579	146.320000
241.873367	146.260000
241.966141	146.820000
242.058929	146.240000
242.151718	146.700000
242.244507	147.360000
242.337311	146.540000
242.430099	146.540000
242.522903	146.780000
242.615692	146.620000
242.708481	146.580000
242.801270	147.180000
242.894073	147.060000
242.986862	147.180000
243.079651	147.480000
243.172455	146.980000
243.265244	147.020000
243.358063	146.560000
243.450867	146.780000
243.543655	146.760000
243.636459	146.960000
243.729263	147.120000
243.822067	147.560000
243.914856	147.520000
244.007660	147.400000
244.100464	147.620000
244.193268	146.920000
244.286072	146.900000
244.378876	146.520000
244.471680	146.140000
244.564499	146.080000
244.657318	147.040000
244.750122	147.160000
244.842926	146.540000
244.935745	147.160000
245.028549	146.600000
245.121368	145.920000
245.214172	145.720000
245.306992	146.340000
245.399796	145.940000
245.492615	146.080000
245.585434	146.260000
245.678253	146.300000
245.771072	146.320000
245.863892	146.620000
245.956711	146.900000
246.049530	146.680000
246.142349	146.220000
246.235168	146.420000
246.327988	146.860000
246.420807	146.740000
246.513626	146.720000
246.606445	146.860000
246.699280	146.540000
246.792099	146.120000
246.884918	145.600000
246.977753	145.220000
247.070587	145.460000
247.163422	145.480000
247.256241	145.480000
247.349075	146.020000
247.441895	146.520000
247.534729	146.440000
247.627563	146.380000
247.720383	146.800000
247.813217	146.780000
247.906052	146.580000
247.998886	146.780000
248.091736	147.080000
248.184570	146.600000
248.277405	146.400000
248.370239	147.460000
248.463074	148.240000
248.555908	148.360000
248.648743	148.160000
248.741592	148.120000
248.834427	147.380000
248.927261	146.260000
249.020111	146.400000
249.112946	147.440000
249.205795	147.200000
249.298630	147.040000
249.391495	147.180000
249.484344	146.680000
249.577179	146.100000
249.670029	146.320000
249.762878	146.980000
249.855728	146.900000
249.948563	147.060000
250.041412	146.400000
250.134262	146.880000
250.227112	146.700000
250.319962	146.880000
250.412827	146.860000
250.505692	146.900000
250.598541	146.520000
250.691391	145.740000
250.784241	145.680000
250.877106	145.640000
250.969955	145.640000
251.062805	146.340000
251.155670	147.260000
251.248520	146.820000
251.341385	147.060000
251.434235	147.080000
251.527100	146.440000
251.619965	145.760000
251.712814	146.880000
251.805695	146.780000
251.898560	147.120000
251.991425	147.500000
252.084290	147.780000
252.177155	146.920000
252.270020	146.680000
252.362885	146.640000
252.455750	146.320000
252.548615	145.880000
252.641479	146.020000
252.734360	145.960000
252.827240	145.660000
252.920105	145.940000
253.012970	146.140000
253.105850	145.840000
253.198715	145.840000
253.291595	146.020000
253.384460	145.560000
253.477341	145.460000
253.570221	145.960000
253.663086	145.840000
253.755966	146.260000
253.848846	146.220000
253.941727	146.540000
254.034592	146.320000
254.127472	146.120000
254.220367	146.080000
254.313248	146.580000
254.406128	146.340000
254.499008	146.840000
254.591904	147.640000
254.684784	148.080000
254.777664	147.940000
254.870544	147.740000
254.963440	147.360000
255.056335	147.020000
255.149216	146.420000
255.242111	146.940000
255.334991	147.320000
255.427887	147.300000
255.520767	147.520000
255.613663	147.700000
255.706558	146.960000
255.799438	146.660000
255.892334	146.420000
255.985229	146.440000
256.078125	146.360000
256.171021	146.140000
256.263916	146.740000
256.356812	147.360000
256.449707	147.100000
256.542603	146.800000
256.635498	147.480000
256.728394	147.220000
256.821289	146.640000
256.914215	146.860000
257.007080	147.200000
257.100006	147.240000
257.192932	147.680000
257.285828	148.000000
257.378723	147.560000
257.471619	147.480000
257.564545	146.820000
257.657440	146.720000
257.750336	147.200000
257.843262	147.440000
257.936157	148.340000
258.029053	148.880000
258.121979	148.660000
258.214874	147.860000
258.307800	147.660000
258.400696	146.700000
258.493622	146.840000
258.586517	146.200000
258.679443	146.500000
258.772339	146.140000
258.865265	146.060000
258.958160	145.400000
259.051086	146.280000
259.144012	146.300000
259.236938	147.300000
259.329834	147.540000
259.422791	147.520000
259.515717	146.840000
259.608612	146.720000
259.701538	146.660000
259.794464	146.060000
259.887390	146.360000
259.980316	146.240000
260.073212	146.180000
260.166138	145.400000
260.259064	145.960000
260.351990	146.440000
260.444916	146.700000
260.537842	146.800000
260.630768	147.460000
260.723694	147.120000
260.816620	146.960000
260.909546	146.960000
261.002472	146.740000
261.095398	146.380000
261.188354	146.580000
261.281281	145.820000
261.374207	145.900000
261.467133	146.640000
261.560089	146.720000
261.653015	146.620000
261.745972	147.540000
261.838867	147.540000
261.931824	147.520000
262.024780	146.940000
262.117706	146.680000
262.210663	146.380000
262.303589	146.440000
262.396515	146.460000
262.489471	147.680000
262.582397	147.920000
262.675354	147.360000
262.768280	147.580000
262.861237	147.320000
262.954163	146.600000
263.047119	146.700000
263.140045	146.940000
263.233002	146.700000
263.325958	146.560000
263.418884	146.180000
263.511841	146.080000
263.604797	146.280000
263.697723	146.240000
263.790680	146.160000
263.883636	147.060000
263.976593	146.940000
264.069550	146.960000
264.162476	146.920000
264.255463	147.180000
264.348419	146.600000
264.441376	147.140000
264.534332	146.760000
264.627289	146.560000
264.720245	147.080000
264.813202	146.640000
264.906158	146.360000
264.999115	146.880000
265.092072	146.820000
265.185028	146.980000
265.277985	147.520000
265.370941	147.640000
265.463898	147.420000
265.556854	147.600000
265.649811	146.480000
265.742798	146.480000
265.835754	146.660000
265.928711	146.740000
266.021667	146.360000
266.114655	146.680000
266.207611	146.900000
266.300568	146.060000
266.393585	145.780000
266.486511	146.640000
266.579498	145.960000
266.672485	145.720000
266.765442	145.600000
266.858429	146.140000
266.951385	145.560000
267.044342	146.120000
267.137329	146.100000
267.230316	146.880000
267.323273	146.500000
267.416260	147.340000
267.509216	147.360000
267.602203	147.460000
267.695160	147.840000
267.788147	147.780000
267.881134	146.960000
267.974091	146.960000
268.067078	146.840000
268.160065	146.200000
268.253052	146.040000
268.346008	146.180000
268.438995	146.040000
268.531982	146.060000
268.624969	146.000000
268.717987	146.640000
268.810944	146.360000
268.903961	146.760000
268.996948	146.320000
269.089905	146.740000
269.182892	146.640000
269.275879	147.180000
269.368866	146.400000
269.461853	147.040000
269.554871	147.000000
269.647858	146.860000
269.740845	147.180000
269.833832	147.920000
269.926819	147.300000
270.019806	147.000000
270.112793	146.220000
270.205811	146.260000
270.298798	145.660000
270.391785	146.400000
270.484772	146.160000
270.577789	146.500000
270.670776	145.860000
270.763763	146.120000
270.856750	146.080000
270.949768	146.100000
271.042786	146.140000
271.135773	146.260000
271.228790	146.460000
271.321808	146.000000
271.414795	145.980000
271.507782	146.040000
271.600800	145.360000
271.693817	145.300000
271.786804	145.760000
271.879822	145.880000
271.972809	145.760000
272.065826	146.620000
272.158844	145.920000
272.251831	146.480000
272.344849	146.340000
272.437866	146.100000
272.530853	145.920000
272.623871	146.520000
272.716888	145.160000
272.809906	145.920000
272.902893	146.180000
272.995911	145.780000
273.088928	146.080000
273.181946	146.580000
273.274963	145.640000
273.367981	145.580000
273.460999	145.840000
273.554047	145.920000
273.647003	146.480000
273.740051	146.780000
273.833069	147.100000
273.926086	147.420000
274.019135	146.860000
274.112152	146.240000
274.205170	146.560000
274.298187	146.700000
274.391205	146.100000
274.484222	146.340000
274.577240	146.820000
274.670258	146.440000
274.763306	146.580000
274.856323	146.980000
274.949341	147.280000
275.042358	147.400000
275.135406	147.500000
275.228424	147.280000
275.321442	147.380000
275.414490	146.640000
275.507507	146.580000
275.600525	146.980000
275.693573	146.660000
275.786591	146.260000
275.879669	146.760000
275.972656	146.460000
276.065735	146.180000
276.158752	146.740000
276.251801	147.360000
276.344818	147.240000
276.437866	147.300000
276.530884	147.080000
276.623932	146.200000
276.716980	146.080000
276.809998	146.200000
276.903046	146.060000
276.996094	146.860000
277.089111	147.640000
277.182159	147.820000
277.275208	147.580000
277.368256	147.620000
277.461304	147.080000
277.554321	146.320000
277.647369	146.000000
277.740417	146.000000
277.833466	146.260000
277.926514	146.140000
278.019562	146.840000
278.112610	146.420000
278.205688	146.680000
278.298706	146.280000
278.391785	146.160000
278.484833	145.740000
278.577881	145.820000
278.670929	145.760000
278.763977	145.900000
278.857025	146.360000
278.950073	146.540000
279.043121	146.680000
279.136169	146.560000
279.229248	146.520000
279.322296	146.300000
279.415344	146.140000
279.508392	146.180000
279.601440	146.360000
279.694519	146.100000
279.787567	145.840000
279.880615	145.760000
279.973694	145.300000
280.066742	145.280000
280.159790	145.660000
280.252869	145.660000
280.345917	145.860000
280.438995	146.440000
280.532074	146.120000
280.625122	146.320000
280.718201	147.060000
280.811279	147.220000
280.904327	147.120000
280.997406	147.500000
281.090454	147.340000
281.183533	146.580000
281.276581	146.260000
281.369659	145.820000
281.462738	145.800000
281.555786	145.800000
281.648865	146.040000
281.741943	146.040000
281.835022	146.640000
281.928070	146.300000
282.021149	146.080000
282.114227	145.980000
282.207306	146.280000
282.300385	146.500000
282.393433	146.840000
282.486511	146.840000
282.579590	147.380000
282.672668	147.440000
282.765747	146.920000
282.858856	146.720000
282.951904	146.900000
283.045013	146.660000
283.138062	146.840000
283.231171	147.260000
283.324249	147.460000
283.417328	147.800000
283.510406	147.540000
283.603485	147.220000
283.696564	146.880000
283.789642	146.880000
283.882751	146.120000
283.975830	146.800000
284.068909	146.500000
284.161987	147.220000
284.255066	146.820000
284.348175	147.120000
284.441254	146.580000
284.534332	147.040000
284.627441	146.160000
284.720520	146.180000
284.813599	146.440000
284.906708	146.540000
284.999786	145.620000
285.092896	145.820000
285.185974	146.940000
285.279053	146.360000
285.372192	146.500000
285.465240	147.560000
285.558380	147.640000
285.651459	146.960000
285.744568	147.920000
285.837677	147.360000
285.930756	147.220000
286.023865	147.040000
286.116943	146.500000
286.210052	146.340000
286.303162	146.600000
286.396240	146.500000
286.489349	146.240000
286.582458	146.700000
286.675568	146.180000
286.768646	146.380000
286.861755	146.660000
286.954865	147.340000
287.047974	146.880000
287.141083	146.920000
287.234161	146.500000
287.327271	146.160000
287.420380	146.360000
287.513519	146.280000
287.606598	146.120000
287.699738	146.600000
287.792816	146.400000
287.885956	146.300000
287.979034	146.380000
288.072174	146.520000
288.165283	146.300000
288.258392	146.680000
288.351501	145.920000
288.444611	146.540000
288.537720	147.200000
288.630859	146.820000
288.723969	146.840000
288.817078	147.200000
288.910187	146.700000
289.003296	146.080000
289.096436	146.260000
289.189545	146.080000
289.282654	145.820000
289.375763	146.300000
289.468903	146.580000
289.562012	146.940000
289.655121	147.160000
289.748260	147.200000
289.841400	147.620000
289.934509	147.240000
290.027649	147.200000
290.120728	146.900000
290.213898	147.100000
290.306976	146.040000
290.400146	146.420000
290.493256	146.120000
290.586395	146.300000
290.679535	146.600000
290.772644	146.860000
290.865784	146.080000
290.958893	146.020000
291.052032	145.720000
291.145172	145.600000
291.238281	145.300000
291.331421	145.500000
291.424561	145.940000
291.517670	145.800000
291.610809	145.940000
291.703949	146.420000
291.797089	146.780000
291.890228	146.240000
291.983337	146.320000
292.076477	145.880000
292.169617	146.140000
292.262756	146.140000
292.355927	146.180000
292.449036	146.200000
292.542206	146.180000
292.635315	145.980000
292.728485	146.220000
292.821625	145.980000
292.914764	146.980000
293.007904	147.200000
293.101044	147.020000
293.194183	146.820000
293.287323	147.380000
293.380463	146.800000
293.473602	146.740000
293.566742	147.100000
293.659882	147.100000
293.753021	147.120000
293.846191	146.940000
293.939331	146.480000
294.032471	146.240000
294.125610	146.160000
294.218781	146.420000
294.311920	146.700000
294.405060	147.080000
294.498230	146.760000
294.591370	146.600000
294.684540	145.860000
294.777679	145.380000
294.870850	145.800000
294.963959	145.680000
295.057159	145.520000
295.150299	146.100000
295.243469	146.000000
295.336609	144.980000
295.429779	145.240000
295.522919	145.940000
295.616089	145.720000
295.709229	146.320000
295.802399	146.740000
295.895569	146.640000
295.988708	146.280000
296.081879	146.300000
296.175018	145.720000
296.268188	145.640000
296.361359	146.060000
296.454529	146.220000
296.547668	145.960000
296.640839	146.320000
296.734009	146.180000
296.827179	146.260000
296.920319	146.340000
297.013519	146.200000
297.106659	146.360000
297.199860	146.640000
297.292999	146.420000
297.386200	146.080000
297.479309	146.160000
297.572510	145.920000
297.665680	145.680000
297.758850	145.520000
297.852020	145.480000
297.945190	145.520000
298.038361	145.460000
298.131531	146.560000
298.224701	146.460000
298.317871	146.120000
298.411072	145.700000
298.504242	145.480000
298.597412	144.760000
298.690582	145.180000
298.783752	145.720000
298.876923	146.460000
298.970093	146.800000
299.063293	147.020000
299.156464	147.140000
299.249634	147.080000
299.342834	147.140000
299.436005	147.600000
299.529205	147.580000
299.622345	147.520000
299.715576	147.140000
299.808716	146.540000
299.901917	146.180000
299.995117	146.280000
300.088287	146.160000
300.181488	146.180000
300.274658	146.320000
300.367828	146.020000
300.461029	145.980000
300.554199	146.140000
300.647400	146.160000
300.740601	146.640000
300.833771	146.560000
300.926971	146.520000
301.020142	145.920000
301.113342	145.820000
301.206512	145.360000
301.299713	145.900000
301.392914	145.840000
301.486084	146.260000
301.579285	146.460000
301.672516	147.100000
301.765686	146.840000
301.858887	146.900000
301.952057	146.680000
302.045288	146.720000
302.138458	146.380000
302.231659	146.000000
302.324860	145.880000
302.418060	145.820000
302.511261	145.920000
302.604462	146.000000
302.697662	146.280000
302.790863	146.120000
302.884064	145.820000
302.977264	145.940000
303.070465	146.180000
303.163666	146.620000
303.256866	147.100000
303.350067	147.380000
303.443268	147.180000
303.536469	147.200000
303.629669	146.500000
303.722870	146.100000
303.816071	145.860000
303.909271	145.800000
304.002472	144.840000
304.095673	145.100000
304.188934	144.460000
304.282104	145.640000
304.375336	145.660000
304.468506	145.920000
304.561768	145.440000
304.654968	146.360000
304.748169	145.600000
304.841370	145.560000
304.934601	146.100000
305.027802	146.260000
305.121002	145.960000
305.214233	146.040000
305.307434	146.040000
305.400665	146.320000
305.493866	146.460000
