Model Number: SPM-002-B   
Serial Number: 70087108
Firmware Version: 004.15.4
Exposure Time: 100000.000000us
Data Taken on: 11-12-2020 19:37:25.529
Wavelength	Amplitude
221.570786	0.000000
221.663406	0.000000
221.756027	0.000000
221.848648	0.000000
221.941269	0.000000
222.033905	0.000000
222.126526	0.000000
222.219162	0.000000
222.311798	0.000000
222.404419	0.000000
222.497055	0.000000
222.589676	0.000000
222.682312	0.000000
222.774933	0.000000
222.867569	0.000000
222.960205	0.000000
223.052841	0.000000
223.145462	0.000000
223.238098	0.000000
223.330734	0.000000
223.423386	0.000000
223.516022	0.000000
223.608658	0.000000
223.701309	0.000000
223.793945	0.000000
223.886581	0.000000
223.979218	0.000000
224.071869	0.000000
224.164505	0.000000
224.257156	0.000000
224.349792	0.000000
224.442444	0.000000
224.535095	0.000000
224.627747	0.000000
224.720398	0.000000
224.813034	0.000000
224.905685	0.000000
224.998337	146.020000
225.090988	145.580000
225.183640	145.700000
225.276291	145.420000
225.368942	145.740000
225.461594	146.100000
225.554245	146.280000
225.646912	146.420000
225.739578	146.840000
225.832230	146.880000
225.924896	146.060000
226.017548	146.140000
226.110199	146.340000
226.202866	145.680000
226.295532	145.720000
226.388184	146.060000
226.480850	145.580000
226.573517	145.060000
226.666168	145.320000
226.758835	146.020000
226.851501	146.420000
226.944183	146.820000
227.036850	146.520000
227.129517	146.860000
227.222183	146.280000
227.314850	146.160000
227.407516	146.380000
227.500198	147.560000
227.592865	147.060000
227.685532	146.580000
227.778214	146.140000
227.870880	146.560000
227.963562	146.660000
228.056229	146.940000
228.148926	147.320000
228.241592	148.320000
228.334274	147.820000
228.426956	147.140000
228.519638	147.420000
228.612305	147.000000
228.704987	146.640000
228.797668	146.720000
228.890350	146.800000
228.983032	145.860000
229.075714	146.560000
229.168396	146.380000
229.261108	145.800000
229.353790	145.700000
229.446472	146.480000
229.539169	146.140000
229.631851	145.780000
229.724533	146.140000
229.817230	146.160000
229.909912	146.820000
230.002609	146.900000
230.095306	147.120000
230.187988	147.100000
230.280685	146.940000
230.373383	145.720000
230.466095	145.380000
230.558792	145.560000
230.651474	145.580000
230.744171	145.620000
230.836868	145.720000
230.929581	146.040000
231.022278	146.020000
231.114975	146.240000
231.207672	146.200000
231.300369	146.700000
231.393082	146.620000
231.485779	146.400000
231.578506	146.100000
231.671204	146.300000
231.763916	146.080000
231.856613	146.080000
231.949326	146.180000
232.042023	146.340000
232.134735	146.100000
232.227448	145.840000
232.320160	146.040000
232.412872	145.940000
232.505585	146.520000
232.598297	147.000000
232.691010	147.180000
232.783722	146.600000
232.876450	147.300000
232.969162	146.500000
233.061874	145.900000
233.154587	145.600000
233.247314	146.240000
233.340027	145.520000
233.432739	146.400000
233.525467	146.580000
233.618179	147.040000
233.710907	146.520000
233.803635	147.120000
233.896347	146.440000
233.989090	146.820000
234.081818	146.700000
234.174545	147.320000
234.267258	146.660000
234.359985	146.920000
234.452713	147.040000
234.545441	146.920000
234.638168	146.200000
234.730896	146.820000
234.823639	146.760000
234.916367	147.140000
235.009094	147.240000
235.101822	147.740000
235.194580	147.640000
235.287308	147.460000
235.380051	146.720000
235.472778	147.120000
235.565521	147.020000
235.658249	146.500000
235.750992	146.680000
235.843719	146.840000
235.936462	146.680000
236.029205	146.480000
236.121948	146.380000
236.214691	146.780000
236.307449	147.120000
236.400192	146.980000
236.492935	147.000000
236.585678	147.460000
236.678421	147.180000
236.771164	147.140000
236.863907	147.500000
236.956665	147.660000
237.049408	148.900000
237.142151	148.640000
237.234909	148.940000
237.327652	148.820000
237.420410	148.500000
237.513153	147.520000
237.605927	147.480000
237.698669	146.780000
237.791428	146.000000
237.884186	146.480000
237.976944	145.780000
238.069702	145.940000
238.162445	145.660000
238.255203	145.880000
238.347961	146.340000
238.440720	146.540000
238.533478	146.420000
238.626266	146.200000
238.719025	146.700000
238.811783	146.260000
238.904541	146.020000
238.997314	146.040000
239.090073	146.080000
239.182831	146.140000
239.275604	146.880000
239.368362	146.960000
239.461136	146.960000
239.553909	147.120000
239.646667	146.860000
239.739441	146.240000
239.832214	146.600000
239.925003	146.720000
240.017761	147.440000
240.110535	147.660000
240.203308	147.240000
240.296082	147.320000
240.388855	147.220000
240.481628	147.060000
240.574417	147.180000
240.667191	147.280000
240.759964	146.820000
240.852737	146.680000
240.945526	146.180000
241.038315	146.020000
241.131088	146.260000
241.223877	146.640000
241.316650	146.380000
241.409439	146.960000
241.502228	146.520000
241.595001	146.660000
241.687790	146.380000
241.780579	146.880000
241.873367	146.560000
241.966141	146.920000
242.058929	146.560000
242.151718	146.900000
242.244507	147.060000
242.337311	146.480000
242.430099	146.700000
242.522903	146.960000
242.615692	146.440000
242.708481	146.260000
242.801270	147.180000
242.894073	147.180000
242.986862	147.200000
243.079651	148.020000
243.172455	147.760000
243.265244	147.560000
243.358063	146.780000
243.450867	146.860000
243.543655	146.700000
243.636459	146.780000
243.729263	146.980000
243.822067	147.500000
243.914856	147.600000
244.007660	147.560000
244.100464	147.520000
244.193268	147.280000
244.286072	147.160000
244.378876	146.740000
244.471680	146.200000
244.564499	146.580000
244.657318	147.080000
244.750122	147.320000
244.842926	146.860000
244.935745	147.480000
245.028549	146.900000
245.121368	146.260000
245.214172	146.300000
245.306992	146.880000
245.399796	146.500000
245.492615	146.820000
245.585434	146.540000
245.678253	146.240000
245.771072	145.880000
245.863892	146.560000
245.956711	146.800000
246.049530	146.840000
246.142349	146.720000
246.235168	147.220000
246.327988	147.280000
246.420807	147.020000
246.513626	147.360000
246.606445	147.320000
246.699280	147.040000
246.792099	146.700000
246.884918	146.360000
246.977753	146.120000
247.070587	146.200000
247.163422	146.320000
247.256241	145.880000
247.349075	146.420000
247.441895	146.580000
247.534729	146.660000
247.627563	146.540000
247.720383	147.460000
247.813217	147.160000
247.906052	146.680000
247.998886	146.620000
248.091736	146.500000
248.184570	146.040000
248.277405	146.160000
248.370239	147.440000
248.463074	148.260000
248.555908	148.580000
248.648743	148.380000
248.741592	148.540000
248.834427	147.520000
248.927261	146.560000
249.020111	147.040000
249.112946	147.660000
249.205795	147.320000
249.298630	147.780000
249.391495	147.620000
249.484344	146.820000
249.577179	146.420000
249.670029	146.700000
249.762878	147.400000
249.855728	148.040000
249.948563	148.000000
250.041412	147.320000
250.134262	147.580000
250.227112	147.100000
250.319962	147.000000
250.412827	147.320000
250.505692	147.460000
250.598541	147.060000
250.691391	146.580000
250.784241	146.400000
250.877106	146.320000
250.969955	146.100000
251.062805	146.460000
251.155670	147.120000
251.248520	147.040000
251.341385	147.440000
251.434235	147.540000
251.527100	147.240000
251.619965	146.300000
251.712814	146.960000
251.805695	146.780000
251.898560	147.300000
251.991425	147.460000
252.084290	148.000000
252.177155	147.240000
252.270020	147.000000
252.362885	146.760000
252.455750	146.660000
252.548615	146.360000
252.641479	146.420000
252.734360	146.300000
252.827240	146.280000
252.920105	146.460000
253.012970	146.320000
253.105850	146.360000
253.198715	146.380000
253.291595	146.220000
253.384460	145.880000
253.477341	145.940000
253.570221	146.140000
253.663086	145.960000
253.755966	146.800000
253.848846	146.780000
253.941727	147.040000
254.034592	147.040000
254.127472	146.680000
254.220367	146.360000
254.313248	146.760000
254.406128	146.380000
254.499008	146.480000
254.591904	147.560000
254.684784	147.660000
254.777664	147.500000
254.870544	147.320000
254.963440	147.140000
255.056335	146.820000
255.149216	146.580000
255.242111	147.060000
255.334991	147.520000
255.427887	147.740000
255.520767	147.500000
255.613663	147.580000
255.706558	146.540000
255.799438	146.320000
255.892334	145.940000
255.985229	146.200000
256.078125	145.920000
256.171021	146.440000
256.263916	147.060000
256.356812	147.400000
256.449707	147.580000
256.542603	147.360000
256.635498	147.700000
256.728394	147.420000
256.821289	147.000000
256.914215	146.980000
257.007080	147.560000
257.100006	147.380000
257.192932	147.940000
257.285828	148.420000
257.378723	148.120000
257.471619	147.820000
257.564545	147.440000
257.657440	146.980000
257.750336	147.300000
257.843262	147.020000
257.936157	148.060000
258.029053	148.440000
258.121979	148.360000
258.214874	147.960000
258.307800	147.860000
258.400696	146.720000
258.493622	146.440000
258.586517	145.860000
258.679443	146.140000
258.772339	145.900000
258.865265	145.820000
258.958160	145.600000
259.051086	146.680000
259.144012	146.400000
259.236938	147.480000
259.329834	147.720000
259.422791	147.620000
259.515717	146.700000
259.608612	146.520000
259.701538	146.160000
259.794464	145.940000
259.887390	146.380000
259.980316	146.320000
260.073212	146.040000
260.166138	145.280000
260.259064	145.600000
260.351990	145.740000
260.444916	145.660000
260.537842	146.460000
260.630768	147.220000
260.723694	146.960000
260.816620	146.620000
260.909546	146.680000
261.002472	145.880000
261.095398	145.440000
261.188354	145.640000
261.281281	145.160000
261.374207	145.400000
261.467133	146.260000
261.560089	146.400000
261.653015	146.320000
261.745972	147.280000
261.838867	147.540000
261.931824	147.600000
262.024780	147.000000
262.117706	147.120000
262.210663	146.940000
262.303589	146.340000
262.396515	146.160000
262.489471	147.480000
262.582397	147.180000
262.675354	146.840000
262.768280	147.340000
262.861237	146.960000
262.954163	146.480000
263.047119	146.880000
263.140045	146.680000
263.233002	146.600000
263.325958	146.700000
263.418884	145.940000
263.511841	145.500000
263.604797	145.920000
263.697723	146.060000
263.790680	145.820000
263.883636	146.640000
263.976593	146.660000
264.069550	146.360000
264.162476	146.020000
264.255463	146.580000
264.348419	146.260000
264.441376	146.500000
264.534332	146.200000
264.627289	146.300000
264.720245	146.360000
264.813202	146.060000
264.906158	146.460000
264.999115	147.100000
265.092072	147.180000
265.185028	147.360000
265.277985	147.820000
265.370941	147.400000
265.463898	147.120000
265.556854	146.780000
265.649811	145.720000
265.742798	145.640000
265.835754	145.800000
265.928711	146.320000
266.021667	146.740000
266.114655	147.200000
266.207611	147.400000
266.300568	146.640000
266.393585	146.020000
266.486511	146.180000
266.579498	145.620000
266.672485	145.500000
266.765442	145.680000
266.858429	146.260000
266.951385	145.640000
267.044342	146.080000
267.137329	146.100000
267.230316	146.600000
267.323273	146.280000
267.416260	147.120000
267.509216	146.940000
267.602203	146.680000
267.695160	146.860000
267.788147	146.800000
267.881134	145.880000
267.974091	146.260000
268.067078	146.180000
268.160065	145.980000
268.253052	145.860000
268.346008	146.440000
268.438995	146.240000
268.531982	146.660000
268.624969	146.240000
268.717987	146.780000
268.810944	146.400000
268.903961	146.520000
268.996948	146.280000
269.089905	147.080000
269.182892	146.700000
269.275879	147.400000
269.368866	146.880000
269.461853	147.140000
269.554871	146.780000
269.647858	146.920000
269.740845	146.860000
269.833832	147.520000
269.926819	147.160000
270.019806	147.120000
270.112793	147.000000
270.205811	146.900000
270.298798	146.560000
270.391785	147.200000
270.484772	146.800000
270.577789	146.800000
270.670776	146.520000
270.763763	146.680000
270.856750	146.420000
270.949768	146.580000
271.042786	146.780000
271.135773	146.820000
271.228790	146.960000
271.321808	146.460000
271.414795	146.300000
271.507782	145.700000
271.600800	145.480000
271.693817	145.440000
271.786804	145.880000
271.879822	146.080000
271.972809	146.240000
272.065826	146.620000
272.158844	146.180000
272.251831	146.560000
272.344849	146.500000
272.437866	146.220000
272.530853	146.260000
272.623871	146.620000
272.716888	145.880000
272.809906	146.400000
272.902893	146.780000
272.995911	146.300000
273.088928	146.540000
273.181946	146.700000
273.274963	146.200000
273.367981	146.160000
273.460999	146.320000
273.554047	146.260000
273.647003	146.560000
273.740051	146.580000
273.833069	146.900000
273.926086	147.260000
274.019135	146.860000
274.112152	146.660000
274.205170	146.660000
274.298187	146.720000
274.391205	145.980000
274.484222	146.000000
274.577240	146.340000
274.670258	146.440000
274.763306	146.180000
274.856323	146.900000
274.949341	147.160000
275.042358	147.240000
275.135406	147.380000
275.228424	147.260000
275.321442	147.000000
275.414490	146.800000
275.507507	146.960000
275.600525	147.100000
275.693573	147.140000
275.786591	147.120000
275.879669	147.100000
275.972656	146.480000
276.065735	146.480000
276.158752	146.780000
276.251801	147.200000
276.344818	147.380000
276.437866	147.440000
276.530884	146.780000
276.623932	146.180000
276.716980	146.340000
276.809998	146.640000
276.903046	146.660000
276.996094	147.820000
277.089111	148.320000
277.182159	148.760000
277.275208	148.120000
277.368256	148.260000
277.461304	147.480000
277.554321	146.960000
277.647369	146.140000
277.740417	146.020000
277.833466	145.900000
277.926514	145.800000
278.019562	146.500000
278.112610	146.040000
278.205688	146.500000
278.298706	146.520000
278.391785	146.240000
278.484833	145.780000
278.577881	146.020000
278.670929	146.220000
278.763977	146.320000
278.857025	147.260000
278.950073	147.240000
279.043121	146.880000
279.136169	146.660000
279.229248	146.020000
279.322296	145.520000
279.415344	145.220000
279.508392	145.580000
279.601440	145.540000
279.694519	145.660000
279.787567	145.700000
279.880615	146.000000
279.973694	145.960000
280.066742	145.880000
280.159790	146.380000
280.252869	145.980000
280.345917	146.040000
280.438995	145.940000
280.532074	145.680000
280.625122	145.960000
280.718201	147.300000
280.811279	147.500000
280.904327	147.360000
280.997406	147.860000
281.090454	147.480000
281.183533	146.340000
281.276581	145.900000
281.369659	146.060000
281.462738	145.960000
281.555786	146.360000
281.648865	146.460000
281.741943	146.480000
281.835022	146.820000
281.928070	146.580000
282.021149	146.140000
282.114227	146.200000
282.207306	146.800000
282.300385	147.140000
282.393433	147.360000
282.486511	147.520000
282.579590	147.940000
282.672668	147.860000
282.765747	147.180000
282.858856	147.120000
282.951904	147.180000
283.045013	146.840000
283.138062	146.880000
283.231171	147.040000
283.324249	147.080000
283.417328	147.100000
283.510406	146.780000
283.603485	146.560000
283.696564	146.400000
283.789642	146.340000
283.882751	146.040000
283.975830	146.800000
284.068909	146.680000
284.161987	147.240000
284.255066	147.060000
284.348175	147.160000
284.441254	146.760000
284.534332	146.960000
284.627441	146.700000
284.720520	146.780000
284.813599	146.680000
284.906708	146.740000
284.999786	146.080000
285.092896	145.580000
285.185974	146.240000
285.279053	145.820000
285.372192	145.880000
285.465240	146.960000
285.558380	147.220000
285.651459	146.760000
285.744568	147.740000
285.837677	147.180000
285.930756	146.760000
286.023865	146.920000
286.116943	146.880000
286.210052	146.640000
286.303162	147.000000
286.396240	146.880000
286.489349	146.500000
286.582458	146.460000
286.675568	146.320000
286.768646	146.160000
286.861755	146.500000
286.954865	147.260000
287.047974	146.800000
287.141083	146.320000
287.234161	146.260000
287.327271	145.880000
287.420380	146.280000
287.513519	146.420000
287.606598	146.680000
287.699738	147.020000
287.792816	146.800000
287.885956	146.160000
287.979034	146.300000
288.072174	146.720000
288.165283	146.440000
288.258392	146.800000
288.351501	145.940000
288.444611	146.360000
288.537720	146.320000
288.630859	146.160000
288.723969	146.220000
288.817078	147.040000
288.910187	146.780000
289.003296	146.300000
289.096436	146.340000
289.189545	146.080000
289.282654	145.640000
289.375763	146.140000
289.468903	146.500000
289.562012	146.840000
289.655121	147.080000
289.748260	147.200000
289.841400	147.280000
289.934509	147.360000
290.027649	147.340000
290.120728	147.140000
290.213898	147.280000
290.306976	146.860000
290.400146	146.520000
290.493256	146.200000
290.586395	146.320000
290.679535	146.660000
290.772644	146.620000
290.865784	146.380000
290.958893	146.440000
291.052032	146.300000
291.145172	146.140000
291.238281	145.480000
291.331421	145.840000
291.424561	146.360000
291.517670	146.180000
291.610809	146.280000
291.703949	146.600000
291.797089	146.740000
291.890228	146.120000
291.983337	146.420000
292.076477	146.180000
292.169617	146.620000
292.262756	146.420000
292.355927	146.580000
292.449036	146.520000
292.542206	146.720000
292.635315	146.680000
292.728485	146.980000
292.821625	146.900000
292.914764	147.820000
293.007904	147.780000
293.101044	148.000000
293.194183	147.840000
293.287323	147.860000
293.380463	146.940000
293.473602	146.600000
293.566742	146.660000
293.659882	146.880000
293.753021	147.120000
293.846191	147.240000
293.939331	147.040000
294.032471	146.560000
294.125610	146.260000
294.218781	146.640000
294.311920	146.880000
294.405060	147.060000
294.498230	147.220000
294.591370	147.320000
294.684540	146.440000
294.777679	145.740000
294.870850	146.320000
294.963959	146.360000
295.057159	146.080000
295.150299	146.480000
295.243469	146.860000
295.336609	146.120000
295.429779	145.940000
295.522919	146.420000
295.616089	146.620000
295.709229	146.800000
295.802399	147.040000
295.895569	146.720000
295.988708	146.220000
296.081879	146.100000
296.175018	145.880000
296.268188	145.960000
296.361359	146.600000
296.454529	146.820000
296.547668	146.600000
296.640839	146.940000
296.734009	146.700000
296.827179	146.540000
296.920319	147.040000
297.013519	147.080000
297.106659	146.980000
297.199860	147.000000
297.292999	147.100000
297.386200	146.340000
297.479309	146.180000
297.572510	146.080000
297.665680	146.240000
297.758850	146.100000
297.852020	146.220000
297.945190	146.260000
298.038361	145.960000
298.131531	146.600000
298.224701	146.320000
298.317871	146.260000
298.411072	145.960000
298.504242	145.860000
298.597412	145.100000
298.690582	145.420000
298.783752	145.420000
298.876923	145.980000
298.970093	146.500000
299.063293	146.800000
299.156464	147.020000
299.249634	147.220000
299.342834	147.180000
299.436005	147.380000
299.529205	147.200000
299.622345	146.980000
299.715576	146.440000
299.808716	146.400000
299.901917	145.960000
299.995117	146.180000
300.088287	146.340000
300.181488	146.340000
300.274658	146.160000
300.367828	146.280000
300.461029	146.220000
300.554199	146.180000
300.647400	146.460000
300.740601	146.940000
300.833771	146.620000
300.926971	146.980000
301.020142	146.260000
301.113342	146.320000
301.206512	146.420000
301.299713	146.660000
301.392914	146.640000
301.486084	147.420000
301.579285	147.440000
301.672516	147.560000
301.765686	147.520000
301.858887	147.280000
301.952057	147.180000
302.045288	147.200000
302.138458	146.560000
302.231659	146.100000
302.324860	146.000000
302.418060	145.680000
302.511261	145.420000
302.604462	145.880000
302.697662	146.260000
302.790863	146.180000
302.884064	146.080000
302.977264	146.380000
303.070465	146.660000
303.163666	147.200000
303.256866	147.420000
303.350067	147.580000
303.443268	147.760000
303.536469	147.560000
303.629669	147.160000
303.722870	147.300000
303.816071	147.080000
303.909271	146.720000
304.002472	145.740000
304.095673	145.440000
304.188934	144.640000
304.282104	145.880000
304.375336	145.860000
304.468506	146.300000
304.561768	146.280000
304.654968	147.160000
304.748169	146.200000
304.841370	146.340000
304.934601	146.920000
305.027802	146.980000
305.121002	146.180000
305.214233	146.300000
305.307434	146.480000
305.400665	146.700000
305.493866	146.440000
