Model Number: SPM-002-B   
Serial Number: 70087108
Firmware Version: 004.15.4
Exposure Time: 100000.000000us
Data Taken on: 11-12-2020 19:37:52.249
Wavelength	Amplitude
221.570786	0.000000
221.663406	0.000000
221.756027	0.000000
221.848648	0.000000
221.941269	0.000000
222.033905	0.000000
222.126526	0.000000
222.219162	0.000000
222.311798	0.000000
222.404419	0.000000
222.497055	0.000000
222.589676	0.000000
222.682312	0.000000
222.774933	0.000000
222.867569	0.000000
222.960205	0.000000
223.052841	0.000000
223.145462	0.000000
223.238098	0.000000
223.330734	0.000000
223.423386	0.000000
223.516022	0.000000
223.608658	0.000000
223.701309	0.000000
223.793945	0.000000
223.886581	0.000000
223.979218	0.000000
224.071869	0.000000
224.164505	0.000000
224.257156	0.000000
224.349792	0.000000
224.442444	0.000000
224.535095	0.000000
224.627747	0.000000
224.720398	0.000000
224.813034	0.000000
224.905685	0.000000
224.998337	145.360000
225.090988	145.020000
225.183640	145.020000
225.276291	144.780000
225.368942	145.420000
225.461594	145.840000
225.554245	146.020000
225.646912	145.940000
225.739578	146.480000
225.832230	146.820000
225.924896	146.180000
226.017548	146.260000
226.110199	147.000000
226.202866	146.340000
226.295532	145.720000
226.388184	145.600000
226.480850	145.380000
226.573517	144.980000
226.666168	145.260000
226.758835	145.580000
226.851501	146.240000
226.944183	146.460000
227.036850	145.920000
227.129517	145.860000
227.222183	145.920000
227.314850	145.520000
227.407516	145.700000
227.500198	146.520000
227.592865	146.040000
227.685532	145.680000
227.778214	145.860000
227.870880	145.900000
227.963562	146.220000
228.056229	146.780000
228.148926	146.900000
228.241592	147.220000
228.334274	146.940000
228.426956	146.360000
228.519638	146.400000
228.612305	145.840000
228.704987	146.000000
228.797668	146.320000
228.890350	146.260000
228.983032	145.720000
229.075714	146.980000
229.168396	146.540000
229.261108	146.120000
229.353790	146.020000
229.446472	146.140000
229.539169	145.540000
229.631851	145.180000
229.724533	145.280000
229.817230	145.720000
229.909912	146.800000
230.002609	146.820000
230.095306	146.980000
230.187988	146.960000
230.280685	146.780000
230.373383	145.580000
230.466095	145.280000
230.558792	145.640000
230.651474	145.680000
230.744171	145.400000
230.836868	145.500000
230.929581	146.140000
231.022278	146.020000
231.114975	146.040000
231.207672	145.980000
231.300369	146.620000
231.393082	146.300000
231.485779	146.020000
231.578506	146.080000
231.671204	146.240000
231.763916	145.960000
231.856613	145.720000
231.949326	145.940000
232.042023	145.520000
232.134735	145.520000
232.227448	145.380000
232.320160	145.740000
232.412872	145.660000
232.505585	146.600000
232.598297	146.760000
232.691010	146.540000
232.783722	146.120000
232.876450	146.380000
232.969162	145.640000
233.061874	145.400000
233.154587	145.300000
233.247314	145.720000
233.340027	145.400000
233.432739	145.980000
233.525467	145.720000
233.618179	146.280000
233.710907	145.900000
233.803635	146.540000
233.896347	146.220000
233.989090	147.340000
234.081818	147.200000
234.174545	147.280000
234.267258	146.560000
234.359985	146.680000
234.452713	145.980000
234.545441	145.740000
234.638168	145.660000
234.730896	146.080000
234.823639	145.860000
234.916367	146.280000
235.009094	146.200000
235.101822	146.340000
235.194580	146.340000
235.287308	146.400000
235.380051	145.780000
235.472778	146.160000
235.565521	146.460000
235.658249	146.020000
235.750992	146.260000
235.843719	146.460000
235.936462	146.620000
236.029205	146.200000
236.121948	146.420000
236.214691	146.660000
236.307449	147.140000
236.400192	146.620000
236.492935	146.380000
236.585678	146.060000
236.678421	145.880000
236.771164	145.660000
236.863907	146.120000
236.956665	146.520000
237.049408	148.400000
237.142151	147.780000
237.234909	148.240000
237.327652	148.200000
237.420410	147.680000
237.513153	146.520000
237.605927	146.400000
237.698669	145.680000
237.791428	145.080000
237.884186	145.740000
237.976944	145.120000
238.069702	145.660000
238.162445	145.180000
238.255203	145.340000
238.347961	145.340000
238.440720	145.380000
238.533478	145.220000
238.626266	145.400000
238.719025	145.680000
238.811783	145.220000
238.904541	144.920000
238.997314	144.860000
239.090073	144.620000
239.182831	144.840000
239.275604	146.000000
239.368362	146.200000
239.461136	146.540000
239.553909	146.820000
239.646667	146.300000
239.739441	145.760000
239.832214	146.300000
239.925003	146.160000
240.017761	146.740000
240.110535	147.520000
240.203308	146.800000
240.296082	146.800000
240.388855	146.660000
240.481628	146.420000
240.574417	146.420000
240.667191	146.960000
240.759964	146.380000
240.852737	146.320000
240.945526	146.200000
241.038315	145.880000
241.131088	145.940000
241.223877	146.400000
241.316650	146.120000
241.409439	146.360000
241.502228	145.820000
241.595001	145.960000
241.687790	146.120000
241.780579	146.620000
241.873367	146.740000
241.966141	147.160000
242.058929	146.700000
242.151718	146.340000
242.244507	146.200000
242.337311	145.560000
242.430099	146.160000
242.522903	146.600000
242.615692	146.360000
242.708481	146.540000
242.801270	147.080000
242.894073	146.700000
242.986862	146.500000
243.079651	147.280000
243.172455	146.860000
243.265244	146.440000
243.358063	146.020000
243.450867	146.640000
243.543655	146.180000
243.636459	146.440000
243.729263	146.860000
243.822067	147.020000
243.914856	146.940000
244.007660	147.220000
244.100464	147.320000
244.193268	147.120000
244.286072	147.000000
244.378876	146.460000
244.471680	146.080000
244.564499	146.100000
244.657318	146.620000
244.750122	147.160000
244.842926	146.720000
244.935745	147.260000
245.028549	146.820000
245.121368	146.460000
245.214172	146.000000
245.306992	146.540000
245.399796	146.020000
245.492615	146.240000
245.585434	145.960000
245.678253	145.860000
245.771072	145.480000
245.863892	146.040000
245.956711	146.360000
246.049530	146.300000
246.142349	146.320000
246.235168	146.640000
246.327988	146.680000
246.420807	146.360000
246.513626	146.540000
246.606445	146.700000
246.699280	146.520000
246.792099	145.920000
246.884918	145.720000
246.977753	145.040000
247.070587	144.900000
247.163422	144.920000
247.256241	145.060000
247.349075	145.440000
247.441895	145.840000
247.534729	145.880000
247.627563	145.660000
247.720383	146.420000
247.813217	145.860000
247.906052	145.660000
247.998886	145.480000
248.091736	145.640000
248.184570	145.100000
248.277405	145.560000
248.370239	146.660000
248.463074	147.860000
248.555908	148.380000
248.648743	148.100000
248.741592	148.140000
248.834427	147.400000
248.927261	146.040000
249.020111	146.100000
249.112946	146.580000
249.205795	146.120000
249.298630	146.240000
249.391495	146.500000
249.484344	146.040000
249.577179	146.080000
249.670029	146.760000
249.762878	147.380000
249.855728	147.780000
249.948563	147.700000
250.041412	146.780000
250.134262	146.840000
250.227112	146.380000
250.319962	146.260000
250.412827	146.380000
250.505692	146.520000
250.598541	146.460000
250.691391	146.160000
250.784241	145.860000
250.877106	146.000000
250.969955	145.960000
251.062805	146.260000
251.155670	146.580000
251.248520	146.420000
251.341385	146.460000
251.434235	146.580000
251.527100	145.860000
251.619965	145.700000
251.712814	146.860000
251.805695	146.620000
251.898560	146.660000
251.991425	146.900000
252.084290	147.320000
252.177155	146.140000
252.270020	146.020000
252.362885	146.380000
252.455750	146.840000
252.548615	146.280000
252.641479	146.400000
252.734360	146.360000
252.827240	145.920000
252.920105	145.520000
253.012970	145.280000
253.105850	145.300000
253.198715	145.080000
253.291595	145.140000
253.384460	144.740000
253.477341	145.020000
253.570221	145.100000
253.663086	144.940000
253.755966	145.320000
253.848846	145.460000
253.941727	145.580000
254.034592	145.680000
254.127472	145.660000
254.220367	145.780000
254.313248	146.120000
254.406128	145.580000
254.499008	145.760000
254.591904	146.620000
254.684784	146.560000
254.777664	146.520000
254.870544	146.600000
254.963440	146.300000
255.056335	145.780000
255.149216	145.580000
255.242111	145.880000
255.334991	146.180000
255.427887	146.400000
255.520767	146.760000
255.613663	146.980000
255.706558	146.340000
255.799438	146.120000
255.892334	145.960000
255.985229	145.760000
256.078125	145.340000
256.171021	145.400000
256.263916	145.860000
256.356812	145.900000
256.449707	146.160000
256.542603	146.060000
256.635498	146.680000
256.728394	146.660000
256.821289	146.620000
256.914215	146.740000
257.007080	146.920000
257.100006	146.740000
257.192932	146.780000
257.285828	146.820000
257.378723	146.580000
257.471619	146.820000
257.564545	146.140000
257.657440	146.300000
257.750336	146.780000
257.843262	146.400000
257.936157	147.160000
258.029053	147.760000
258.121979	147.940000
258.214874	147.420000
258.307800	147.500000
258.400696	146.280000
258.493622	146.000000
258.586517	144.940000
258.679443	145.320000
258.772339	145.120000
258.865265	145.740000
258.958160	145.420000
259.051086	146.240000
259.144012	145.940000
259.236938	146.840000
259.329834	146.420000
259.422791	146.580000
259.515717	145.780000
259.608612	145.520000
259.701538	145.220000
259.794464	145.100000
259.887390	145.000000
259.980316	145.260000
260.073212	145.060000
260.166138	144.280000
260.259064	144.620000
260.351990	145.160000
260.444916	145.000000
260.537842	145.600000
260.630768	146.460000
260.723694	146.360000
260.816620	146.300000
260.909546	146.480000
261.002472	145.960000
261.095398	145.340000
261.188354	145.460000
261.281281	144.940000
261.374207	145.220000
261.467133	145.980000
261.560089	146.280000
261.653015	145.860000
261.745972	146.600000
261.838867	146.800000
261.931824	146.880000
262.024780	146.020000
262.117706	146.240000
262.210663	146.140000
262.303589	145.620000
262.396515	145.600000
262.489471	147.040000
262.582397	147.080000
262.675354	146.760000
262.768280	147.000000
262.861237	146.620000
262.954163	146.320000
263.047119	146.380000
263.140045	146.100000
263.233002	146.300000
263.325958	146.260000
263.418884	145.720000
263.511841	145.540000
263.604797	145.620000
263.697723	145.400000
263.790680	145.280000
263.883636	146.060000
263.976593	146.140000
264.069550	146.440000
264.162476	146.220000
264.255463	146.560000
264.348419	145.860000
264.441376	145.860000
264.534332	145.320000
264.627289	145.420000
264.720245	145.600000
264.813202	145.220000
264.906158	145.440000
264.999115	146.080000
265.092072	146.140000
265.185028	146.540000
265.277985	146.940000
265.370941	146.640000
265.463898	146.180000
265.556854	146.080000
265.649811	144.980000
265.742798	145.140000
265.835754	145.320000
265.928711	146.000000
266.021667	146.140000
266.114655	146.640000
266.207611	146.680000
266.300568	146.060000
266.393585	145.340000
266.486511	145.740000
266.579498	145.140000
266.672485	145.040000
266.765442	145.420000
266.858429	146.000000
266.951385	145.200000
267.044342	145.660000
267.137329	145.660000
267.230316	145.740000
267.323273	145.160000
267.416260	146.180000
267.509216	145.860000
267.602203	145.820000
267.695160	146.500000
267.788147	146.840000
267.881134	145.920000
267.974091	146.320000
268.067078	146.180000
268.160065	145.780000
268.253052	145.720000
268.346008	145.920000
268.438995	145.500000
268.531982	145.740000
268.624969	145.540000
268.717987	145.540000
268.810944	145.520000
268.903961	145.940000
268.996948	145.460000
269.089905	145.740000
269.182892	146.000000
269.275879	146.460000
269.368866	145.700000
269.461853	146.100000
269.554871	145.900000
269.647858	145.920000
269.740845	145.940000
269.833832	146.880000
269.926819	146.540000
270.019806	146.720000
270.112793	145.820000
270.205811	145.860000
270.298798	145.380000
270.391785	146.200000
270.484772	145.720000
270.577789	146.400000
270.670776	145.860000
270.763763	145.980000
270.856750	145.960000
270.949768	145.940000
271.042786	145.880000
271.135773	146.120000
271.228790	146.180000
271.321808	145.380000
271.414795	145.140000
271.507782	145.000000
271.600800	144.460000
271.693817	144.540000
271.786804	145.060000
271.879822	145.620000
271.972809	145.500000
272.065826	146.180000
272.158844	145.540000
272.251831	146.040000
272.344849	145.900000
272.437866	145.680000
272.530853	145.620000
272.623871	146.200000
272.716888	145.080000
272.809906	145.420000
272.902893	145.820000
272.995911	145.280000
273.088928	145.360000
273.181946	145.940000
273.274963	145.400000
273.367981	145.260000
273.460999	145.920000
273.554047	145.960000
273.647003	146.360000
273.740051	146.520000
273.833069	146.800000
273.926086	146.540000
274.019135	146.360000
274.112152	146.060000
274.205170	146.360000
274.298187	146.500000
274.391205	146.100000
274.484222	146.260000
274.577240	146.180000
274.670258	145.800000
274.763306	145.620000
274.856323	146.120000
274.949341	145.880000
275.042358	146.040000
275.135406	146.000000
275.228424	146.100000
275.321442	145.880000
275.414490	145.540000
275.507507	145.960000
275.600525	146.580000
275.693573	146.200000
275.786591	146.060000
275.879669	146.680000
275.972656	146.020000
276.065735	145.680000
276.158752	146.320000
276.251801	146.940000
276.344818	146.940000
276.437866	146.860000
276.530884	146.740000
276.623932	145.680000
276.716980	145.740000
276.809998	145.580000
276.903046	145.520000
276.996094	146.040000
277.089111	147.000000
277.182159	147.320000
277.275208	147.240000
277.368256	147.400000
277.461304	147.060000
277.554321	146.320000
277.647369	145.940000
277.740417	145.800000
277.833466	145.620000
277.926514	145.360000
278.019562	146.140000
278.112610	145.400000
278.205688	145.540000
278.298706	145.820000
278.391785	145.620000
278.484833	145.140000
278.577881	145.320000
278.670929	145.620000
278.763977	145.540000
278.857025	146.060000
278.950073	146.060000
279.043121	146.040000
279.136169	145.880000
279.229248	145.500000
279.322296	145.640000
279.415344	145.460000
279.508392	145.540000
279.601440	145.320000
279.694519	145.660000
279.787567	145.100000
279.880615	145.020000
279.973694	145.040000
280.066742	145.200000
280.159790	145.240000
280.252869	145.140000
280.345917	145.480000
280.438995	145.540000
280.532074	145.360000
280.625122	145.280000
280.718201	146.400000
280.811279	146.460000
280.904327	146.320000
280.997406	146.480000
281.090454	146.700000
281.183533	145.680000
281.276581	145.640000
281.369659	145.500000
281.462738	145.640000
281.555786	145.700000
281.648865	146.000000
281.741943	145.820000
281.835022	146.660000
281.928070	146.520000
282.021149	146.160000
282.114227	145.860000
282.207306	145.980000
282.300385	145.940000
282.393433	145.960000
282.486511	146.260000
282.579590	146.760000
282.672668	147.140000
282.765747	146.560000
282.858856	146.320000
282.951904	146.040000
283.045013	146.040000
283.138062	146.120000
283.231171	146.260000
283.324249	146.900000
283.417328	147.160000
283.510406	146.800000
283.603485	146.400000
283.696564	146.600000
283.789642	146.320000
283.882751	146.260000
283.975830	147.040000
284.068909	146.720000
284.161987	147.280000
284.255066	146.580000
284.348175	146.520000
284.441254	145.700000
284.534332	146.160000
284.627441	145.400000
284.720520	145.640000
284.813599	145.340000
284.906708	145.720000
284.999786	145.260000
285.092896	144.880000
285.185974	145.840000
285.279053	145.560000
285.372192	145.660000
285.465240	146.500000
285.558380	146.840000
285.651459	146.240000
285.744568	147.580000
285.837677	147.140000
285.930756	146.940000
286.023865	146.940000
286.116943	146.360000
286.210052	145.820000
286.303162	145.880000
286.396240	145.600000
286.489349	145.320000
286.582458	145.800000
286.675568	145.460000
286.768646	145.300000
286.861755	145.540000
286.954865	146.560000
287.047974	146.080000
287.141083	146.280000
287.234161	146.300000
287.327271	145.860000
287.420380	145.620000
287.513519	145.480000
287.606598	145.300000
287.699738	145.720000
287.792816	145.860000
287.885956	145.400000
287.979034	145.880000
288.072174	146.220000
288.165283	145.920000
288.258392	146.240000
288.351501	145.840000
288.444611	145.980000
288.537720	146.120000
288.630859	146.360000
288.723969	146.420000
288.817078	146.960000
288.910187	147.100000
289.003296	146.340000
289.096436	145.520000
289.189545	145.320000
289.282654	144.780000
289.375763	145.020000
289.468903	145.480000
289.562012	146.180000
289.655121	145.980000
289.748260	146.420000
289.841400	146.440000
289.934509	146.780000
290.027649	147.140000
290.120728	146.720000
290.213898	146.680000
290.306976	146.400000
290.400146	146.300000
290.493256	145.700000
290.586395	146.080000
290.679535	146.320000
290.772644	145.920000
290.865784	145.100000
290.958893	144.980000
291.052032	144.860000
291.145172	144.700000
291.238281	144.940000
291.331421	145.300000
291.424561	145.980000
291.517670	146.020000
291.610809	145.960000
291.703949	145.620000
291.797089	145.660000
291.890228	144.960000
291.983337	144.920000
292.076477	144.740000
292.169617	145.100000
292.262756	145.180000
292.355927	145.320000
292.449036	145.080000
292.542206	145.380000
292.635315	145.500000
292.728485	145.660000
292.821625	145.460000
292.914764	146.800000
293.007904	146.840000
293.101044	146.700000
293.194183	146.640000
293.287323	147.000000
293.380463	145.980000
293.473602	145.540000
293.566742	145.920000
293.659882	146.260000
293.753021	146.260000
293.846191	146.500000
293.939331	146.360000
294.032471	145.900000
294.125610	145.580000
294.218781	146.040000
294.311920	146.260000
294.405060	146.660000
294.498230	146.800000
294.591370	146.880000
294.684540	146.080000
294.777679	145.700000
294.870850	145.840000
294.963959	145.620000
295.057159	145.620000
295.150299	145.980000
295.243469	145.740000
295.336609	145.140000
295.429779	145.320000
295.522919	145.580000
295.616089	145.780000
295.709229	146.340000
295.802399	146.840000
295.895569	146.680000
295.988708	146.340000
296.081879	146.420000
296.175018	145.900000
296.268188	145.780000
296.361359	146.040000
296.454529	145.960000
296.547668	145.620000
296.640839	146.120000
296.734009	145.900000
296.827179	146.080000
296.920319	146.620000
297.013519	146.560000
297.106659	146.740000
297.199860	146.620000
297.292999	146.600000
297.386200	145.800000
297.479309	145.780000
297.572510	145.480000
297.665680	145.500000
297.758850	145.400000
297.852020	145.760000
297.945190	145.620000
298.038361	145.540000
298.131531	146.560000
298.224701	146.420000
298.317871	145.980000
298.411072	145.820000
298.504242	145.440000
298.597412	144.640000
298.690582	144.920000
298.783752	145.300000
298.876923	145.800000
298.970093	146.020000
299.063293	146.340000
299.156464	146.420000
299.249634	146.800000
299.342834	146.600000
299.436005	146.840000
299.529205	146.660000
299.622345	146.380000
299.715576	145.340000
299.808716	145.300000
299.901917	145.040000
299.995117	145.340000
300.088287	145.600000
300.181488	145.900000
300.274658	145.660000
300.367828	146.000000
300.461029	145.780000
300.554199	145.760000
300.647400	146.020000
300.740601	146.780000
300.833771	146.700000
300.926971	146.900000
301.020142	146.320000
301.113342	146.160000
301.206512	145.920000
301.299713	145.980000
301.392914	146.120000
301.486084	146.840000
301.579285	146.940000
301.672516	147.360000
301.765686	146.760000
301.858887	146.340000
301.952057	145.960000
302.045288	146.160000
302.138458	145.680000
302.231659	145.840000
302.324860	145.800000
302.418060	145.740000
302.511261	145.620000
302.604462	145.920000
302.697662	145.920000
302.790863	145.920000
302.884064	145.520000
302.977264	145.520000
303.070465	145.520000
303.163666	146.420000
303.256866	146.400000
303.350067	146.700000
303.443268	146.620000
303.536469	146.740000
303.629669	146.000000
303.722870	146.640000
303.816071	146.340000
303.909271	146.380000
304.002472	145.340000
304.095673	145.200000
304.188934	144.060000
304.282104	145.200000
304.375336	145.260000
304.468506	145.660000
304.561768	145.340000
304.654968	146.280000
304.748169	145.280000
304.841370	144.820000
304.934601	145.100000
305.027802	145.240000
305.121002	144.680000
305.214233	144.800000
305.307434	145.060000
305.400665	145.720000
305.493866	145.680000
