Model Number: SPM-002-B   
Serial Number: 70087108
Firmware Version: 004.15.4
Exposure Time: 100000.000000us
Data Taken on: 11-12-2020 19:37:46.966
Wavelength	Amplitude
221.570786	0.000000
221.663406	0.000000
221.756027	0.000000
221.848648	0.000000
221.941269	0.000000
222.033905	0.000000
222.126526	0.000000
222.219162	0.000000
222.311798	0.000000
222.404419	0.000000
222.497055	0.000000
222.589676	0.000000
222.682312	0.000000
222.774933	0.000000
222.867569	0.000000
222.960205	0.000000
223.052841	0.000000
223.145462	0.000000
223.238098	0.000000
223.330734	0.000000
223.423386	0.000000
223.516022	0.000000
223.608658	0.000000
223.701309	0.000000
223.793945	0.000000
223.886581	0.000000
223.979218	0.000000
224.071869	0.000000
224.164505	0.000000
224.257156	0.000000
224.349792	0.000000
224.442444	0.000000
224.535095	0.000000
224.627747	0.000000
224.720398	0.000000
224.813034	0.000000
224.905685	0.000000
224.998337	145.220000
225.090988	145.020000
225.183640	144.840000
225.276291	144.540000
225.368942	144.620000
225.461594	144.960000
225.554245	145.060000
225.646912	145.180000
225.739578	145.660000
225.832230	146.020000
225.924896	145.420000
226.017548	146.040000
226.110199	146.500000
226.202866	145.720000
226.295532	145.480000
226.388184	145.380000
226.480850	144.340000
226.573517	143.900000
226.666168	144.500000
226.758835	144.980000
226.851501	145.540000
226.944183	145.960000
227.036850	145.620000
227.129517	145.320000
227.222183	145.380000
227.314850	145.400000
227.407516	145.580000
227.500198	146.240000
227.592865	146.200000
227.685532	145.680000
227.778214	145.500000
227.870880	145.580000
227.963562	145.920000
228.056229	146.160000
228.148926	146.440000
228.241592	147.220000
228.334274	147.000000
228.426956	146.580000
228.519638	146.300000
228.612305	145.580000
228.704987	145.360000
228.797668	145.260000
228.890350	144.980000
228.983032	144.680000
229.075714	145.660000
229.168396	145.100000
229.261108	145.000000
229.353790	144.900000
229.446472	145.160000
229.539169	144.880000
229.631851	144.620000
229.724533	145.040000
229.817230	145.240000
229.909912	146.220000
230.002609	146.140000
230.095306	146.380000
230.187988	145.900000
230.280685	145.840000
230.373383	144.740000
230.466095	144.380000
230.558792	144.580000
230.651474	144.840000
230.744171	144.920000
230.836868	144.800000
230.929581	145.200000
231.022278	144.920000
231.114975	144.880000
231.207672	144.880000
231.300369	145.620000
231.393082	145.780000
231.485779	146.020000
231.578506	146.080000
231.671204	146.000000
231.763916	145.560000
231.856613	145.420000
231.949326	145.560000
232.042023	145.640000
232.134735	145.400000
232.227448	145.080000
232.320160	145.140000
232.412872	145.100000
232.505585	145.360000
232.598297	146.000000
232.691010	146.140000
232.783722	145.800000
232.876450	146.100000
232.969162	145.880000
233.061874	145.400000
233.154587	145.120000
233.247314	145.540000
233.340027	144.720000
233.432739	145.040000
233.525467	144.680000
233.618179	145.180000
233.710907	144.580000
233.803635	145.240000
233.896347	144.920000
233.989090	145.940000
234.081818	145.700000
234.174545	145.860000
234.267258	145.480000
234.359985	145.680000
234.452713	145.020000
234.545441	145.120000
234.638168	145.420000
234.730896	145.740000
234.823639	145.580000
234.916367	146.060000
235.009094	146.160000
235.101822	146.000000
235.194580	145.820000
235.287308	145.720000
235.380051	145.240000
235.472778	145.320000
235.565521	145.440000
235.658249	145.240000
235.750992	145.260000
235.843719	145.440000
235.936462	145.820000
236.029205	145.620000
236.121948	145.240000
236.214691	145.660000
236.307449	146.040000
236.400192	145.180000
236.492935	145.060000
236.585678	145.500000
236.678421	145.040000
236.771164	144.960000
236.863907	145.600000
236.956665	145.840000
237.049408	147.520000
237.142151	147.240000
237.234909	147.860000
237.327652	148.000000
237.420410	147.620000
237.513153	146.400000
237.605927	146.720000
237.698669	145.860000
237.791428	145.240000
237.884186	146.320000
237.976944	145.900000
238.069702	145.980000
238.162445	145.560000
238.255203	145.780000
238.347961	145.620000
238.440720	145.740000
238.533478	145.580000
238.626266	145.840000
238.719025	146.000000
238.811783	145.720000
238.904541	145.580000
238.997314	145.420000
239.090073	145.260000
239.182831	145.400000
239.275604	145.980000
239.368362	145.660000
239.461136	145.880000
239.553909	145.960000
239.646667	145.600000
239.739441	145.020000
239.832214	145.480000
239.925003	145.640000
240.017761	146.060000
240.110535	146.540000
240.203308	146.220000
240.296082	146.240000
240.388855	146.100000
240.481628	145.900000
240.574417	145.920000
240.667191	146.060000
240.759964	145.640000
240.852737	145.600000
240.945526	145.360000
241.038315	145.340000
241.131088	145.580000
241.223877	146.260000
241.316650	146.020000
241.409439	146.420000
241.502228	145.820000
241.595001	146.060000
241.687790	145.560000
241.780579	145.600000
241.873367	145.640000
241.966141	146.080000
242.058929	145.300000
242.151718	145.560000
242.244507	146.240000
242.337311	145.340000
242.430099	145.660000
242.522903	146.020000
242.615692	145.800000
242.708481	145.100000
242.801270	145.940000
242.894073	145.540000
242.986862	145.820000
243.079651	146.380000
243.172455	146.440000
243.265244	146.280000
243.358063	145.860000
243.450867	146.020000
243.543655	145.880000
243.636459	145.900000
243.729263	146.200000
243.822067	146.400000
243.914856	146.400000
244.007660	146.340000
244.100464	146.300000
244.193268	145.760000
244.286072	146.080000
244.378876	145.380000
244.471680	144.980000
244.564499	145.320000
244.657318	146.100000
244.750122	146.340000
244.842926	146.240000
244.935745	146.540000
245.028549	146.000000
245.121368	145.640000
245.214172	145.240000
245.306992	145.640000
245.399796	145.400000
245.492615	145.600000
245.585434	145.220000
245.678253	145.400000
245.771072	145.180000
245.863892	145.320000
245.956711	145.720000
246.049530	145.640000
246.142349	145.160000
246.235168	145.400000
246.327988	145.900000
246.420807	145.600000
246.513626	145.640000
246.606445	145.620000
246.699280	145.540000
246.792099	145.120000
246.884918	144.720000
246.977753	144.560000
247.070587	145.040000
247.163422	144.660000
247.256241	144.840000
247.349075	145.200000
247.441895	145.700000
247.534729	145.360000
247.627563	145.440000
247.720383	145.760000
247.813217	145.920000
247.906052	145.400000
247.998886	145.480000
248.091736	145.780000
248.184570	145.220000
248.277405	145.720000
248.370239	146.940000
248.463074	147.900000
248.555908	147.940000
248.648743	147.800000
248.741592	147.420000
248.834427	146.740000
248.927261	145.440000
249.020111	145.980000
249.112946	146.560000
249.205795	145.940000
249.298630	146.060000
249.391495	146.420000
249.484344	145.660000
249.577179	145.600000
249.670029	145.920000
249.762878	146.440000
249.855728	146.460000
249.948563	146.540000
250.041412	145.920000
250.134262	146.520000
250.227112	146.140000
250.319962	146.160000
250.412827	146.120000
250.505692	145.840000
250.598541	145.200000
250.691391	144.800000
250.784241	144.660000
250.877106	144.860000
250.969955	145.100000
251.062805	145.840000
251.155670	146.380000
251.248520	146.380000
251.341385	146.300000
251.434235	146.380000
251.527100	145.640000
251.619965	145.040000
251.712814	145.740000
251.805695	146.200000
251.898560	146.060000
251.991425	146.480000
252.084290	147.000000
252.177155	146.120000
252.270020	145.400000
252.362885	145.580000
252.455750	145.440000
252.548615	144.900000
252.641479	145.180000
252.734360	145.360000
252.827240	145.240000
252.920105	145.260000
253.012970	145.000000
253.105850	144.860000
253.198715	144.820000
253.291595	145.060000
253.384460	144.820000
253.477341	145.160000
253.570221	145.580000
253.663086	145.420000
253.755966	145.940000
253.848846	145.800000
253.941727	145.880000
254.034592	145.600000
254.127472	145.280000
254.220367	144.760000
254.313248	144.900000
254.406128	144.240000
254.499008	144.200000
254.591904	145.120000
254.684784	145.680000
254.777664	145.840000
254.870544	146.220000
254.963440	146.300000
255.056335	145.600000
255.149216	145.240000
255.242111	145.520000
255.334991	145.920000
255.427887	146.160000
255.520767	146.840000
255.613663	146.880000
255.706558	146.360000
255.799438	146.020000
255.892334	145.600000
255.985229	145.460000
256.078125	145.180000
256.171021	145.520000
256.263916	146.100000
256.356812	146.520000
256.449707	146.200000
256.542603	145.880000
256.635498	146.180000
256.728394	145.780000
256.821289	145.380000
256.914215	146.000000
257.007080	146.700000
257.100006	147.000000
257.192932	147.320000
257.285828	147.540000
257.378723	147.300000
257.471619	146.880000
257.564545	146.060000
257.657440	146.120000
257.750336	146.800000
257.843262	146.280000
257.936157	147.660000
258.029053	148.040000
258.121979	147.660000
258.214874	147.120000
258.307800	147.140000
258.400696	145.640000
258.493622	145.500000
258.586517	145.000000
258.679443	145.000000
258.772339	144.620000
258.865265	144.600000
258.958160	143.940000
259.051086	144.800000
259.144012	144.700000
259.236938	145.920000
259.329834	146.200000
259.422791	146.500000
259.515717	145.940000
259.608612	145.620000
259.701538	145.380000
259.794464	145.360000
259.887390	145.300000
259.980316	145.060000
260.073212	145.260000
260.166138	144.140000
260.259064	144.380000
260.351990	145.100000
260.444916	145.400000
260.537842	145.900000
260.630768	146.860000
260.723694	146.500000
260.816620	146.160000
260.909546	145.980000
261.002472	145.100000
261.095398	144.380000
261.188354	144.460000
261.281281	144.060000
261.374207	144.360000
261.467133	145.000000
261.560089	145.520000
261.653015	145.180000
261.745972	146.000000
261.838867	146.400000
261.931824	146.360000
262.024780	145.940000
262.117706	146.460000
262.210663	146.260000
262.303589	146.000000
262.396515	146.040000
262.489471	147.020000
262.582397	146.720000
262.675354	146.080000
262.768280	145.840000
262.861237	145.860000
262.954163	145.480000
263.047119	145.800000
263.140045	145.800000
263.233002	145.980000
263.325958	145.780000
263.418884	145.140000
263.511841	145.020000
263.604797	145.260000
263.697723	145.200000
263.790680	145.540000
263.883636	146.420000
263.976593	146.100000
264.069550	146.380000
264.162476	145.980000
264.255463	145.680000
264.348419	145.260000
264.441376	145.700000
264.534332	145.260000
264.627289	145.620000
264.720245	146.080000
264.813202	145.660000
264.906158	145.700000
264.999115	146.220000
265.092072	146.120000
265.185028	146.640000
265.277985	147.100000
265.370941	146.880000
265.463898	146.480000
265.556854	146.120000
265.649811	144.720000
265.742798	144.660000
265.835754	144.760000
265.928711	145.280000
266.021667	145.620000
266.114655	146.080000
266.207611	146.360000
266.300568	145.860000
266.393585	145.120000
266.486511	145.640000
266.579498	145.060000
266.672485	144.760000
266.765442	145.120000
266.858429	145.980000
266.951385	145.160000
267.044342	145.600000
267.137329	145.560000
267.230316	145.480000
267.323273	144.920000
267.416260	145.800000
267.509216	145.520000
267.602203	145.360000
267.695160	145.700000
267.788147	145.460000
267.881134	144.780000
267.974091	145.000000
268.067078	144.920000
268.160065	144.900000
268.253052	144.900000
268.346008	145.260000
268.438995	145.180000
268.531982	145.600000
268.624969	145.200000
268.717987	145.980000
268.810944	145.740000
268.903961	145.980000
268.996948	145.580000
269.089905	146.060000
269.182892	145.840000
269.275879	146.260000
269.368866	145.760000
269.461853	145.960000
269.554871	146.020000
269.647858	145.920000
269.740845	146.120000
269.833832	146.740000
269.926819	146.720000
270.019806	146.660000
270.112793	146.120000
270.205811	145.820000
270.298798	145.400000
270.391785	145.960000
270.484772	145.620000
270.577789	146.040000
270.670776	145.780000
270.763763	145.900000
270.856750	145.720000
270.949768	145.520000
271.042786	145.320000
271.135773	145.400000
271.228790	145.880000
271.321808	145.460000
271.414795	145.420000
271.507782	145.540000
271.600800	145.340000
271.693817	145.160000
271.786804	145.700000
271.879822	146.020000
271.972809	145.840000
272.065826	146.220000
272.158844	145.940000
272.251831	146.160000
272.344849	146.160000
272.437866	145.980000
272.530853	145.780000
272.623871	145.880000
272.716888	144.900000
272.809906	145.120000
272.902893	145.300000
272.995911	144.960000
273.088928	145.020000
273.181946	145.440000
273.274963	144.980000
273.367981	144.960000
273.460999	145.340000
273.554047	145.800000
273.647003	146.400000
273.740051	146.500000
273.833069	147.020000
273.926086	147.340000
274.019135	146.880000
274.112152	146.600000
274.205170	146.960000
274.298187	146.900000
274.391205	146.100000
274.484222	145.980000
274.577240	145.600000
274.670258	145.220000
274.763306	144.880000
274.856323	145.560000
274.949341	145.900000
275.042358	146.560000
275.135406	146.460000
275.228424	146.740000
275.321442	146.620000
275.414490	146.040000
275.507507	145.900000
275.600525	146.300000
275.693573	146.000000
275.786591	145.580000
275.879669	145.940000
275.972656	145.460000
276.065735	145.300000
276.158752	145.620000
276.251801	146.460000
276.344818	146.540000
276.437866	146.620000
276.530884	146.280000
276.623932	145.660000
276.716980	145.100000
276.809998	145.200000
276.903046	145.140000
276.996094	146.080000
277.089111	146.660000
277.182159	147.280000
277.275208	146.840000
277.368256	146.760000
277.461304	146.380000
277.554321	145.540000
277.647369	145.200000
277.740417	145.500000
277.833466	145.500000
277.926514	145.380000
278.019562	146.340000
278.112610	145.760000
278.205688	145.540000
278.298706	145.760000
278.391785	145.260000
278.484833	144.800000
278.577881	144.900000
278.670929	145.380000
278.763977	145.200000
278.857025	145.820000
278.950073	145.700000
279.043121	145.580000
279.136169	145.060000
279.229248	144.920000
279.322296	144.840000
279.415344	144.660000
279.508392	144.660000
279.601440	144.800000
279.694519	144.780000
279.787567	144.520000
279.880615	144.520000
279.973694	144.460000
280.066742	144.440000
280.159790	144.760000
280.252869	144.480000
280.345917	144.860000
280.438995	144.880000
280.532074	144.940000
280.625122	145.020000
280.718201	146.240000
280.811279	146.060000
280.904327	146.120000
280.997406	146.120000
281.090454	146.120000
281.183533	145.240000
281.276581	145.540000
281.369659	145.380000
281.462738	145.460000
281.555786	145.440000
281.648865	145.540000
281.741943	145.200000
281.835022	145.800000
281.928070	145.680000
282.021149	145.500000
282.114227	145.300000
282.207306	145.420000
282.300385	145.680000
282.393433	145.780000
282.486511	145.940000
282.579590	146.680000
282.672668	146.980000
282.765747	146.440000
282.858856	146.200000
282.951904	146.180000
283.045013	145.840000
283.138062	145.900000
283.231171	146.260000
283.324249	146.820000
283.417328	146.780000
283.510406	146.680000
283.603485	146.700000
283.696564	146.380000
283.789642	146.280000
283.882751	146.220000
283.975830	146.520000
284.068909	146.040000
284.161987	146.520000
284.255066	145.980000
284.348175	145.680000
284.441254	145.460000
284.534332	145.820000
284.627441	145.440000
284.720520	145.200000
284.813599	145.520000
284.906708	145.600000
284.999786	144.940000
285.092896	144.520000
285.185974	145.840000
285.279053	145.640000
285.372192	145.720000
285.465240	146.960000
285.558380	147.180000
285.651459	146.180000
285.744568	146.860000
285.837677	146.280000
285.930756	145.660000
286.023865	145.980000
286.116943	146.000000
286.210052	146.000000
286.303162	146.160000
286.396240	146.200000
286.489349	145.700000
286.582458	146.220000
286.675568	145.560000
286.768646	145.660000
286.861755	145.880000
286.954865	146.660000
287.047974	145.860000
287.141083	145.960000
287.234161	146.020000
287.327271	145.700000
287.420380	145.800000
287.513519	146.140000
287.606598	146.240000
287.699738	146.300000
287.792816	146.220000
287.885956	145.960000
287.979034	145.680000
288.072174	145.580000
288.165283	145.280000
288.258392	145.300000
288.351501	144.780000
288.444611	145.060000
288.537720	145.560000
288.630859	145.620000
288.723969	145.760000
288.817078	146.040000
288.910187	145.900000
289.003296	145.200000
289.096436	144.880000
289.189545	144.860000
289.282654	144.420000
289.375763	145.020000
289.468903	145.420000
289.562012	145.940000
289.655121	145.940000
289.748260	146.140000
289.841400	146.080000
289.934509	146.000000
290.027649	146.200000
290.120728	145.760000
290.213898	145.960000
290.306976	145.540000
290.400146	145.540000
290.493256	145.120000
290.586395	145.620000
290.679535	145.920000
290.772644	145.980000
290.865784	145.440000
290.958893	145.420000
291.052032	145.040000
291.145172	144.480000
291.238281	144.040000
291.331421	144.500000
291.424561	145.100000
291.517670	145.180000
291.610809	145.400000
291.703949	145.980000
291.797089	146.160000
291.890228	145.480000
291.983337	145.560000
292.076477	145.500000
292.169617	145.580000
292.262756	145.540000
292.355927	145.620000
292.449036	145.360000
292.542206	145.540000
292.635315	145.540000
292.728485	145.760000
292.821625	145.600000
292.914764	146.660000
293.007904	146.660000
293.101044	146.520000
293.194183	146.120000
293.287323	146.280000
293.380463	145.820000
293.473602	145.700000
293.566742	145.880000
293.659882	146.300000
293.753021	146.440000
293.846191	145.980000
293.939331	145.900000
294.032471	145.660000
294.125610	145.200000
294.218781	145.600000
294.311920	146.080000
294.405060	146.360000
294.498230	146.440000
294.591370	146.460000
294.684540	145.760000
294.777679	145.260000
294.870850	145.520000
294.963959	145.520000
295.057159	145.380000
295.150299	145.560000
295.243469	145.500000
295.336609	144.460000
295.429779	144.380000
295.522919	144.840000
295.616089	144.920000
295.709229	145.540000
295.802399	146.080000
295.895569	145.840000
295.988708	145.720000
296.081879	145.840000
296.175018	145.460000
296.268188	145.600000
296.361359	146.160000
296.454529	146.060000
296.547668	145.900000
296.640839	145.960000
296.734009	145.580000
296.827179	145.440000
296.920319	145.660000
297.013519	145.600000
297.106659	145.860000
297.199860	146.000000
297.292999	145.800000
297.386200	145.500000
297.479309	145.580000
297.572510	145.440000
297.665680	145.160000
297.758850	145.140000
297.852020	145.020000
297.945190	144.500000
298.038361	144.160000
298.131531	145.260000
298.224701	145.400000
298.317871	145.360000
298.411072	145.420000
298.504242	145.320000
298.597412	144.720000
298.690582	144.800000
298.783752	144.860000
298.876923	145.500000
298.970093	145.700000
299.063293	145.880000
299.156464	146.040000
299.249634	146.160000
299.342834	146.180000
299.436005	146.340000
299.529205	146.400000
299.622345	146.380000
299.715576	145.980000
299.808716	145.500000
299.901917	145.520000
299.995117	145.480000
300.088287	145.440000
300.181488	145.300000
300.274658	145.460000
300.367828	145.500000
300.461029	145.260000
300.554199	145.660000
300.647400	146.180000
300.740601	146.740000
300.833771	146.440000
300.926971	146.840000
301.020142	145.900000
301.113342	145.840000
301.206512	145.420000
301.299713	145.680000
301.392914	145.440000
301.486084	146.240000
301.579285	146.300000
301.672516	146.440000
301.765686	146.500000
301.858887	146.480000
301.952057	146.100000
302.045288	146.100000
302.138458	145.940000
302.231659	145.440000
302.324860	145.320000
302.418060	144.980000
302.511261	144.920000
302.604462	145.080000
302.697662	144.800000
302.790863	144.680000
302.884064	144.620000
302.977264	144.480000
303.070465	144.700000
303.163666	145.840000
303.256866	146.160000
303.350067	146.240000
303.443268	146.420000
303.536469	146.180000
303.629669	145.680000
303.722870	145.560000
303.816071	145.660000
303.909271	145.800000
304.002472	145.000000
304.095673	144.660000
304.188934	144.060000
304.282104	144.780000
304.375336	144.400000
304.468506	145.040000
304.561768	145.180000
304.654968	145.880000
304.748169	144.940000
304.841370	145.040000
304.934601	145.200000
305.027802	145.140000
305.121002	144.600000
305.214233	145.000000
305.307434	145.240000
305.400665	145.500000
305.493866	145.020000
