Model Number: SPM-002-B   
Serial Number: 70087108
Firmware Version: 004.15.4
Exposure Time: 100000.000000us
Data Taken on: 11-12-2020 19:38:11.667
Wavelength	Amplitude
221.570786	0.000000
221.663406	0.000000
221.756027	0.000000
221.848648	0.000000
221.941269	0.000000
222.033905	0.000000
222.126526	0.000000
222.219162	0.000000
222.311798	0.000000
222.404419	0.000000
222.497055	0.000000
222.589676	0.000000
222.682312	0.000000
222.774933	0.000000
222.867569	0.000000
222.960205	0.000000
223.052841	0.000000
223.145462	0.000000
223.238098	0.000000
223.330734	0.000000
223.423386	0.000000
223.516022	0.000000
223.608658	0.000000
223.701309	0.000000
223.793945	0.000000
223.886581	0.000000
223.979218	0.000000
224.071869	0.000000
224.164505	0.000000
224.257156	0.000000
224.349792	0.000000
224.442444	0.000000
224.535095	0.000000
224.627747	0.000000
224.720398	0.000000
224.813034	0.000000
224.905685	0.000000
224.998337	144.700000
225.090988	144.060000
225.183640	144.260000
225.276291	144.100000
225.368942	144.780000
225.461594	145.940000
225.554245	146.580000
225.646912	146.600000
225.739578	147.220000
225.832230	147.560000
225.924896	146.860000
226.017548	146.760000
226.110199	146.980000
226.202866	146.180000
226.295532	145.560000
226.388184	145.240000
226.480850	145.000000
226.573517	144.720000
226.666168	145.220000
226.758835	145.620000
226.851501	146.240000
226.944183	146.200000
227.036850	145.880000
227.129517	145.820000
227.222183	146.020000
227.314850	146.060000
227.407516	146.620000
227.500198	147.520000
227.592865	146.920000
227.685532	146.100000
227.778214	145.560000
227.870880	145.700000
227.963562	145.780000
228.056229	146.560000
228.148926	146.780000
228.241592	147.640000
228.334274	146.980000
228.426956	146.700000
228.519638	146.440000
228.612305	146.340000
228.704987	146.300000
228.797668	146.440000
228.890350	146.040000
228.983032	145.600000
229.075714	146.260000
229.168396	145.800000
229.261108	145.440000
229.353790	145.420000
229.446472	145.680000
229.539169	145.240000
229.631851	144.760000
229.724533	145.120000
229.817230	145.500000
229.909912	146.580000
230.002609	146.540000
230.095306	146.780000
230.187988	146.640000
230.280685	146.540000
230.373383	145.080000
230.466095	144.960000
230.558792	145.220000
230.651474	145.400000
230.744171	144.860000
230.836868	145.000000
230.929581	145.160000
231.022278	145.080000
231.114975	144.860000
231.207672	145.040000
231.300369	145.720000
231.393082	145.800000
231.485779	145.560000
231.578506	145.480000
231.671204	145.920000
231.763916	145.700000
231.856613	145.660000
231.949326	146.020000
232.042023	146.000000
232.134735	145.840000
232.227448	145.340000
232.320160	145.700000
232.412872	145.720000
232.505585	146.580000
232.598297	146.800000
232.691010	147.000000
232.783722	146.360000
232.876450	146.820000
232.969162	146.040000
233.061874	145.400000
233.154587	145.300000
233.247314	145.480000
233.340027	144.880000
233.432739	145.400000
233.525467	145.300000
233.618179	145.660000
233.710907	145.300000
233.803635	145.720000
233.896347	145.340000
233.989090	146.120000
234.081818	145.740000
234.174545	146.180000
234.267258	145.520000
234.359985	145.720000
234.452713	145.300000
234.545441	145.220000
234.638168	144.900000
234.730896	145.500000
234.823639	145.320000
234.916367	145.680000
235.009094	145.980000
235.101822	146.120000
235.194580	145.800000
235.287308	145.740000
235.380051	145.260000
235.472778	145.220000
235.565521	145.620000
235.658249	145.340000
235.750992	145.540000
235.843719	145.640000
235.936462	146.000000
236.029205	145.420000
236.121948	145.500000
236.214691	145.720000
236.307449	146.120000
236.400192	145.600000
236.492935	145.520000
236.585678	145.700000
236.678421	145.580000
236.771164	145.340000
236.863907	146.140000
236.956665	146.700000
237.049408	148.140000
237.142151	147.640000
237.234909	148.200000
237.327652	147.580000
237.420410	147.260000
237.513153	146.180000
237.605927	146.320000
237.698669	145.740000
237.791428	145.360000
237.884186	145.700000
237.976944	145.160000
238.069702	145.300000
238.162445	145.000000
238.255203	145.340000
238.347961	145.520000
238.440720	145.780000
238.533478	145.500000
238.626266	145.280000
238.719025	145.580000
238.811783	145.340000
238.904541	144.980000
238.997314	145.280000
239.090073	145.220000
239.182831	145.300000
239.275604	145.920000
239.368362	146.040000
239.461136	146.080000
239.553909	146.280000
239.646667	145.900000
239.739441	145.420000
239.832214	145.760000
239.925003	145.800000
240.017761	146.820000
240.110535	147.460000
240.203308	147.060000
240.296082	147.060000
240.388855	146.820000
240.481628	146.540000
240.574417	146.400000
240.667191	146.560000
240.759964	146.120000
240.852737	146.300000
240.945526	145.800000
241.038315	145.360000
241.131088	145.580000
241.223877	146.140000
241.316650	145.600000
241.409439	145.840000
241.502228	145.480000
241.595001	145.720000
241.687790	145.420000
241.780579	145.800000
241.873367	145.860000
241.966141	146.520000
242.058929	145.880000
242.151718	146.040000
242.244507	146.400000
242.337311	145.380000
242.430099	145.500000
242.522903	146.120000
242.615692	145.940000
242.708481	145.960000
242.801270	147.020000
242.894073	146.720000
242.986862	146.340000
243.079651	146.700000
243.172455	146.220000
243.265244	146.380000
243.358063	146.000000
243.450867	146.300000
243.543655	146.080000
243.636459	146.480000
243.729263	146.580000
243.822067	146.920000
243.914856	147.340000
244.007660	147.260000
244.100464	147.000000
244.193268	146.420000
244.286072	146.600000
244.378876	145.680000
244.471680	145.620000
244.564499	145.980000
244.657318	146.480000
244.750122	146.520000
244.842926	146.220000
244.935745	146.160000
245.028549	145.540000
245.121368	145.040000
245.214172	144.720000
245.306992	145.380000
245.399796	145.220000
245.492615	145.620000
245.585434	145.620000
245.678253	146.000000
245.771072	145.940000
245.863892	146.760000
245.956711	147.120000
246.049530	147.200000
246.142349	146.760000
246.235168	146.780000
246.327988	146.620000
246.420807	145.880000
246.513626	145.920000
246.606445	146.060000
246.699280	145.940000
246.792099	145.840000
246.884918	145.860000
246.977753	145.740000
247.070587	145.780000
247.163422	145.820000
247.256241	145.900000
247.349075	146.360000
247.441895	146.300000
247.534729	145.940000
247.627563	145.580000
247.720383	145.900000
247.813217	145.540000
247.906052	145.620000
247.998886	145.980000
248.091736	146.060000
248.184570	145.500000
248.277405	145.500000
248.370239	146.160000
248.463074	146.840000
248.555908	147.200000
248.648743	147.040000
248.741592	147.280000
248.834427	146.680000
248.927261	145.520000
249.020111	145.920000
249.112946	146.560000
249.205795	146.340000
249.298630	146.320000
249.391495	146.480000
249.484344	145.820000
249.577179	145.700000
249.670029	145.700000
249.762878	146.240000
249.855728	146.520000
249.948563	146.840000
250.041412	146.120000
250.134262	146.520000
250.227112	146.240000
250.319962	146.180000
250.412827	145.960000
250.505692	145.720000
250.598541	145.680000
250.691391	145.320000
250.784241	145.260000
250.877106	145.220000
250.969955	145.340000
251.062805	145.700000
251.155670	146.360000
251.248520	146.340000
251.341385	146.700000
251.434235	146.700000
251.527100	146.320000
251.619965	145.640000
251.712814	146.200000
251.805695	146.240000
251.898560	146.700000
251.991425	146.900000
252.084290	147.280000
252.177155	146.640000
252.270020	146.240000
252.362885	145.900000
252.455750	145.940000
252.548615	145.400000
252.641479	145.580000
252.734360	145.440000
252.827240	145.140000
252.920105	144.980000
253.012970	145.240000
253.105850	145.220000
253.198715	145.160000
253.291595	145.600000
253.384460	145.240000
253.477341	145.360000
253.570221	145.360000
253.663086	145.240000
253.755966	145.720000
253.848846	145.760000
253.941727	145.940000
254.034592	145.960000
254.127472	145.760000
254.220367	145.620000
254.313248	146.320000
254.406128	145.660000
254.499008	146.040000
254.591904	147.080000
254.684784	147.580000
254.777664	146.980000
254.870544	146.780000
254.963440	146.300000
255.056335	145.900000
255.149216	145.260000
255.242111	145.640000
255.334991	146.320000
255.427887	146.440000
255.520767	146.600000
255.613663	146.780000
255.706558	146.160000
255.799438	145.900000
255.892334	145.800000
255.985229	145.540000
256.078125	145.320000
256.171021	145.480000
256.263916	146.140000
256.356812	146.200000
256.449707	146.040000
256.542603	146.040000
256.635498	146.420000
256.728394	145.880000
256.821289	145.860000
256.914215	146.360000
257.007080	146.620000
257.100006	146.580000
257.192932	146.780000
257.285828	147.000000
257.378723	146.680000
257.471619	146.220000
257.564545	145.680000
257.657440	145.840000
257.750336	146.100000
257.843262	145.960000
257.936157	147.040000
258.029053	147.480000
258.121979	147.540000
258.214874	147.220000
258.307800	147.100000
258.400696	145.900000
258.493622	145.740000
258.586517	144.820000
258.679443	145.000000
258.772339	144.660000
258.865265	144.700000
258.958160	144.480000
259.051086	145.440000
259.144012	144.960000
259.236938	145.880000
259.329834	146.380000
259.422791	146.200000
259.515717	145.500000
259.608612	145.400000
259.701538	145.120000
259.794464	144.660000
259.887390	145.220000
259.980316	145.060000
260.073212	145.240000
260.166138	144.420000
260.259064	144.640000
260.351990	145.100000
260.444916	145.440000
260.537842	145.700000
260.630768	146.500000
260.723694	146.680000
260.816620	146.220000
260.909546	146.400000
261.002472	145.900000
261.095398	145.360000
261.188354	145.520000
261.281281	145.180000
261.374207	144.980000
261.467133	145.820000
261.560089	146.220000
261.653015	145.800000
261.745972	146.440000
261.838867	146.900000
261.931824	147.020000
262.024780	146.680000
262.117706	146.880000
262.210663	146.660000
262.303589	146.220000
262.396515	145.940000
262.489471	147.140000
262.582397	146.860000
262.675354	146.560000
262.768280	146.680000
262.861237	146.600000
262.954163	145.920000
263.047119	146.120000
263.140045	146.140000
263.233002	146.020000
263.325958	145.880000
263.418884	145.280000
263.511841	145.260000
263.604797	145.000000
263.697723	145.220000
263.790680	145.120000
263.883636	145.940000
263.976593	145.800000
264.069550	146.160000
264.162476	145.760000
264.255463	145.960000
264.348419	145.880000
264.441376	146.040000
264.534332	145.640000
264.627289	146.060000
264.720245	146.220000
264.813202	145.700000
264.906158	145.980000
264.999115	146.540000
265.092072	146.280000
265.185028	146.560000
265.277985	146.600000
265.370941	146.520000
265.463898	146.400000
265.556854	146.160000
265.649811	145.040000
265.742798	145.340000
265.835754	145.100000
265.928711	145.620000
266.021667	146.040000
266.114655	146.640000
266.207611	146.760000
266.300568	146.200000
266.393585	145.460000
266.486511	145.680000
266.579498	145.260000
266.672485	144.800000
266.765442	145.060000
266.858429	145.740000
266.951385	145.260000
267.044342	145.640000
267.137329	145.960000
267.230316	146.240000
267.323273	145.760000
267.416260	146.440000
267.509216	146.080000
267.602203	145.820000
267.695160	146.300000
267.788147	146.280000
267.881134	145.680000
267.974091	146.360000
268.067078	146.220000
268.160065	145.760000
268.253052	145.860000
268.346008	145.820000
268.438995	145.280000
268.531982	145.700000
268.624969	145.720000
268.717987	145.760000
268.810944	145.620000
268.903961	145.720000
268.996948	145.360000
269.089905	145.880000
269.182892	146.000000
269.275879	146.640000
269.368866	146.280000
269.461853	146.580000
269.554871	146.120000
269.647858	146.000000
269.740845	145.960000
269.833832	146.220000
269.926819	145.940000
270.019806	145.900000
270.112793	145.560000
270.205811	145.580000
270.298798	145.540000
270.391785	146.240000
270.484772	146.020000
270.577789	146.280000
270.670776	145.820000
270.763763	145.840000
270.856750	145.620000
270.949768	145.420000
271.042786	145.480000
271.135773	145.860000
271.228790	146.140000
271.321808	145.620000
271.414795	145.280000
271.507782	144.860000
271.600800	144.280000
271.693817	144.340000
271.786804	144.900000
271.879822	145.700000
271.972809	145.460000
272.065826	146.000000
272.158844	145.640000
272.251831	146.240000
272.344849	146.100000
272.437866	146.380000
272.530853	146.200000
272.623871	146.440000
272.716888	145.060000
272.809906	145.460000
272.902893	145.380000
272.995911	144.880000
273.088928	144.840000
273.181946	145.300000
273.274963	144.580000
273.367981	144.400000
273.460999	144.780000
273.554047	145.080000
273.647003	145.520000
273.740051	145.820000
273.833069	146.660000
273.926086	146.880000
274.019135	146.340000
274.112152	146.080000
274.205170	145.920000
274.298187	145.800000
274.391205	145.180000
274.484222	145.240000
274.577240	145.100000
274.670258	145.020000
274.763306	144.440000
274.856323	145.020000
274.949341	145.280000
275.042358	145.700000
275.135406	145.920000
275.228424	146.220000
275.321442	146.200000
275.414490	145.820000
275.507507	146.000000
275.600525	146.360000
275.693573	146.220000
275.786591	145.960000
275.879669	146.340000
275.972656	145.700000
276.065735	145.460000
276.158752	145.880000
276.251801	146.680000
276.344818	146.660000
276.437866	146.920000
276.530884	146.780000
276.623932	146.180000
276.716980	145.840000
276.809998	145.720000
276.903046	145.860000
276.996094	146.620000
277.089111	147.320000
277.182159	147.580000
277.275208	147.380000
277.368256	147.100000
277.461304	146.540000
277.554321	145.520000
277.647369	145.040000
277.740417	145.140000
277.833466	145.080000
277.926514	144.700000
278.019562	145.940000
278.112610	145.780000
278.205688	146.180000
278.298706	146.280000
278.391785	146.340000
278.484833	145.500000
278.577881	145.480000
278.670929	145.260000
278.763977	145.100000
278.857025	145.340000
278.950073	145.340000
279.043121	145.140000
279.136169	144.920000
279.229248	144.620000
279.322296	144.420000
279.415344	144.240000
279.508392	144.440000
279.601440	144.820000
279.694519	145.200000
279.787567	145.200000
279.880615	145.320000
279.973694	145.120000
280.066742	145.020000
280.159790	145.220000
280.252869	145.140000
280.345917	145.440000
280.438995	145.760000
280.532074	145.580000
280.625122	145.440000
280.718201	146.500000
280.811279	146.480000
280.904327	146.100000
280.997406	146.280000
281.090454	146.220000
281.183533	145.260000
281.276581	145.060000
281.369659	144.960000
281.462738	144.940000
281.555786	145.080000
281.648865	145.440000
281.741943	145.280000
281.835022	145.800000
281.928070	145.460000
282.021149	145.000000
282.114227	144.520000
282.207306	144.680000
282.300385	144.780000
282.393433	145.360000
282.486511	145.580000
282.579590	146.260000
282.672668	146.540000
282.765747	146.080000
282.858856	145.320000
282.951904	145.560000
283.045013	145.420000
283.138062	145.420000
283.231171	145.780000
283.324249	146.420000
283.417328	146.420000
283.510406	146.400000
283.603485	146.600000
283.696564	146.600000
283.789642	146.400000
283.882751	146.080000
283.975830	146.380000
284.068909	145.500000
284.161987	146.080000
284.255066	145.840000
284.348175	146.180000
284.441254	145.680000
284.534332	146.420000
284.627441	145.920000
284.720520	146.220000
284.813599	145.940000
284.906708	145.940000
284.999786	145.440000
285.092896	145.040000
285.185974	145.760000
285.279053	145.480000
285.372192	145.800000
285.465240	146.800000
285.558380	146.980000
285.651459	146.280000
285.744568	147.120000
285.837677	146.980000
285.930756	146.420000
286.023865	146.280000
286.116943	145.820000
286.210052	145.560000
286.303162	145.280000
286.396240	145.280000
286.489349	145.120000
286.582458	145.620000
286.675568	145.400000
286.768646	145.280000
286.861755	145.300000
286.954865	146.240000
287.047974	145.340000
287.141083	145.020000
287.234161	145.300000
287.327271	145.440000
287.420380	145.420000
287.513519	145.700000
287.606598	146.100000
287.699738	146.260000
287.792816	146.020000
287.885956	145.820000
287.979034	146.320000
288.072174	146.320000
288.165283	145.920000
288.258392	146.000000
288.351501	145.360000
288.444611	145.520000
288.537720	146.000000
288.630859	146.040000
288.723969	146.160000
288.817078	146.600000
288.910187	146.340000
289.003296	145.660000
289.096436	145.340000
289.189545	144.860000
289.282654	144.320000
289.375763	144.820000
289.468903	145.240000
289.562012	145.900000
289.655121	146.180000
289.748260	146.600000
289.841400	146.680000
289.934509	146.500000
290.027649	146.400000
290.120728	145.900000
290.213898	145.880000
290.306976	145.360000
290.400146	145.540000
290.493256	145.160000
290.586395	145.600000
290.679535	145.760000
290.772644	145.440000
290.865784	144.520000
290.958893	144.360000
291.052032	144.300000
291.145172	144.340000
291.238281	144.360000
291.331421	145.180000
291.424561	145.860000
291.517670	145.580000
291.610809	145.900000
291.703949	145.880000
291.797089	145.920000
291.890228	145.520000
291.983337	145.880000
292.076477	145.300000
292.169617	145.920000
292.262756	145.820000
292.355927	145.940000
292.449036	145.600000
292.542206	146.160000
292.635315	145.940000
292.728485	145.860000
292.821625	145.320000
292.914764	146.660000
293.007904	146.360000
293.101044	146.260000
293.194183	146.260000
293.287323	146.700000
293.380463	145.660000
293.473602	145.360000
293.566742	145.560000
293.659882	145.940000
293.753021	146.280000
293.846191	146.080000
293.939331	145.940000
294.032471	145.860000
294.125610	145.580000
294.218781	145.800000
294.311920	146.180000
294.405060	146.340000
294.498230	146.100000
294.591370	146.120000
294.684540	145.360000
294.777679	144.720000
294.870850	145.020000
294.963959	144.960000
295.057159	144.880000
295.150299	145.220000
295.243469	145.640000
295.336609	144.900000
295.429779	144.840000
295.522919	145.060000
295.616089	144.980000
295.709229	145.500000
295.802399	145.940000
295.895569	145.840000
295.988708	145.560000
296.081879	145.620000
296.175018	144.860000
296.268188	144.540000
296.361359	145.220000
296.454529	145.400000
296.547668	145.420000
296.640839	145.740000
296.734009	145.920000
296.827179	145.820000
296.920319	145.860000
297.013519	145.660000
297.106659	145.700000
297.199860	145.840000
297.292999	145.740000
297.386200	145.680000
297.479309	145.480000
297.572510	145.620000
297.665680	145.120000
297.758850	145.060000
297.852020	145.180000
297.945190	145.060000
298.038361	144.880000
298.131531	146.280000
298.224701	146.100000
298.317871	145.600000
298.411072	145.400000
298.504242	145.260000
298.597412	144.340000
298.690582	144.680000
298.783752	144.800000
298.876923	145.700000
298.970093	145.760000
299.063293	146.260000
299.156464	146.420000
299.249634	146.880000
299.342834	146.700000
299.436005	146.900000
299.529205	146.480000
299.622345	146.220000
299.715576	145.420000
299.808716	145.180000
299.901917	145.400000
299.995117	145.840000
300.088287	145.940000
300.181488	145.900000
300.274658	146.020000
300.367828	145.900000
300.461029	145.600000
300.554199	145.600000
300.647400	145.840000
300.740601	146.200000
300.833771	145.960000
300.926971	146.200000
301.020142	145.940000
301.113342	145.880000
301.206512	145.880000
301.299713	146.060000
301.392914	146.060000
301.486084	146.500000
301.579285	146.380000
301.672516	146.500000
301.765686	146.160000
301.858887	145.900000
301.952057	145.720000
302.045288	146.220000
302.138458	145.760000
302.231659	145.900000
302.324860	145.760000
302.418060	145.260000
302.511261	145.060000
302.604462	145.400000
302.697662	145.100000
302.790863	145.200000
302.884064	145.140000
302.977264	144.940000
303.070465	145.080000
303.163666	145.960000
303.256866	146.220000
303.350067	146.440000
303.443268	146.720000
303.536469	146.620000
303.629669	146.240000
303.722870	146.480000
303.816071	146.360000
303.909271	146.180000
304.002472	145.280000
304.095673	144.960000
304.188934	143.800000
304.282104	144.700000
304.375336	144.760000
304.468506	145.060000
304.561768	144.960000
304.654968	145.760000
304.748169	145.140000
304.841370	144.740000
304.934601	145.240000
305.027802	145.160000
305.121002	144.960000
305.214233	144.900000
305.307434	144.940000
305.400665	145.480000
305.493866	145.320000
