Model Number: SPM-002-B   
Serial Number: 70087108
Firmware Version: 004.15.4
Exposure Time: 100000.000000us
Data Taken on: 11-12-2020 19:38:27.100
Wavelength	Amplitude
221.570786	0.000000
221.663406	0.000000
221.756027	0.000000
221.848648	0.000000
221.941269	0.000000
222.033905	0.000000
222.126526	0.000000
222.219162	0.000000
222.311798	0.000000
222.404419	0.000000
222.497055	0.000000
222.589676	0.000000
222.682312	0.000000
222.774933	0.000000
222.867569	0.000000
222.960205	0.000000
223.052841	0.000000
223.145462	0.000000
223.238098	0.000000
223.330734	0.000000
223.423386	0.000000
223.516022	0.000000
223.608658	0.000000
223.701309	0.000000
223.793945	0.000000
223.886581	0.000000
223.979218	0.000000
224.071869	0.000000
224.164505	0.000000
224.257156	0.000000
224.349792	0.000000
224.442444	0.000000
224.535095	0.000000
224.627747	0.000000
224.720398	0.000000
224.813034	0.000000
224.905685	0.000000
224.998337	146.260000
225.090988	145.840000
225.183640	145.820000
225.276291	145.480000
225.368942	145.760000
225.461594	146.100000
225.554245	146.480000
225.646912	146.180000
225.739578	146.640000
225.832230	146.820000
225.924896	146.120000
226.017548	146.260000
226.110199	147.000000
226.202866	146.480000
226.295532	146.460000
226.388184	146.380000
226.480850	145.740000
226.573517	144.920000
226.666168	145.360000
226.758835	145.480000
226.851501	146.060000
226.944183	146.500000
227.036850	146.380000
227.129517	146.360000
227.222183	146.500000
227.314850	146.300000
227.407516	146.440000
227.500198	147.260000
227.592865	146.520000
227.685532	146.100000
227.778214	145.560000
227.870880	145.900000
227.963562	146.200000
228.056229	146.900000
228.148926	146.920000
228.241592	148.000000
228.334274	147.660000
228.426956	147.300000
228.519638	147.500000
228.612305	146.920000
228.704987	146.540000
228.797668	146.400000
228.890350	145.940000
228.983032	145.340000
229.075714	146.400000
229.168396	146.160000
229.261108	145.720000
229.353790	145.780000
229.446472	145.800000
229.539169	145.200000
229.631851	144.800000
229.724533	145.180000
229.817230	145.260000
229.909912	146.520000
230.002609	146.660000
230.095306	147.000000
230.187988	146.840000
230.280685	146.920000
230.373383	145.700000
230.466095	145.760000
230.558792	145.740000
230.651474	145.880000
230.744171	145.680000
230.836868	145.740000
230.929581	145.940000
231.022278	146.220000
231.114975	146.020000
231.207672	145.860000
231.300369	146.340000
231.393082	146.380000
231.485779	146.060000
231.578506	146.180000
231.671204	146.500000
231.763916	146.440000
231.856613	146.300000
231.949326	146.540000
232.042023	146.520000
232.134735	146.540000
232.227448	146.140000
232.320160	146.220000
232.412872	146.120000
232.505585	146.740000
232.598297	147.060000
232.691010	146.920000
232.783722	146.640000
232.876450	147.440000
232.969162	147.120000
233.061874	146.520000
233.154587	146.300000
233.247314	146.540000
233.340027	145.640000
233.432739	145.880000
233.525467	145.880000
233.618179	146.480000
233.710907	146.100000
233.803635	146.600000
233.896347	146.180000
233.989090	146.900000
234.081818	146.860000
234.174545	147.320000
234.267258	146.620000
234.359985	146.800000
234.452713	146.360000
234.545441	146.200000
234.638168	146.020000
234.730896	146.540000
234.823639	146.280000
234.916367	146.660000
235.009094	146.800000
235.101822	146.840000
235.194580	146.680000
235.287308	146.740000
235.380051	145.920000
235.472778	145.940000
235.565521	146.100000
235.658249	145.460000
235.750992	145.360000
235.843719	145.700000
235.936462	145.800000
236.029205	145.500000
236.121948	145.620000
236.214691	145.840000
236.307449	146.540000
236.400192	145.940000
236.492935	145.580000
236.585678	145.960000
236.678421	145.940000
236.771164	145.420000
236.863907	146.260000
236.956665	146.720000
237.049408	148.160000
237.142151	148.160000
237.234909	148.780000
237.327652	148.600000
237.420410	148.520000
237.513153	147.440000
237.605927	147.340000
237.698669	146.860000
237.791428	146.160000
237.884186	146.520000
237.976944	145.980000
238.069702	146.280000
238.162445	145.800000
238.255203	146.040000
238.347961	145.980000
238.440720	146.120000
238.533478	145.820000
238.626266	145.740000
238.719025	146.200000
238.811783	146.160000
238.904541	145.980000
238.997314	145.880000
239.090073	145.720000
239.182831	145.820000
239.275604	146.320000
239.368362	146.520000
239.461136	146.620000
239.553909	147.100000
239.646667	146.840000
239.739441	146.220000
239.832214	146.360000
239.925003	146.340000
240.017761	146.580000
240.110535	147.140000
240.203308	146.720000
240.296082	146.980000
240.388855	147.080000
240.481628	147.300000
240.574417	147.140000
240.667191	147.780000
240.759964	147.320000
240.852737	147.400000
240.945526	146.640000
241.038315	146.080000
241.131088	146.100000
241.223877	146.500000
241.316650	146.100000
241.409439	146.500000
241.502228	146.320000
241.595001	146.700000
241.687790	146.460000
241.780579	146.640000
241.873367	146.820000
241.966141	147.140000
242.058929	146.120000
242.151718	146.440000
242.244507	146.940000
242.337311	146.340000
242.430099	147.040000
242.522903	147.440000
242.615692	147.100000
242.708481	146.880000
242.801270	147.560000
242.894073	147.120000
242.986862	147.280000
243.079651	147.820000
243.172455	147.600000
243.265244	147.480000
243.358063	146.660000
243.450867	147.060000
243.543655	146.760000
243.636459	146.920000
243.729263	147.060000
243.822067	147.840000
243.914856	147.820000
244.007660	147.780000
244.100464	147.600000
244.193268	147.040000
244.286072	146.900000
244.378876	146.500000
244.471680	145.940000
244.564499	146.360000
244.657318	147.300000
244.750122	147.620000
244.842926	146.800000
244.935745	147.440000
245.028549	146.900000
245.121368	146.340000
245.214172	146.160000
245.306992	147.060000
245.399796	146.440000
245.492615	146.480000
245.585434	146.400000
245.678253	146.200000
245.771072	145.940000
245.863892	146.740000
245.956711	147.140000
246.049530	147.020000
246.142349	146.860000
246.235168	147.160000
246.327988	147.360000
246.420807	146.980000
246.513626	147.060000
246.606445	147.140000
246.699280	146.900000
246.792099	146.460000
246.884918	145.940000
246.977753	145.520000
247.070587	145.560000
247.163422	145.600000
247.256241	146.000000
247.349075	146.600000
247.441895	146.900000
247.534729	146.940000
247.627563	146.780000
247.720383	146.860000
247.813217	146.780000
247.906052	146.720000
247.998886	146.760000
248.091736	146.660000
248.184570	146.260000
248.277405	146.420000
248.370239	147.300000
248.463074	148.040000
248.555908	148.660000
248.648743	148.640000
248.741592	148.660000
248.834427	147.900000
248.927261	146.540000
249.020111	146.360000
249.112946	146.840000
249.205795	146.380000
249.298630	146.500000
249.391495	147.180000
249.484344	146.920000
249.577179	146.380000
249.670029	146.720000
249.762878	147.140000
249.855728	147.200000
249.948563	147.320000
250.041412	146.940000
250.134262	146.920000
250.227112	146.880000
250.319962	146.920000
250.412827	146.880000
250.505692	146.760000
250.598541	146.820000
250.691391	146.360000
250.784241	146.000000
250.877106	146.140000
250.969955	146.140000
251.062805	146.740000
251.155670	147.140000
251.248520	147.080000
251.341385	147.240000
251.434235	147.160000
251.527100	146.660000
251.619965	146.340000
251.712814	147.060000
251.805695	147.020000
251.898560	147.640000
251.991425	148.000000
252.084290	148.080000
252.177155	147.560000
252.270020	147.280000
252.362885	147.140000
252.455750	147.180000
252.548615	147.100000
252.641479	146.940000
252.734360	146.680000
252.827240	146.500000
252.920105	146.400000
253.012970	146.200000
253.105850	146.460000
253.198715	146.300000
253.291595	146.240000
253.384460	145.560000
253.477341	145.500000
253.570221	145.860000
253.663086	146.000000
253.755966	146.900000
253.848846	147.280000
253.941727	147.940000
254.034592	147.500000
254.127472	147.220000
254.220367	146.880000
254.313248	147.140000
254.406128	146.440000
254.499008	146.640000
254.591904	147.520000
254.684784	147.780000
254.777664	147.420000
254.870544	147.400000
254.963440	147.220000
255.056335	147.040000
255.149216	146.540000
255.242111	147.220000
255.334991	147.380000
255.427887	147.460000
255.520767	147.520000
255.613663	147.560000
255.706558	146.780000
255.799438	146.760000
255.892334	146.560000
255.985229	146.220000
256.078125	146.240000
256.171021	146.320000
256.263916	146.440000
256.356812	146.840000
256.449707	146.900000
256.542603	146.840000
256.635498	147.340000
256.728394	147.120000
256.821289	146.600000
256.914215	146.700000
257.007080	146.820000
257.100006	146.740000
257.192932	147.320000
257.285828	147.800000
257.378723	147.580000
257.471619	147.340000
257.564545	146.720000
257.657440	146.640000
257.750336	146.740000
257.843262	146.580000
257.936157	147.640000
258.029053	147.920000
258.121979	147.820000
258.214874	147.380000
258.307800	147.380000
258.400696	146.220000
258.493622	146.200000
258.586517	145.740000
258.679443	146.140000
258.772339	146.000000
258.865265	146.260000
258.958160	146.060000
259.051086	146.840000
259.144012	146.600000
259.236938	147.420000
259.329834	147.440000
259.422791	147.340000
259.515717	146.520000
259.608612	146.320000
259.701538	146.160000
259.794464	145.980000
259.887390	146.120000
259.980316	146.440000
260.073212	146.300000
260.166138	145.300000
260.259064	145.560000
260.351990	146.140000
260.444916	145.740000
260.537842	146.480000
260.630768	147.600000
260.723694	147.520000
260.816620	147.040000
260.909546	147.180000
261.002472	146.240000
261.095398	145.600000
261.188354	145.420000
261.281281	145.180000
261.374207	145.700000
261.467133	146.600000
261.560089	146.720000
261.653015	146.500000
261.745972	147.240000
261.838867	147.300000
261.931824	147.220000
262.024780	146.980000
262.117706	147.280000
262.210663	147.200000
262.303589	146.940000
262.396515	146.800000
262.489471	147.800000
262.582397	147.580000
262.675354	147.200000
262.768280	147.080000
262.861237	147.020000
262.954163	146.800000
263.047119	147.100000
263.140045	146.860000
263.233002	146.840000
263.325958	146.900000
263.418884	146.160000
263.511841	146.260000
263.604797	146.340000
263.697723	146.500000
263.790680	146.260000
263.883636	146.820000
263.976593	146.680000
264.069550	146.700000
264.162476	146.500000
264.255463	146.520000
264.348419	146.100000
264.441376	146.060000
264.534332	146.000000
264.627289	145.960000
264.720245	146.440000
264.813202	146.160000
264.906158	146.460000
264.999115	146.980000
265.092072	147.140000
265.185028	147.240000
265.277985	147.480000
265.370941	147.360000
265.463898	146.960000
265.556854	146.540000
265.649811	145.700000
265.742798	145.780000
265.835754	146.000000
265.928711	146.660000
266.021667	146.880000
266.114655	147.440000
266.207611	147.700000
266.300568	146.880000
266.393585	145.960000
266.486511	146.280000
266.579498	145.260000
266.672485	145.040000
266.765442	145.280000
266.858429	146.000000
266.951385	145.720000
267.044342	146.320000
267.137329	146.380000
267.230316	146.740000
267.323273	146.180000
267.416260	146.760000
267.509216	146.940000
267.602203	147.160000
267.695160	147.280000
267.788147	147.520000
267.881134	146.780000
267.974091	146.840000
268.067078	146.480000
268.160065	146.200000
268.253052	146.040000
268.346008	146.600000
268.438995	146.340000
268.531982	146.600000
268.624969	146.580000
268.717987	146.940000
268.810944	146.840000
268.903961	146.920000
268.996948	146.440000
269.089905	146.680000
269.182892	146.720000
269.275879	146.520000
269.368866	146.120000
269.461853	146.660000
269.554871	146.280000
269.647858	146.120000
269.740845	146.400000
269.833832	147.000000
269.926819	146.420000
270.019806	146.760000
270.112793	146.520000
270.205811	146.560000
270.298798	146.420000
270.391785	147.420000
270.484772	147.160000
270.577789	147.460000
270.670776	147.000000
270.763763	146.820000
270.856750	146.520000
270.949768	146.340000
271.042786	146.100000
271.135773	146.060000
271.228790	146.460000
271.321808	145.680000
271.414795	145.440000
271.507782	145.380000
271.600800	145.400000
271.693817	145.280000
271.786804	146.100000
271.879822	146.480000
271.972809	146.460000
272.065826	147.180000
272.158844	146.580000
272.251831	146.860000
272.344849	147.020000
272.437866	146.520000
272.530853	146.220000
272.623871	146.840000
272.716888	145.740000
272.809906	145.980000
272.902893	146.460000
272.995911	145.780000
273.088928	145.800000
273.181946	146.320000
273.274963	145.840000
273.367981	145.840000
273.460999	146.480000
273.554047	146.640000
273.647003	147.120000
273.740051	147.300000
273.833069	147.680000
273.926086	147.820000
274.019135	147.400000
274.112152	147.140000
274.205170	147.160000
274.298187	147.160000
274.391205	146.600000
274.484222	146.980000
274.577240	146.860000
274.670258	146.660000
274.763306	146.640000
274.856323	147.280000
274.949341	147.240000
275.042358	147.700000
275.135406	147.660000
275.228424	147.780000
275.321442	147.440000
275.414490	146.900000
275.507507	147.080000
275.600525	147.820000
275.693573	147.100000
275.786591	147.020000
275.879669	147.640000
275.972656	146.940000
276.065735	146.560000
276.158752	147.180000
276.251801	147.580000
276.344818	147.180000
276.437866	147.240000
276.530884	146.940000
276.623932	146.280000
276.716980	146.320000
276.809998	146.640000
276.903046	146.820000
276.996094	147.860000
277.089111	148.480000
277.182159	148.640000
277.275208	148.340000
277.368256	148.320000
277.461304	147.620000
277.554321	146.740000
277.647369	146.660000
277.740417	146.540000
277.833466	146.260000
277.926514	146.060000
278.019562	147.120000
278.112610	146.540000
278.205688	146.740000
278.298706	147.140000
278.391785	147.060000
278.484833	146.320000
278.577881	146.100000
278.670929	146.560000
278.763977	146.360000
278.857025	146.940000
278.950073	147.260000
279.043121	147.260000
279.136169	146.760000
279.229248	146.260000
279.322296	146.000000
279.415344	145.880000
279.508392	146.080000
279.601440	146.140000
279.694519	146.300000
279.787567	146.440000
279.880615	146.160000
279.973694	146.160000
280.066742	146.320000
280.159790	146.560000
280.252869	145.900000
280.345917	146.360000
280.438995	146.120000
280.532074	145.960000
280.625122	146.380000
280.718201	147.300000
280.811279	147.120000
280.904327	147.520000
280.997406	147.620000
281.090454	147.360000
281.183533	146.840000
281.276581	147.020000
281.369659	146.720000
281.462738	146.840000
281.555786	146.880000
281.648865	146.620000
281.741943	146.480000
281.835022	147.080000
281.928070	146.460000
282.021149	146.460000
282.114227	146.620000
282.207306	146.520000
282.300385	146.820000
282.393433	147.240000
282.486511	147.180000
282.579590	147.660000
282.672668	148.060000
282.765747	147.100000
282.858856	146.820000
282.951904	146.680000
283.045013	146.560000
283.138062	146.740000
283.231171	147.260000
283.324249	147.980000
283.417328	147.980000
283.510406	147.400000
283.603485	146.940000
283.696564	146.740000
283.789642	146.540000
283.882751	146.460000
283.975830	147.300000
284.068909	147.160000
284.161987	147.660000
284.255066	147.240000
284.348175	147.480000
284.441254	147.000000
284.534332	147.340000
284.627441	146.420000
284.720520	146.020000
284.813599	145.860000
284.906708	145.960000
284.999786	145.340000
285.092896	145.420000
285.185974	146.860000
285.279053	146.620000
285.372192	146.580000
285.465240	147.440000
285.558380	147.520000
285.651459	146.740000
285.744568	147.480000
285.837677	147.100000
285.930756	146.900000
286.023865	146.900000
286.116943	146.540000
286.210052	146.480000
286.303162	146.900000
286.396240	146.680000
286.489349	146.540000
286.582458	147.120000
286.675568	146.620000
286.768646	146.580000
286.861755	146.920000
286.954865	147.840000
287.047974	147.080000
287.141083	147.120000
287.234161	146.660000
287.327271	146.260000
287.420380	146.220000
287.513519	146.240000
287.606598	146.600000
287.699738	147.200000
287.792816	147.220000
287.885956	147.080000
287.979034	147.240000
288.072174	146.880000
288.165283	146.740000
288.258392	146.880000
288.351501	146.020000
288.444611	146.260000
288.537720	146.880000
288.630859	146.720000
288.723969	146.700000
288.817078	147.560000
288.910187	147.460000
289.003296	146.480000
289.096436	146.080000
289.189545	145.760000
289.282654	145.260000
289.375763	145.660000
289.468903	146.000000
289.562012	146.520000
289.655121	146.820000
289.748260	146.660000
289.841400	146.840000
289.934509	146.900000
290.027649	147.060000
290.120728	146.980000
290.213898	147.440000
290.306976	146.860000
290.400146	147.220000
290.493256	146.280000
290.586395	146.600000
290.679535	146.460000
290.772644	146.440000
290.865784	145.580000
290.958893	146.100000
291.052032	145.700000
291.145172	145.620000
291.238281	145.460000
291.331421	145.660000
291.424561	146.160000
291.517670	146.000000
291.610809	146.500000
291.703949	146.480000
291.797089	147.060000
291.890228	146.560000
291.983337	146.860000
292.076477	146.560000
292.169617	146.960000
292.262756	146.640000
292.355927	146.440000
292.449036	146.080000
292.542206	146.000000
292.635315	146.100000
292.728485	146.320000
292.821625	146.240000
292.914764	147.440000
293.007904	147.460000
293.101044	147.200000
293.194183	146.980000
293.287323	147.160000
293.380463	146.040000
293.473602	146.160000
293.566742	146.460000
293.659882	146.860000
293.753021	147.140000
293.846191	147.500000
293.939331	147.100000
294.032471	146.720000
294.125610	146.400000
294.218781	146.780000
294.311920	147.040000
294.405060	147.180000
294.498230	147.360000
294.591370	147.500000
294.684540	146.800000
294.777679	146.380000
294.870850	146.700000
294.963959	146.540000
295.057159	146.120000
295.150299	146.360000
295.243469	146.260000
295.336609	145.700000
295.429779	145.760000
295.522919	146.180000
295.616089	146.420000
295.709229	147.340000
295.802399	147.620000
295.895569	147.540000
295.988708	147.420000
296.081879	147.120000
296.175018	146.240000
296.268188	146.160000
296.361359	146.640000
296.454529	146.500000
296.547668	146.400000
296.640839	146.940000
296.734009	146.900000
296.827179	146.920000
296.920319	147.440000
297.013519	147.220000
297.106659	147.060000
297.199860	146.840000
297.292999	146.440000
297.386200	146.180000
297.479309	146.460000
297.572510	146.480000
297.665680	146.440000
297.758850	146.780000
297.852020	146.640000
297.945190	146.600000
298.038361	146.060000
298.131531	147.020000
298.224701	146.720000
298.317871	146.600000
298.411072	146.080000
298.504242	146.220000
298.597412	145.660000
298.690582	145.740000
298.783752	145.560000
298.876923	146.300000
298.970093	146.520000
299.063293	146.600000
299.156464	146.800000
299.249634	147.100000
299.342834	147.040000
299.436005	147.180000
299.529205	147.180000
299.622345	147.360000
299.715576	147.000000
299.808716	146.640000
299.901917	146.500000
299.995117	146.680000
300.088287	146.520000
300.181488	146.540000
300.274658	146.440000
300.367828	146.300000
300.461029	146.360000
300.554199	146.520000
300.647400	146.460000
300.740601	147.220000
300.833771	147.360000
300.926971	147.180000
301.020142	146.660000
301.113342	146.780000
301.206512	146.500000
301.299713	146.460000
301.392914	146.420000
301.486084	146.800000
301.579285	146.860000
301.672516	147.020000
301.765686	146.900000
301.858887	146.660000
301.952057	146.460000
302.045288	146.400000
302.138458	146.340000
302.231659	146.200000
302.324860	146.100000
302.418060	145.920000
302.511261	145.840000
302.604462	145.900000
302.697662	145.940000
302.790863	146.040000
302.884064	145.800000
302.977264	145.900000
303.070465	146.060000
303.163666	146.700000
303.256866	146.920000
303.350067	147.140000
303.443268	147.140000
303.536469	147.140000
303.629669	146.560000
303.722870	146.560000
303.816071	146.420000
303.909271	146.620000
304.002472	145.700000
304.095673	145.720000
304.188934	145.300000
304.282104	146.260000
304.375336	146.140000
304.468506	146.520000
304.561768	146.260000
304.654968	146.600000
304.748169	145.600000
304.841370	145.400000
304.934601	145.900000
305.027802	146.120000
305.121002	145.960000
305.214233	146.320000
305.307434	146.540000
305.400665	146.820000
305.493866	146.520000
