Model Number: SPM-002-B   
Serial Number: 70087108
Firmware Version: 004.15.4
Exposure Time: 100000.000000us
Data Taken on: 11-12-2020 19:38:37.271
Wavelength	Amplitude
221.570786	0.000000
221.663406	0.000000
221.756027	0.000000
221.848648	0.000000
221.941269	0.000000
222.033905	0.000000
222.126526	0.000000
222.219162	0.000000
222.311798	0.000000
222.404419	0.000000
222.497055	0.000000
222.589676	0.000000
222.682312	0.000000
222.774933	0.000000
222.867569	0.000000
222.960205	0.000000
223.052841	0.000000
223.145462	0.000000
223.238098	0.000000
223.330734	0.000000
223.423386	0.000000
223.516022	0.000000
223.608658	0.000000
223.701309	0.000000
223.793945	0.000000
223.886581	0.000000
223.979218	0.000000
224.071869	0.000000
224.164505	0.000000
224.257156	0.000000
224.349792	0.000000
224.442444	0.000000
224.535095	0.000000
224.627747	0.000000
224.720398	0.000000
224.813034	0.000000
224.905685	0.000000
224.998337	145.980000
225.090988	145.660000
225.183640	145.580000
225.276291	145.600000
225.368942	146.120000
225.461594	146.640000
225.554245	146.780000
225.646912	146.860000
225.739578	147.260000
225.832230	147.260000
225.924896	146.480000
226.017548	146.980000
226.110199	147.400000
226.202866	146.640000
226.295532	146.520000
226.388184	146.740000
226.480850	145.900000
226.573517	145.460000
226.666168	145.620000
226.758835	145.820000
226.851501	146.400000
226.944183	146.880000
227.036850	146.300000
227.129517	146.220000
227.222183	146.200000
227.314850	145.960000
227.407516	146.060000
227.500198	146.960000
227.592865	147.000000
227.685532	146.740000
227.778214	146.260000
227.870880	146.340000
227.963562	146.340000
228.056229	147.020000
228.148926	147.080000
228.241592	148.120000
228.334274	147.900000
228.426956	147.840000
228.519638	147.380000
228.612305	147.040000
228.704987	146.640000
228.797668	146.780000
228.890350	146.520000
228.983032	145.980000
229.075714	146.940000
229.168396	146.660000
229.261108	146.200000
229.353790	146.260000
229.446472	146.860000
229.539169	146.540000
229.631851	146.280000
229.724533	146.500000
229.817230	146.460000
229.909912	147.260000
230.002609	147.220000
230.095306	147.060000
230.187988	147.120000
230.280685	146.940000
230.373383	145.720000
230.466095	145.140000
230.558792	145.700000
230.651474	145.860000
230.744171	145.880000
230.836868	145.800000
230.929581	146.460000
231.022278	146.300000
231.114975	146.120000
231.207672	146.180000
231.300369	146.780000
231.393082	146.540000
231.485779	146.200000
231.578506	146.340000
231.671204	146.380000
231.763916	146.200000
231.856613	146.100000
231.949326	146.320000
232.042023	146.040000
232.134735	145.840000
232.227448	145.560000
232.320160	145.980000
232.412872	145.960000
232.505585	146.860000
232.598297	147.500000
232.691010	147.320000
232.783722	146.700000
232.876450	147.240000
232.969162	146.500000
233.061874	145.720000
233.154587	145.600000
233.247314	146.020000
233.340027	145.080000
233.432739	145.320000
233.525467	145.580000
233.618179	145.780000
233.710907	145.660000
233.803635	146.700000
233.896347	146.260000
233.989090	146.900000
234.081818	147.120000
234.174545	147.060000
234.267258	146.180000
234.359985	146.720000
234.452713	146.180000
234.545441	146.180000
234.638168	146.100000
234.730896	146.540000
234.823639	146.540000
234.916367	147.140000
235.009094	147.140000
235.101822	147.120000
235.194580	147.120000
235.287308	147.080000
235.380051	146.260000
235.472778	146.500000
235.565521	146.900000
235.658249	146.740000
235.750992	146.780000
235.843719	146.780000
235.936462	147.120000
236.029205	146.640000
236.121948	146.260000
236.214691	146.720000
236.307449	147.580000
236.400192	146.800000
236.492935	146.800000
236.585678	147.220000
236.678421	146.720000
236.771164	146.280000
236.863907	146.940000
236.956665	147.240000
237.049408	149.060000
237.142151	148.640000
237.234909	149.160000
237.327652	148.640000
237.420410	148.220000
237.513153	146.620000
237.605927	146.620000
237.698669	145.960000
237.791428	145.940000
237.884186	146.400000
237.976944	145.920000
238.069702	146.260000
238.162445	145.820000
238.255203	145.540000
238.347961	145.860000
238.440720	146.100000
238.533478	146.060000
238.626266	145.900000
238.719025	146.440000
238.811783	146.160000
238.904541	146.000000
238.997314	145.800000
239.090073	146.080000
239.182831	146.160000
239.275604	146.860000
239.368362	146.860000
239.461136	147.140000
239.553909	147.400000
239.646667	147.140000
239.739441	146.360000
239.832214	146.620000
239.925003	146.700000
240.017761	147.000000
240.110535	147.520000
240.203308	147.140000
240.296082	147.080000
240.388855	146.860000
240.481628	146.900000
240.574417	146.840000
240.667191	147.320000
240.759964	147.100000
240.852737	147.080000
240.945526	146.720000
241.038315	146.340000
241.131088	146.400000
241.223877	146.580000
241.316650	146.300000
241.409439	146.640000
241.502228	146.320000
241.595001	146.720000
241.687790	146.420000
241.780579	146.720000
241.873367	146.600000
241.966141	147.200000
242.058929	146.220000
242.151718	146.460000
242.244507	146.560000
242.337311	145.820000
242.430099	146.100000
242.522903	146.700000
242.615692	146.340000
242.708481	146.360000
242.801270	147.060000
242.894073	146.540000
242.986862	146.600000
243.079651	147.120000
243.172455	146.840000
243.265244	146.680000
243.358063	146.120000
243.450867	146.180000
243.543655	146.180000
243.636459	146.120000
243.729263	146.460000
243.822067	147.120000
243.914856	147.300000
244.007660	147.460000
244.100464	147.760000
244.193268	147.200000
244.286072	147.160000
244.378876	146.620000
244.471680	146.200000
244.564499	146.400000
244.657318	147.200000
244.750122	147.160000
244.842926	146.840000
244.935745	147.080000
245.028549	146.540000
245.121368	146.120000
245.214172	146.040000
245.306992	146.640000
245.399796	146.560000
245.492615	146.980000
245.585434	146.620000
245.678253	146.740000
245.771072	146.280000
245.863892	146.660000
245.956711	146.720000
246.049530	146.720000
246.142349	146.320000
246.235168	146.580000
246.327988	146.960000
246.420807	146.700000
246.513626	146.960000
246.606445	147.040000
246.699280	146.800000
246.792099	146.340000
246.884918	146.180000
246.977753	146.040000
247.070587	146.440000
247.163422	146.600000
247.256241	146.400000
247.349075	146.700000
247.441895	146.720000
247.534729	146.540000
247.627563	146.240000
247.720383	146.700000
247.813217	146.440000
247.906052	146.440000
247.998886	146.480000
248.091736	146.300000
248.184570	145.700000
248.277405	145.740000
248.370239	146.440000
248.463074	147.340000
248.555908	148.220000
248.648743	148.160000
248.741592	148.280000
248.834427	147.440000
248.927261	145.880000
249.020111	146.060000
249.112946	146.920000
249.205795	146.820000
249.298630	147.020000
249.391495	147.440000
249.484344	146.580000
249.577179	146.260000
249.670029	146.380000
249.762878	146.800000
249.855728	147.120000
249.948563	147.340000
250.041412	147.000000
250.134262	147.220000
250.227112	147.180000
250.319962	147.120000
250.412827	147.240000
250.505692	146.800000
250.598541	146.560000
250.691391	146.140000
250.784241	146.080000
250.877106	146.200000
250.969955	146.500000
251.062805	147.100000
251.155670	147.700000
251.248520	147.680000
251.341385	147.620000
251.434235	147.500000
251.527100	146.880000
251.619965	146.420000
251.712814	147.120000
251.805695	147.280000
251.898560	147.600000
251.991425	147.980000
252.084290	148.120000
252.177155	147.140000
252.270020	146.620000
252.362885	146.260000
252.455750	146.060000
252.548615	145.760000
252.641479	145.860000
252.734360	146.160000
252.827240	146.340000
252.920105	146.300000
253.012970	146.280000
253.105850	146.240000
253.198715	145.960000
253.291595	145.620000
253.384460	145.280000
253.477341	145.240000
253.570221	145.480000
253.663086	145.400000
253.755966	146.360000
253.848846	146.480000
253.941727	146.760000
254.034592	146.760000
254.127472	146.540000
254.220367	146.480000
254.313248	146.680000
254.406128	146.480000
254.499008	146.600000
254.591904	147.580000
254.684784	147.720000
254.777664	147.760000
254.870544	147.420000
254.963440	147.220000
255.056335	147.040000
255.149216	146.480000
255.242111	146.560000
255.334991	146.920000
255.427887	147.160000
255.520767	146.980000
255.613663	147.100000
255.706558	146.780000
255.799438	146.560000
255.892334	145.940000
255.985229	146.020000
256.078125	146.120000
256.171021	146.440000
256.263916	146.860000
256.356812	147.420000
256.449707	147.560000
256.542603	147.140000
256.635498	147.360000
256.728394	147.360000
256.821289	147.160000
256.914215	147.180000
257.007080	147.480000
257.100006	147.500000
257.192932	147.520000
257.285828	147.980000
257.378723	147.600000
257.471619	147.320000
257.564545	146.780000
257.657440	146.700000
257.750336	146.620000
257.843262	146.360000
257.936157	147.520000
258.029053	147.840000
258.121979	148.020000
258.214874	147.620000
258.307800	147.760000
258.400696	146.620000
258.493622	146.460000
258.586517	145.680000
258.679443	146.180000
258.772339	145.920000
258.865265	145.820000
258.958160	145.280000
259.051086	146.360000
259.144012	146.080000
259.236938	147.060000
259.329834	147.300000
259.422791	147.380000
259.515717	146.600000
259.608612	146.160000
259.701538	145.660000
259.794464	145.720000
259.887390	145.900000
259.980316	145.960000
260.073212	145.920000
260.166138	145.240000
260.259064	145.340000
260.351990	145.940000
260.444916	145.940000
260.537842	146.400000
260.630768	147.120000
260.723694	146.960000
260.816620	146.720000
260.909546	146.920000
261.002472	146.480000
261.095398	146.000000
261.188354	145.800000
261.281281	145.220000
261.374207	145.200000
261.467133	145.900000
261.560089	146.340000
261.653015	146.340000
261.745972	147.180000
261.838867	147.540000
261.931824	147.660000
262.024780	146.900000
262.117706	147.360000
262.210663	147.180000
262.303589	146.740000
262.396515	146.780000
262.489471	148.080000
262.582397	147.600000
262.675354	147.120000
262.768280	147.100000
262.861237	146.760000
262.954163	146.200000
263.047119	146.480000
263.140045	146.560000
263.233002	146.660000
263.325958	146.460000
263.418884	146.060000
263.511841	146.060000
263.604797	145.900000
263.697723	145.900000
263.790680	145.960000
263.883636	146.480000
263.976593	146.220000
264.069550	146.800000
264.162476	146.660000
264.255463	146.660000
264.348419	146.640000
264.441376	146.980000
264.534332	146.640000
264.627289	146.820000
264.720245	147.560000
264.813202	147.040000
264.906158	147.200000
264.999115	147.300000
265.092072	147.100000
265.185028	147.080000
265.277985	147.660000
265.370941	147.720000
265.463898	147.880000
265.556854	147.820000
265.649811	146.860000
265.742798	146.560000
265.835754	146.200000
265.928711	146.340000
266.021667	146.400000
266.114655	146.840000
266.207611	147.340000
266.300568	147.100000
266.393585	146.700000
266.486511	146.820000
266.579498	145.880000
266.672485	145.500000
266.765442	145.500000
266.858429	145.940000
266.951385	145.600000
267.044342	146.240000
267.137329	146.360000
267.230316	146.740000
267.323273	146.020000
267.416260	146.980000
267.509216	146.880000
267.602203	146.620000
267.695160	146.920000
267.788147	147.360000
267.881134	146.480000
267.974091	146.700000
268.067078	146.720000
268.160065	146.280000
268.253052	145.860000
268.346008	146.120000
268.438995	145.960000
268.531982	145.900000
268.624969	145.520000
268.717987	146.220000
268.810944	146.120000
268.903961	146.420000
268.996948	146.080000
269.089905	146.660000
269.182892	146.320000
269.275879	146.520000
269.368866	145.920000
269.461853	146.360000
269.554871	146.240000
269.647858	146.440000
269.740845	146.720000
269.833832	147.020000
269.926819	146.840000
270.019806	147.180000
270.112793	146.620000
270.205811	146.620000
270.298798	146.540000
270.391785	147.120000
270.484772	146.380000
270.577789	146.780000
270.670776	146.440000
270.763763	146.340000
270.856750	146.020000
270.949768	145.820000
271.042786	145.800000
271.135773	145.880000
271.228790	146.500000
271.321808	146.220000
271.414795	146.060000
271.507782	145.540000
271.600800	145.200000
271.693817	145.000000
271.786804	145.280000
271.879822	145.740000
271.972809	146.000000
272.065826	146.340000
272.158844	145.860000
272.251831	146.440000
272.344849	146.540000
272.437866	146.480000
272.530853	146.560000
272.623871	146.920000
272.716888	145.740000
272.809906	145.920000
272.902893	146.160000
272.995911	145.840000
273.088928	146.060000
273.181946	146.760000
273.274963	146.500000
273.367981	146.440000
273.460999	146.260000
273.554047	146.440000
273.647003	146.740000
273.740051	146.740000
273.833069	147.120000
273.926086	147.440000
274.019135	146.760000
274.112152	146.400000
274.205170	146.600000
274.298187	146.440000
274.391205	146.240000
274.484222	146.420000
274.577240	146.400000
274.670258	146.380000
274.763306	146.360000
274.856323	146.700000
274.949341	146.880000
275.042358	147.220000
275.135406	147.000000
275.228424	147.020000
275.321442	146.820000
275.414490	146.620000
275.507507	146.840000
275.600525	147.460000
275.693573	147.340000
275.786591	147.080000
275.879669	147.160000
275.972656	146.560000
276.065735	146.420000
276.158752	147.000000
276.251801	147.720000
276.344818	147.860000
276.437866	148.020000
276.530884	147.720000
276.623932	146.500000
276.716980	146.240000
276.809998	146.180000
276.903046	146.440000
276.996094	147.200000
277.089111	148.180000
277.182159	148.680000
277.275208	148.520000
277.368256	148.200000
277.461304	147.620000
277.554321	146.760000
277.647369	146.500000
277.740417	146.440000
277.833466	146.080000
277.926514	146.040000
278.019562	146.940000
278.112610	146.180000
278.205688	146.180000
278.298706	146.560000
278.391785	146.340000
278.484833	145.480000
278.577881	145.780000
278.670929	146.080000
278.763977	146.200000
278.857025	146.500000
278.950073	146.900000
279.043121	146.800000
279.136169	146.840000
279.229248	146.360000
279.322296	146.300000
279.415344	146.100000
279.508392	145.820000
279.601440	145.560000
279.694519	145.840000
279.787567	145.780000
279.880615	145.860000
279.973694	146.020000
280.066742	145.920000
280.159790	145.740000
280.252869	145.260000
280.345917	145.260000
280.438995	145.240000
280.532074	145.400000
280.625122	146.080000
280.718201	146.840000
280.811279	147.060000
280.904327	147.260000
280.997406	147.520000
281.090454	147.100000
281.183533	146.720000
281.276581	146.540000
281.369659	146.480000
281.462738	146.360000
281.555786	146.440000
281.648865	146.480000
281.741943	146.340000
281.835022	146.940000
281.928070	146.440000
282.021149	146.200000
282.114227	146.100000
282.207306	146.500000
282.300385	146.700000
282.393433	147.180000
282.486511	147.360000
282.579590	147.920000
282.672668	148.060000
282.765747	147.420000
282.858856	147.000000
282.951904	147.060000
283.045013	146.920000
283.138062	147.060000
283.231171	147.140000
283.324249	147.560000
283.417328	147.660000
283.510406	146.980000
283.603485	146.640000
283.696564	146.480000
283.789642	146.700000
283.882751	146.380000
283.975830	147.200000
284.068909	146.820000
284.161987	147.260000
284.255066	146.620000
284.348175	147.020000
284.441254	146.620000
284.534332	147.180000
284.627441	146.700000
284.720520	146.380000
284.813599	146.000000
284.906708	146.140000
284.999786	145.300000
285.092896	145.040000
285.185974	146.220000
285.279053	146.240000
285.372192	146.300000
285.465240	147.060000
285.558380	147.360000
285.651459	146.620000
285.744568	147.380000
285.837677	146.960000
285.930756	146.840000
286.023865	146.960000
286.116943	147.160000
286.210052	146.820000
286.303162	146.880000
286.396240	146.840000
286.489349	146.360000
286.582458	146.380000
286.675568	146.120000
286.768646	146.400000
286.861755	146.700000
286.954865	147.740000
287.047974	147.320000
287.141083	146.760000
287.234161	146.300000
287.327271	145.960000
287.420380	145.680000
287.513519	145.900000
287.606598	146.320000
287.699738	146.660000
287.792816	146.540000
287.885956	146.520000
287.979034	146.520000
288.072174	146.820000
288.165283	146.700000
288.258392	146.880000
288.351501	146.200000
288.444611	146.580000
288.537720	146.720000
288.630859	146.800000
288.723969	147.260000
288.817078	147.540000
288.910187	147.320000
289.003296	146.900000
289.096436	146.340000
289.189545	145.760000
289.282654	145.600000
289.375763	145.960000
289.468903	146.080000
289.562012	146.780000
289.655121	147.020000
289.748260	147.260000
289.841400	147.480000
289.934509	147.300000
290.027649	147.180000
290.120728	146.680000
290.213898	146.660000
290.306976	146.040000
290.400146	146.440000
290.493256	145.960000
290.586395	146.540000
290.679535	146.980000
290.772644	146.720000
290.865784	145.760000
290.958893	145.680000
291.052032	145.380000
291.145172	145.120000
291.238281	145.180000
291.331421	145.500000
291.424561	146.160000
291.517670	145.780000
291.610809	145.760000
291.703949	145.840000
291.797089	146.160000
291.890228	145.700000
291.983337	145.860000
292.076477	145.780000
292.169617	146.040000
292.262756	146.240000
292.355927	146.360000
292.449036	146.040000
292.542206	146.220000
292.635315	146.280000
292.728485	146.480000
292.821625	146.220000
292.914764	147.520000
293.007904	147.240000
293.101044	147.060000
293.194183	146.580000
293.287323	146.840000
293.380463	146.440000
293.473602	146.300000
293.566742	146.600000
293.659882	146.920000
293.753021	147.240000
293.846191	146.940000
293.939331	146.840000
294.032471	146.440000
294.125610	146.360000
294.218781	146.480000
294.311920	147.000000
294.405060	147.220000
294.498230	147.280000
294.591370	147.040000
294.684540	146.420000
294.777679	145.680000
294.870850	146.240000
294.963959	146.300000
295.057159	146.500000
295.150299	147.060000
295.243469	146.980000
295.336609	146.020000
295.429779	145.980000
295.522919	145.860000
295.616089	145.900000
295.709229	146.880000
295.802399	147.320000
295.895569	147.060000
295.988708	147.020000
296.081879	147.020000
296.175018	146.060000
296.268188	145.880000
296.361359	146.700000
296.454529	146.980000
296.547668	146.700000
296.640839	147.040000
296.734009	146.840000
296.827179	146.540000
296.920319	146.740000
297.013519	146.720000
297.106659	146.920000
297.199860	147.300000
297.292999	147.220000
297.386200	146.640000
297.479309	146.480000
297.572510	146.240000
297.665680	146.260000
297.758850	146.180000
297.852020	145.960000
297.945190	146.160000
298.038361	145.940000
298.131531	146.740000
298.224701	146.740000
298.317871	146.600000
298.411072	145.880000
298.504242	145.840000
298.597412	145.120000
298.690582	145.200000
298.783752	145.480000
298.876923	146.260000
298.970093	146.140000
299.063293	146.280000
299.156464	146.360000
299.249634	146.500000
299.342834	146.620000
299.436005	147.100000
299.529205	146.980000
299.622345	146.940000
299.715576	146.500000
299.808716	146.520000
299.901917	146.520000
299.995117	146.660000
300.088287	146.960000
300.181488	147.040000
300.274658	146.420000
300.367828	146.580000
300.461029	146.520000
300.554199	146.780000
300.647400	146.760000
300.740601	147.620000
300.833771	147.140000
300.926971	147.220000
301.020142	146.280000
301.113342	146.520000
301.206512	146.140000
301.299713	146.480000
301.392914	146.340000
301.486084	146.880000
301.579285	146.820000
301.672516	147.060000
301.765686	146.620000
301.858887	146.620000
301.952057	146.420000
302.045288	146.660000
302.138458	146.700000
302.231659	146.760000
302.324860	146.620000
302.418060	146.420000
302.511261	146.160000
302.604462	146.240000
302.697662	146.340000
302.790863	146.380000
302.884064	146.140000
302.977264	146.240000
303.070465	145.880000
303.163666	146.460000
303.256866	146.740000
303.350067	147.120000
303.443268	147.200000
303.536469	147.560000
303.629669	146.920000
303.722870	146.840000
303.816071	146.640000
303.909271	146.440000
304.002472	145.700000
304.095673	145.800000
304.188934	144.920000
304.282104	145.600000
304.375336	145.900000
304.468506	145.940000
304.561768	145.780000
304.654968	146.840000
304.748169	146.400000
304.841370	146.140000
304.934601	146.780000
305.027802	146.620000
305.121002	146.100000
305.214233	146.160000
305.307434	146.300000
305.400665	146.480000
305.493866	146.600000
