Model Number: SPM-002-B   
Serial Number: 70087108
Firmware Version: 004.15.4
Exposure Time: 100000.000000us
Data Taken on: 11-12-2020 19:38:59.280
Wavelength	Amplitude
221.570786	0.000000
221.663406	0.000000
221.756027	0.000000
221.848648	0.000000
221.941269	0.000000
222.033905	0.000000
222.126526	0.000000
222.219162	0.000000
222.311798	0.000000
222.404419	0.000000
222.497055	0.000000
222.589676	0.000000
222.682312	0.000000
222.774933	0.000000
222.867569	0.000000
222.960205	0.000000
223.052841	0.000000
223.145462	0.000000
223.238098	0.000000
223.330734	0.000000
223.423386	0.000000
223.516022	0.000000
223.608658	0.000000
223.701309	0.000000
223.793945	0.000000
223.886581	0.000000
223.979218	0.000000
224.071869	0.000000
224.164505	0.000000
224.257156	0.000000
224.349792	0.000000
224.442444	0.000000
224.535095	0.000000
224.627747	0.000000
224.720398	0.000000
224.813034	0.000000
224.905685	0.000000
224.998337	145.720000
225.090988	145.240000
225.183640	145.260000
225.276291	145.160000
225.368942	145.740000
225.461594	146.200000
225.554245	146.260000
225.646912	146.120000
225.739578	146.340000
225.832230	146.520000
225.924896	145.780000
226.017548	146.340000
226.110199	146.960000
226.202866	146.300000
226.295532	145.740000
226.388184	145.640000
226.480850	144.740000
226.573517	144.320000
226.666168	144.680000
226.758835	145.060000
226.851501	145.740000
226.944183	146.060000
227.036850	145.500000
227.129517	145.440000
227.222183	145.560000
227.314850	145.440000
227.407516	145.880000
227.500198	146.920000
227.592865	146.720000
227.685532	146.120000
227.778214	146.060000
227.870880	146.100000
227.963562	146.460000
228.056229	146.880000
228.148926	147.040000
228.241592	147.560000
228.334274	147.140000
228.426956	146.500000
228.519638	146.640000
228.612305	146.520000
228.704987	146.160000
228.797668	146.500000
228.890350	146.240000
228.983032	145.640000
229.075714	146.320000
229.168396	146.140000
229.261108	145.340000
229.353790	145.500000
229.446472	145.600000
229.539169	145.100000
229.631851	145.040000
229.724533	145.680000
229.817230	146.080000
229.909912	147.140000
230.002609	147.400000
230.095306	147.180000
230.187988	147.220000
230.280685	146.860000
230.373383	145.640000
230.466095	145.120000
230.558792	145.500000
230.651474	145.540000
230.744171	145.420000
230.836868	145.560000
230.929581	146.080000
231.022278	146.100000
231.114975	145.920000
231.207672	145.760000
231.300369	146.220000
231.393082	146.180000
231.485779	146.100000
231.578506	146.080000
231.671204	146.580000
231.763916	146.480000
231.856613	146.160000
231.949326	146.360000
232.042023	146.240000
232.134735	146.120000
232.227448	145.740000
232.320160	146.240000
232.412872	145.780000
232.505585	146.800000
232.598297	147.000000
232.691010	147.040000
232.783722	146.660000
232.876450	147.640000
232.969162	147.040000
233.061874	146.480000
233.154587	146.380000
233.247314	146.680000
233.340027	145.540000
233.432739	145.500000
233.525467	145.400000
233.618179	145.540000
233.710907	145.260000
233.803635	146.200000
233.896347	146.080000
233.989090	146.860000
234.081818	146.860000
234.174545	146.920000
234.267258	146.260000
234.359985	146.620000
234.452713	146.100000
234.545441	145.780000
234.638168	145.700000
234.730896	146.140000
234.823639	145.840000
234.916367	146.320000
235.009094	146.680000
235.101822	146.480000
235.194580	146.400000
235.287308	146.220000
235.380051	145.700000
235.472778	146.120000
235.565521	146.500000
235.658249	145.780000
235.750992	146.000000
235.843719	146.140000
235.936462	146.160000
236.029205	145.860000
236.121948	145.960000
236.214691	146.080000
236.307449	146.680000
236.400192	146.280000
236.492935	146.160000
236.585678	146.840000
236.678421	146.940000
236.771164	146.480000
236.863907	147.320000
236.956665	147.760000
237.049408	149.140000
237.142151	148.700000
237.234909	149.360000
237.327652	148.460000
237.420410	147.860000
237.513153	146.560000
237.605927	146.660000
237.698669	146.020000
237.791428	145.580000
237.884186	146.380000
237.976944	145.840000
238.069702	145.940000
238.162445	145.440000
238.255203	145.920000
238.347961	145.980000
238.440720	146.080000
238.533478	146.060000
238.626266	146.320000
238.719025	146.540000
238.811783	146.320000
238.904541	146.360000
238.997314	146.300000
239.090073	145.820000
239.182831	145.920000
239.275604	146.720000
239.368362	146.600000
239.461136	146.880000
239.553909	146.940000
239.646667	146.600000
239.739441	145.880000
239.832214	146.300000
239.925003	146.180000
240.017761	146.960000
240.110535	147.480000
240.203308	147.320000
240.296082	147.160000
240.388855	146.880000
240.481628	146.900000
240.574417	146.820000
240.667191	146.920000
240.759964	146.680000
240.852737	146.740000
240.945526	146.420000
241.038315	146.100000
241.131088	146.020000
241.223877	146.080000
241.316650	145.760000
241.409439	145.600000
241.502228	145.200000
241.595001	145.680000
241.687790	145.840000
241.780579	146.140000
241.873367	146.500000
241.966141	147.040000
242.058929	146.360000
242.151718	146.480000
242.244507	147.000000
242.337311	146.180000
242.430099	146.300000
242.522903	146.560000
242.615692	146.040000
242.708481	145.740000
242.801270	146.660000
242.894073	146.520000
242.986862	146.240000
243.079651	146.960000
243.172455	146.760000
243.265244	146.460000
243.358063	145.860000
243.450867	146.520000
243.543655	146.040000
243.636459	146.260000
243.729263	146.600000
243.822067	147.180000
243.914856	147.060000
244.007660	147.260000
244.100464	147.300000
244.193268	146.620000
244.286072	146.700000
244.378876	146.280000
244.471680	146.000000
244.564499	146.100000
244.657318	147.040000
244.750122	146.980000
244.842926	146.700000
244.935745	147.100000
245.028549	146.500000
245.121368	145.900000
245.214172	145.980000
245.306992	146.280000
245.399796	145.780000
245.492615	146.160000
245.585434	146.100000
245.678253	145.880000
245.771072	145.840000
245.863892	146.260000
245.956711	146.520000
246.049530	146.460000
246.142349	146.300000
246.235168	146.300000
246.327988	146.960000
246.420807	146.460000
246.513626	146.600000
246.606445	146.500000
246.699280	146.640000
246.792099	145.940000
246.884918	145.920000
246.977753	145.780000
247.070587	145.820000
247.163422	145.660000
247.256241	145.480000
247.349075	145.700000
247.441895	145.680000
247.534729	145.960000
247.627563	145.800000
247.720383	146.420000
247.813217	146.400000
247.906052	146.340000
247.998886	146.460000
248.091736	146.440000
248.184570	146.220000
248.277405	146.220000
248.370239	147.000000
248.463074	147.660000
248.555908	148.000000
248.648743	147.500000
248.741592	147.560000
248.834427	146.840000
248.927261	145.760000
249.020111	146.300000
249.112946	147.200000
249.205795	146.840000
249.298630	147.180000
249.391495	147.360000
249.484344	146.960000
249.577179	146.680000
249.670029	147.060000
249.762878	147.220000
249.855728	147.380000
249.948563	146.940000
250.041412	146.360000
250.134262	146.520000
250.227112	146.700000
250.319962	146.880000
250.412827	147.240000
250.505692	147.460000
250.598541	147.200000
250.691391	146.620000
250.784241	146.300000
250.877106	146.400000
250.969955	146.040000
251.062805	146.660000
251.155670	146.940000
251.248520	146.840000
251.341385	147.040000
251.434235	147.100000
251.527100	146.480000
251.619965	146.380000
251.712814	147.100000
251.805695	146.920000
251.898560	147.100000
251.991425	147.500000
252.084290	147.400000
252.177155	146.620000
252.270020	146.160000
252.362885	146.320000
252.455750	146.140000
252.548615	146.060000
252.641479	146.200000
252.734360	146.100000
252.827240	145.760000
252.920105	145.740000
253.012970	145.740000
253.105850	146.020000
253.198715	146.140000
253.291595	146.240000
253.384460	145.920000
253.477341	145.660000
253.570221	145.440000
253.663086	145.460000
253.755966	146.160000
253.848846	146.580000
253.941727	147.240000
254.034592	147.200000
254.127472	146.660000
254.220367	146.340000
254.313248	146.280000
254.406128	145.580000
254.499008	145.760000
254.591904	146.960000
254.684784	147.160000
254.777664	147.060000
254.870544	147.200000
254.963440	147.300000
255.056335	146.980000
255.149216	146.560000
255.242111	146.900000
255.334991	147.200000
255.427887	147.100000
255.520767	147.040000
255.613663	147.400000
255.706558	146.980000
255.799438	146.920000
255.892334	146.720000
255.985229	146.880000
256.078125	146.520000
256.171021	146.620000
256.263916	147.120000
256.356812	147.500000
256.449707	147.320000
256.542603	147.040000
256.635498	147.460000
256.728394	146.940000
256.821289	146.660000
256.914215	146.960000
257.007080	147.480000
257.100006	147.060000
257.192932	147.200000
257.285828	147.320000
257.378723	146.940000
257.471619	146.680000
257.564545	146.340000
257.657440	146.560000
257.750336	146.980000
257.843262	146.620000
257.936157	147.600000
258.029053	147.900000
258.121979	147.780000
258.214874	147.140000
258.307800	147.280000
258.400696	146.340000
258.493622	146.600000
258.586517	145.880000
258.679443	146.280000
258.772339	146.100000
258.865265	145.780000
258.958160	144.960000
259.051086	145.880000
259.144012	145.820000
259.236938	146.640000
259.329834	147.240000
259.422791	147.560000
259.515717	147.060000
259.608612	146.620000
259.701538	146.640000
259.794464	146.280000
259.887390	145.940000
259.980316	145.980000
260.073212	145.880000
260.166138	144.820000
260.259064	145.180000
260.351990	145.840000
260.444916	145.840000
260.537842	146.320000
260.630768	147.060000
260.723694	146.800000
260.816620	146.780000
260.909546	146.680000
261.002472	146.320000
261.095398	145.920000
261.188354	146.280000
261.281281	146.040000
261.374207	146.400000
261.467133	147.020000
261.560089	147.320000
261.653015	146.480000
261.745972	147.160000
261.838867	147.080000
261.931824	147.120000
262.024780	146.820000
262.117706	147.380000
262.210663	147.220000
262.303589	146.960000
262.396515	146.600000
262.489471	147.280000
262.582397	147.100000
262.675354	146.380000
262.768280	146.660000
262.861237	146.660000
262.954163	146.480000
263.047119	146.660000
263.140045	146.660000
263.233002	146.360000
263.325958	146.260000
263.418884	145.600000
263.511841	145.600000
263.604797	145.700000
263.697723	145.960000
263.790680	146.120000
263.883636	146.820000
263.976593	146.560000
264.069550	146.840000
264.162476	146.460000
264.255463	146.380000
264.348419	145.900000
264.441376	146.200000
264.534332	145.760000
264.627289	145.900000
264.720245	146.180000
264.813202	145.920000
264.906158	146.020000
264.999115	146.400000
265.092072	146.440000
265.185028	146.760000
265.277985	146.920000
265.370941	146.620000
265.463898	146.520000
265.556854	146.300000
265.649811	145.340000
265.742798	145.600000
265.835754	145.880000
265.928711	146.180000
266.021667	146.220000
266.114655	146.780000
266.207611	147.200000
266.300568	146.820000
266.393585	146.300000
266.486511	146.800000
266.579498	145.940000
266.672485	145.540000
266.765442	145.520000
266.858429	146.240000
266.951385	145.520000
267.044342	145.960000
267.137329	145.840000
267.230316	145.880000
267.323273	145.480000
267.416260	146.420000
267.509216	146.040000
267.602203	146.140000
267.695160	146.640000
267.788147	146.560000
267.881134	145.740000
267.974091	146.300000
268.067078	145.860000
268.160065	145.380000
268.253052	145.460000
268.346008	145.720000
268.438995	145.360000
268.531982	145.860000
268.624969	145.640000
268.717987	146.040000
268.810944	146.140000
268.903961	146.340000
268.996948	146.100000
269.089905	146.840000
269.182892	146.440000
269.275879	146.420000
269.368866	146.000000
269.461853	146.000000
269.554871	145.520000
269.647858	145.380000
269.740845	145.980000
269.833832	146.520000
269.926819	146.340000
270.019806	146.400000
270.112793	146.080000
270.205811	145.840000
270.298798	145.640000
270.391785	146.200000
270.484772	145.880000
270.577789	146.240000
270.670776	145.560000
270.763763	145.700000
270.856750	145.880000
270.949768	145.980000
271.042786	145.860000
271.135773	146.120000
271.228790	146.340000
271.321808	145.660000
271.414795	145.360000
271.507782	145.400000
271.600800	145.040000
271.693817	145.020000
271.786804	145.640000
271.879822	146.060000
271.972809	146.080000
272.065826	146.840000
272.158844	146.340000
272.251831	146.940000
272.344849	147.080000
272.437866	146.820000
272.530853	146.600000
272.623871	147.160000
272.716888	145.980000
272.809906	145.920000
272.902893	146.060000
272.995911	145.540000
273.088928	145.260000
273.181946	145.440000
273.274963	145.340000
273.367981	145.320000
273.460999	145.800000
273.554047	146.180000
273.647003	146.880000
273.740051	146.820000
273.833069	147.300000
273.926086	147.280000
274.019135	146.740000
274.112152	146.000000
274.205170	146.460000
274.298187	146.520000
274.391205	146.220000
274.484222	146.400000
274.577240	146.500000
274.670258	146.160000
274.763306	145.620000
274.856323	145.940000
274.949341	145.980000
275.042358	146.420000
275.135406	146.060000
275.228424	146.240000
275.321442	146.120000
275.414490	145.880000
275.507507	146.040000
275.600525	146.620000
275.693573	146.500000
275.786591	146.140000
275.879669	146.280000
275.972656	145.760000
276.065735	145.560000
276.158752	146.060000
276.251801	146.840000
276.344818	147.040000
276.437866	147.120000
276.530884	146.720000
276.623932	145.840000
276.716980	145.640000
276.809998	145.700000
276.903046	145.800000
276.996094	146.880000
277.089111	147.900000
277.182159	148.300000
277.275208	147.840000
277.368256	147.460000
277.461304	146.700000
277.554321	145.940000
277.647369	145.520000
277.740417	145.720000
277.833466	145.900000
277.926514	145.940000
278.019562	146.840000
278.112610	146.440000
278.205688	146.600000
278.298706	146.580000
278.391785	146.400000
278.484833	145.760000
278.577881	145.640000
278.670929	145.700000
278.763977	146.260000
278.857025	146.780000
278.950073	146.640000
279.043121	146.660000
279.136169	146.380000
279.229248	145.600000
279.322296	145.480000
279.415344	145.400000
279.508392	145.500000
279.601440	145.680000
279.694519	145.760000
279.787567	145.320000
279.880615	145.160000
279.973694	145.180000
280.066742	145.180000
280.159790	145.360000
280.252869	145.220000
280.345917	145.580000
280.438995	145.560000
280.532074	145.420000
280.625122	145.800000
280.718201	147.000000
280.811279	147.020000
280.904327	147.240000
280.997406	147.500000
281.090454	147.480000
281.183533	146.860000
281.276581	146.820000
281.369659	146.600000
281.462738	146.620000
281.555786	146.540000
281.648865	146.340000
281.741943	146.380000
281.835022	146.880000
281.928070	146.680000
282.021149	146.740000
282.114227	146.540000
282.207306	146.420000
282.300385	146.620000
282.393433	146.940000
282.486511	146.680000
282.579590	147.540000
282.672668	147.680000
282.765747	147.180000
282.858856	146.580000
282.951904	146.500000
283.045013	146.260000
283.138062	146.400000
283.231171	146.340000
283.324249	147.300000
283.417328	147.340000
283.510406	146.700000
283.603485	146.680000
283.696564	146.940000
283.789642	146.340000
283.882751	146.320000
283.975830	147.280000
284.068909	146.700000
284.161987	147.180000
284.255066	146.780000
284.348175	146.620000
284.441254	146.220000
284.534332	146.760000
284.627441	145.800000
284.720520	145.740000
284.813599	145.780000
284.906708	145.680000
284.999786	145.300000
285.092896	145.140000
285.185974	146.180000
285.279053	145.940000
285.372192	146.280000
285.465240	146.980000
285.558380	147.400000
285.651459	146.880000
285.744568	147.900000
285.837677	147.480000
285.930756	147.220000
286.023865	147.120000
286.116943	146.880000
286.210052	146.620000
286.303162	146.600000
286.396240	146.500000
286.489349	146.100000
286.582458	146.500000
286.675568	146.280000
286.768646	146.260000
286.861755	146.040000
286.954865	147.160000
287.047974	146.400000
287.141083	146.200000
287.234161	145.680000
287.327271	145.600000
287.420380	145.560000
287.513519	145.580000
287.606598	145.620000
287.699738	146.160000
287.792816	146.520000
287.885956	146.340000
287.979034	146.640000
288.072174	146.680000
288.165283	146.400000
288.258392	146.600000
288.351501	145.900000
288.444611	146.340000
288.537720	146.780000
288.630859	146.900000
288.723969	146.620000
288.817078	147.120000
288.910187	147.000000
289.003296	146.400000
289.096436	146.060000
289.189545	145.900000
289.282654	145.280000
289.375763	145.420000
289.468903	145.540000
289.562012	146.120000
289.655121	146.140000
289.748260	146.340000
289.841400	146.580000
289.934509	146.600000
290.027649	146.600000
290.120728	146.560000
290.213898	146.960000
290.306976	146.680000
290.400146	146.640000
290.493256	146.080000
290.586395	146.480000
290.679535	146.480000
290.772644	146.040000
290.865784	145.180000
290.958893	145.180000
291.052032	144.940000
291.145172	144.880000
291.238281	144.640000
291.331421	145.300000
291.424561	145.880000
291.517670	145.700000
291.610809	145.740000
291.703949	145.860000
291.797089	146.060000
291.890228	145.600000
291.983337	145.620000
292.076477	145.500000
292.169617	145.560000
292.262756	145.440000
292.355927	145.520000
292.449036	145.360000
292.542206	145.220000
292.635315	145.840000
292.728485	146.140000
292.821625	145.960000
292.914764	147.240000
293.007904	147.360000
293.101044	147.080000
293.194183	146.860000
293.287323	147.120000
293.380463	146.200000
293.473602	146.000000
293.566742	146.140000
293.659882	146.700000
293.753021	146.900000
293.846191	146.820000
293.939331	146.640000
294.032471	146.340000
294.125610	145.860000
294.218781	146.160000
294.311920	146.820000
294.405060	147.020000
294.498230	147.300000
294.591370	147.260000
294.684540	146.300000
294.777679	145.660000
294.870850	145.940000
294.963959	145.440000
295.057159	145.440000
295.150299	146.280000
295.243469	146.280000
295.336609	145.980000
295.429779	146.300000
295.522919	146.700000
295.616089	146.620000
295.709229	147.300000
295.802399	147.580000
295.895569	147.220000
295.988708	146.920000
296.081879	146.820000
296.175018	145.720000
296.268188	145.780000
296.361359	146.340000
296.454529	146.240000
296.547668	146.120000
296.640839	146.660000
296.734009	146.000000
296.827179	145.900000
296.920319	146.080000
297.013519	145.860000
297.106659	145.660000
297.199860	146.200000
297.292999	146.120000
297.386200	145.860000
297.479309	146.020000
297.572510	146.100000
297.665680	145.840000
297.758850	146.000000
297.852020	146.000000
297.945190	145.880000
298.038361	145.800000
298.131531	146.600000
298.224701	146.080000
298.317871	146.100000
298.411072	145.600000
298.504242	145.480000
298.597412	144.900000
298.690582	145.340000
298.783752	145.080000
298.876923	145.800000
298.970093	146.020000
299.063293	146.300000
299.156464	146.380000
299.249634	146.900000
299.342834	147.020000
299.436005	147.140000
299.529205	146.900000
299.622345	147.020000
299.715576	146.180000
299.808716	145.960000
299.901917	146.060000
299.995117	146.400000
300.088287	146.500000
300.181488	146.700000
300.274658	146.620000
300.367828	146.560000
300.461029	146.200000
300.554199	146.100000
300.647400	146.300000
300.740601	146.700000
300.833771	146.540000
300.926971	146.820000
301.020142	146.320000
301.113342	146.480000
301.206512	146.160000
301.299713	146.220000
301.392914	146.100000
301.486084	146.860000
301.579285	146.740000
301.672516	147.040000
301.765686	147.180000
301.858887	146.980000
301.952057	146.440000
302.045288	146.340000
302.138458	145.800000
302.231659	145.340000
302.324860	145.460000
302.418060	145.200000
302.511261	145.300000
302.604462	146.200000
302.697662	146.100000
302.790863	145.960000
302.884064	145.960000
302.977264	146.240000
303.070465	146.000000
303.163666	146.500000
303.256866	146.640000
303.350067	146.500000
303.443268	146.260000
303.536469	146.240000
303.629669	145.780000
303.722870	145.660000
303.816071	145.520000
303.909271	145.440000
304.002472	144.520000
304.095673	144.640000
304.188934	144.220000
304.282104	145.300000
304.375336	145.560000
304.468506	146.040000
304.561768	146.000000
304.654968	146.600000
304.748169	146.020000
304.841370	145.620000
304.934601	145.680000
305.027802	145.540000
305.121002	145.400000
305.214233	145.340000
305.307434	145.420000
305.400665	146.180000
305.493866	146.100000
