Model Number: SPM-002-B   
Serial Number: 70087108
Firmware Version: 004.15.4
Exposure Time: 100000.000000us
Data Taken on: 11-12-2020 19:38:53.511
Wavelength	Amplitude
221.570786	0.000000
221.663406	0.000000
221.756027	0.000000
221.848648	0.000000
221.941269	0.000000
222.033905	0.000000
222.126526	0.000000
222.219162	0.000000
222.311798	0.000000
222.404419	0.000000
222.497055	0.000000
222.589676	0.000000
222.682312	0.000000
222.774933	0.000000
222.867569	0.000000
222.960205	0.000000
223.052841	0.000000
223.145462	0.000000
223.238098	0.000000
223.330734	0.000000
223.423386	0.000000
223.516022	0.000000
223.608658	0.000000
223.701309	0.000000
223.793945	0.000000
223.886581	0.000000
223.979218	0.000000
224.071869	0.000000
224.164505	0.000000
224.257156	0.000000
224.349792	0.000000
224.442444	0.000000
224.535095	0.000000
224.627747	0.000000
224.720398	0.000000
224.813034	0.000000
224.905685	0.000000
224.998337	146.380000
225.090988	146.100000
225.183640	145.940000
225.276291	145.920000
225.368942	146.480000
225.461594	146.940000
225.554245	146.880000
225.646912	147.040000
225.739578	147.460000
225.832230	147.560000
225.924896	146.660000
226.017548	147.140000
226.110199	147.580000
226.202866	146.940000
226.295532	146.720000
226.388184	146.860000
226.480850	146.340000
226.573517	145.480000
226.666168	145.720000
226.758835	146.000000
226.851501	146.380000
226.944183	146.620000
227.036850	146.500000
227.129517	146.600000
227.222183	146.480000
227.314850	146.360000
227.407516	146.740000
227.500198	147.560000
227.592865	147.380000
227.685532	147.120000
227.778214	146.920000
227.870880	146.840000
227.963562	146.880000
228.056229	147.080000
228.148926	146.900000
228.241592	147.680000
228.334274	147.340000
228.426956	147.080000
228.519638	146.920000
228.612305	146.760000
228.704987	146.600000
228.797668	146.860000
228.890350	146.540000
228.983032	146.020000
229.075714	146.760000
229.168396	146.280000
229.261108	145.700000
229.353790	145.880000
229.446472	146.080000
229.539169	145.880000
229.631851	145.580000
229.724533	145.760000
229.817230	146.040000
229.909912	147.480000
230.002609	147.420000
230.095306	147.880000
230.187988	148.160000
230.280685	147.840000
230.373383	146.220000
230.466095	146.240000
230.558792	146.320000
230.651474	146.200000
230.744171	146.140000
230.836868	146.460000
230.929581	146.340000
231.022278	146.180000
231.114975	146.100000
231.207672	145.860000
231.300369	146.400000
231.393082	146.680000
231.485779	146.300000
231.578506	146.380000
231.671204	146.800000
231.763916	146.520000
231.856613	146.280000
231.949326	146.820000
232.042023	146.580000
232.134735	146.220000
232.227448	145.920000
232.320160	146.160000
232.412872	146.080000
232.505585	146.720000
232.598297	147.200000
232.691010	146.900000
232.783722	146.580000
232.876450	146.920000
232.969162	146.620000
233.061874	145.940000
233.154587	146.180000
233.247314	146.100000
233.340027	145.580000
233.432739	145.920000
233.525467	146.160000
233.618179	146.540000
233.710907	146.500000
233.803635	147.220000
233.896347	146.920000
233.989090	147.860000
234.081818	147.600000
234.174545	147.860000
234.267258	147.000000
234.359985	147.180000
234.452713	146.740000
234.545441	146.580000
234.638168	146.540000
234.730896	147.080000
234.823639	146.800000
234.916367	147.260000
235.009094	147.360000
235.101822	147.460000
235.194580	147.440000
235.287308	147.520000
235.380051	146.700000
235.472778	147.180000
235.565521	147.300000
235.658249	146.700000
235.750992	147.000000
235.843719	147.000000
235.936462	146.940000
236.029205	146.480000
236.121948	146.560000
236.214691	146.780000
236.307449	147.540000
236.400192	147.120000
236.492935	147.220000
236.585678	147.560000
236.678421	147.440000
236.771164	146.600000
236.863907	147.100000
236.956665	147.120000
237.049408	148.360000
237.142151	147.740000
237.234909	148.860000
237.327652	148.700000
237.420410	148.540000
237.513153	147.420000
237.605927	147.380000
237.698669	146.380000
237.791428	145.900000
237.884186	146.700000
237.976944	146.300000
238.069702	146.620000
238.162445	146.500000
238.255203	146.660000
238.347961	146.340000
238.440720	146.580000
238.533478	146.400000
238.626266	146.340000
238.719025	146.580000
238.811783	146.560000
238.904541	146.180000
238.997314	146.020000
239.090073	145.760000
239.182831	145.980000
239.275604	146.760000
239.368362	146.660000
239.461136	147.060000
239.553909	147.320000
239.646667	147.020000
239.739441	146.340000
239.832214	146.580000
239.925003	146.620000
240.017761	147.220000
240.110535	147.580000
240.203308	147.020000
240.296082	147.320000
240.388855	147.160000
240.481628	147.020000
240.574417	146.940000
240.667191	147.160000
240.759964	146.740000
240.852737	146.840000
240.945526	146.600000
241.038315	146.080000
241.131088	146.180000
241.223877	146.700000
241.316650	146.100000
241.409439	146.500000
241.502228	146.360000
241.595001	146.820000
241.687790	146.440000
241.780579	146.820000
241.873367	147.020000
241.966141	147.540000
242.058929	146.840000
242.151718	146.900000
242.244507	147.380000
242.337311	146.400000
242.430099	146.600000
242.522903	147.200000
242.615692	146.900000
242.708481	146.740000
242.801270	147.340000
242.894073	147.060000
242.986862	146.480000
243.079651	147.520000
243.172455	147.320000
243.265244	147.180000
243.358063	146.820000
243.450867	147.560000
243.543655	147.000000
243.636459	147.140000
243.729263	147.540000
243.822067	148.020000
243.914856	148.200000
244.007660	148.300000
244.100464	148.200000
244.193268	147.380000
244.286072	147.200000
244.378876	146.180000
244.471680	146.060000
244.564499	146.320000
244.657318	147.280000
244.750122	147.400000
244.842926	147.040000
244.935745	147.160000
245.028549	146.400000
245.121368	145.980000
245.214172	145.960000
245.306992	146.720000
245.399796	146.280000
245.492615	146.840000
245.585434	146.860000
245.678253	146.680000
245.771072	146.440000
245.863892	146.920000
245.956711	146.960000
246.049530	146.420000
246.142349	146.280000
246.235168	146.200000
246.327988	146.240000
246.420807	145.800000
246.513626	146.080000
246.606445	146.100000
246.699280	146.320000
246.792099	146.260000
246.884918	145.960000
246.977753	145.720000
247.070587	145.860000
247.163422	145.600000
247.256241	145.620000
247.349075	146.280000
247.441895	146.600000
247.534729	146.560000
247.627563	146.760000
247.720383	147.100000
247.813217	147.040000
247.906052	146.700000
247.998886	147.020000
248.091736	146.840000
248.184570	146.480000
248.277405	146.340000
248.370239	147.320000
248.463074	148.000000
248.555908	148.500000
248.648743	148.360000
248.741592	148.640000
248.834427	147.960000
248.927261	146.680000
249.020111	146.860000
249.112946	147.420000
249.205795	147.200000
249.298630	147.440000
249.391495	147.760000
249.484344	147.320000
249.577179	147.000000
249.670029	147.200000
249.762878	147.640000
249.855728	147.780000
249.948563	147.820000
250.041412	147.340000
250.134262	147.700000
250.227112	147.400000
250.319962	147.300000
250.412827	146.900000
250.505692	146.820000
250.598541	146.340000
250.691391	145.880000
250.784241	146.180000
250.877106	146.660000
250.969955	146.680000
251.062805	146.920000
251.155670	147.560000
251.248520	147.080000
251.341385	147.280000
251.434235	147.300000
251.527100	147.080000
251.619965	146.500000
251.712814	147.460000
251.805695	147.420000
251.898560	147.540000
251.991425	147.900000
252.084290	148.220000
252.177155	147.040000
252.270020	146.660000
252.362885	146.680000
252.455750	146.360000
252.548615	145.900000
252.641479	146.360000
252.734360	146.340000
252.827240	146.020000
252.920105	146.180000
253.012970	146.240000
253.105850	146.020000
253.198715	145.700000
253.291595	146.100000
253.384460	145.660000
253.477341	145.680000
253.570221	145.940000
253.663086	146.080000
253.755966	146.820000
253.848846	147.140000
253.941727	147.300000
254.034592	147.020000
254.127472	146.620000
254.220367	146.100000
254.313248	146.160000
254.406128	145.700000
254.499008	146.140000
254.591904	147.200000
254.684784	147.600000
254.777664	147.660000
254.870544	147.620000
254.963440	147.400000
255.056335	147.340000
255.149216	146.980000
255.242111	147.240000
255.334991	147.880000
255.427887	147.960000
255.520767	147.860000
255.613663	147.960000
255.706558	146.920000
255.799438	146.300000
255.892334	145.960000
255.985229	145.600000
256.078125	145.640000
256.171021	146.100000
256.263916	146.780000
256.356812	147.220000
256.449707	147.640000
256.542603	146.960000
256.635498	147.460000
256.728394	147.300000
256.821289	146.920000
256.914215	146.840000
257.007080	147.420000
257.100006	147.220000
257.192932	147.440000
257.285828	147.760000
257.378723	147.380000
257.471619	147.140000
257.564545	146.640000
257.657440	146.660000
257.750336	146.880000
257.843262	146.960000
257.936157	148.280000
258.029053	148.720000
258.121979	148.580000
258.214874	148.160000
258.307800	148.100000
258.400696	146.600000
258.493622	146.500000
258.586517	145.960000
258.679443	146.080000
258.772339	145.860000
258.865265	145.700000
258.958160	145.180000
259.051086	145.980000
259.144012	145.840000
259.236938	146.680000
259.329834	146.700000
259.422791	146.960000
259.515717	146.300000
259.608612	146.300000
259.701538	145.940000
259.794464	146.180000
259.887390	146.080000
259.980316	145.920000
260.073212	145.500000
260.166138	144.500000
260.259064	144.860000
260.351990	145.560000
260.444916	145.600000
260.537842	146.200000
260.630768	147.420000
260.723694	147.320000
260.816620	147.060000
260.909546	147.300000
261.002472	146.920000
261.095398	146.460000
261.188354	146.520000
261.281281	146.140000
261.374207	146.280000
261.467133	147.120000
261.560089	147.380000
261.653015	146.920000
261.745972	147.740000
261.838867	148.020000
261.931824	147.920000
262.024780	147.160000
262.117706	147.620000
262.210663	147.480000
262.303589	147.380000
262.396515	147.000000
262.489471	148.360000
262.582397	148.120000
262.675354	147.520000
262.768280	147.220000
262.861237	147.320000
262.954163	146.780000
263.047119	146.780000
263.140045	146.520000
263.233002	146.760000
263.325958	146.760000
263.418884	146.080000
263.511841	146.360000
263.604797	146.600000
263.697723	146.400000
263.790680	146.200000
263.883636	147.080000
263.976593	146.660000
264.069550	146.900000
264.162476	146.840000
264.255463	147.020000
264.348419	146.480000
264.441376	146.900000
264.534332	146.600000
264.627289	146.580000
264.720245	146.980000
264.813202	146.900000
264.906158	147.080000
264.999115	147.440000
265.092072	147.640000
265.185028	147.720000
265.277985	148.120000
265.370941	147.880000
265.463898	147.400000
265.556854	146.740000
265.649811	145.700000
265.742798	145.360000
265.835754	145.240000
265.928711	145.940000
266.021667	146.520000
266.114655	147.100000
266.207611	147.740000
266.300568	147.220000
266.393585	146.560000
266.486511	146.820000
266.579498	146.060000
266.672485	145.720000
266.765442	146.120000
266.858429	146.780000
266.951385	146.380000
267.044342	146.840000
267.137329	146.640000
267.230316	146.740000
267.323273	146.240000
267.416260	146.980000
267.509216	146.960000
267.602203	146.960000
267.695160	147.340000
267.788147	147.440000
267.881134	146.880000
267.974091	147.060000
268.067078	146.800000
268.160065	146.640000
268.253052	146.540000
268.346008	146.420000
268.438995	146.020000
268.531982	146.600000
268.624969	146.160000
268.717987	146.240000
268.810944	146.260000
268.903961	146.940000
268.996948	146.300000
269.089905	146.780000
269.182892	146.900000
269.275879	147.100000
269.368866	146.240000
269.461853	146.720000
269.554871	146.300000
269.647858	146.280000
269.740845	146.340000
269.833832	146.580000
269.926819	146.000000
270.019806	146.380000
270.112793	146.240000
270.205811	146.420000
270.298798	146.440000
270.391785	147.320000
270.484772	147.180000
270.577789	147.180000
270.670776	146.600000
270.763763	146.680000
270.856750	146.200000
270.949768	146.040000
271.042786	146.040000
271.135773	146.060000
271.228790	146.380000
271.321808	146.280000
271.414795	145.980000
271.507782	145.640000
271.600800	145.480000
271.693817	145.500000
271.786804	146.060000
271.879822	146.400000
271.972809	146.640000
272.065826	147.380000
272.158844	146.720000
272.251831	146.900000
272.344849	146.920000
272.437866	146.520000
272.530853	146.340000
272.623871	146.680000
272.716888	145.800000
272.809906	145.900000
272.902893	146.420000
272.995911	145.940000
273.088928	145.940000
273.181946	146.260000
273.274963	145.900000
273.367981	145.780000
273.460999	146.240000
273.554047	146.620000
273.647003	147.080000
273.740051	147.420000
273.833069	147.980000
273.926086	147.860000
274.019135	147.540000
274.112152	147.060000
274.205170	146.960000
274.298187	147.020000
274.391205	146.420000
274.484222	146.580000
274.577240	146.860000
274.670258	146.640000
274.763306	146.000000
274.856323	146.680000
274.949341	146.620000
275.042358	146.800000
275.135406	146.860000
275.228424	147.240000
275.321442	147.180000
275.414490	147.020000
275.507507	147.300000
275.600525	147.660000
275.693573	147.240000
275.786591	146.760000
275.879669	146.940000
275.972656	145.980000
276.065735	145.640000
276.158752	146.240000
276.251801	147.260000
276.344818	147.420000
276.437866	147.940000
276.530884	147.840000
276.623932	147.080000
276.716980	146.800000
276.809998	146.540000
276.903046	146.560000
276.996094	147.420000
277.089111	148.020000
277.182159	148.340000
277.275208	148.400000
277.368256	148.240000
277.461304	147.960000
277.554321	147.340000
277.647369	146.920000
277.740417	146.680000
277.833466	146.820000
277.926514	146.540000
278.019562	147.420000
278.112610	146.960000
278.205688	147.400000
278.298706	147.140000
278.391785	146.840000
278.484833	146.020000
278.577881	146.220000
278.670929	146.340000
278.763977	146.520000
278.857025	146.900000
278.950073	146.980000
279.043121	146.800000
279.136169	146.360000
279.229248	146.080000
279.322296	146.020000
279.415344	146.000000
279.508392	145.860000
279.601440	145.840000
279.694519	145.880000
279.787567	145.760000
279.880615	145.800000
279.973694	145.940000
280.066742	145.960000
280.159790	146.080000
280.252869	145.660000
280.345917	145.680000
280.438995	145.760000
280.532074	145.600000
280.625122	145.860000
280.718201	147.020000
280.811279	147.060000
280.904327	146.920000
280.997406	147.320000
281.090454	147.200000
281.183533	146.460000
281.276581	146.520000
281.369659	146.300000
281.462738	146.180000
281.555786	146.120000
281.648865	146.180000
281.741943	145.980000
281.835022	146.520000
281.928070	146.340000
282.021149	146.360000
282.114227	146.340000
282.207306	146.420000
282.300385	146.640000
282.393433	146.880000
282.486511	146.820000
282.579590	147.260000
282.672668	147.620000
282.765747	147.180000
282.858856	146.900000
282.951904	147.140000
283.045013	147.120000
283.138062	147.120000
283.231171	147.480000
283.324249	147.720000
283.417328	147.580000
283.510406	147.120000
283.603485	146.880000
283.696564	146.580000
283.789642	146.820000
283.882751	146.460000
283.975830	147.080000
284.068909	147.060000
284.161987	147.720000
284.255066	147.080000
284.348175	147.440000
284.441254	147.240000
284.534332	147.640000
284.627441	147.080000
284.720520	147.000000
284.813599	147.040000
284.906708	146.800000
284.999786	146.060000
285.092896	145.740000
285.185974	146.860000
285.279053	146.220000
285.372192	146.320000
285.465240	147.260000
285.558380	147.300000
285.651459	146.900000
285.744568	147.840000
285.837677	147.380000
285.930756	146.760000
286.023865	146.780000
286.116943	146.360000
286.210052	146.320000
286.303162	146.480000
286.396240	146.560000
286.489349	146.640000
286.582458	146.980000
286.675568	146.480000
286.768646	146.560000
286.861755	146.940000
286.954865	148.020000
287.047974	147.300000
287.141083	147.460000
287.234161	147.040000
287.327271	146.860000
287.420380	146.460000
287.513519	146.720000
287.606598	146.440000
287.699738	146.780000
287.792816	146.320000
287.885956	145.720000
287.979034	145.720000
288.072174	145.960000
288.165283	145.900000
288.258392	146.340000
288.351501	146.280000
288.444611	146.500000
288.537720	146.860000
288.630859	147.000000
288.723969	147.040000
288.817078	147.540000
288.910187	147.420000
289.003296	146.800000
289.096436	146.600000
289.189545	146.640000
289.282654	145.980000
289.375763	146.300000
289.468903	146.760000
289.562012	147.060000
289.655121	146.940000
289.748260	147.340000
289.841400	147.540000
289.934509	147.440000
290.027649	147.320000
290.120728	147.180000
290.213898	147.140000
290.306976	146.840000
290.400146	146.760000
290.493256	146.260000
290.586395	146.440000
290.679535	146.900000
290.772644	146.700000
290.865784	146.220000
290.958893	146.300000
291.052032	146.080000
291.145172	145.380000
291.238281	145.440000
291.331421	145.780000
291.424561	146.140000
291.517670	145.880000
291.610809	146.520000
291.703949	146.380000
291.797089	146.560000
291.890228	146.400000
291.983337	146.500000
292.076477	146.180000
292.169617	146.720000
292.262756	146.880000
292.355927	147.060000
292.449036	146.980000
292.542206	147.080000
292.635315	146.940000
292.728485	146.900000
292.821625	146.380000
292.914764	147.460000
293.007904	147.120000
293.101044	146.920000
293.194183	146.760000
293.287323	147.380000
293.380463	146.860000
293.473602	146.700000
293.566742	146.900000
293.659882	147.400000
293.753021	147.420000
293.846191	147.080000
293.939331	146.980000
294.032471	146.820000
294.125610	146.340000
294.218781	146.440000
294.311920	146.740000
294.405060	147.060000
294.498230	147.260000
294.591370	147.220000
294.684540	146.860000
294.777679	146.440000
294.870850	146.760000
294.963959	146.340000
295.057159	146.080000
295.150299	146.220000
295.243469	146.280000
295.336609	145.720000
295.429779	146.060000
295.522919	146.740000
295.616089	146.660000
295.709229	147.140000
295.802399	147.340000
295.895569	146.740000
295.988708	146.220000
296.081879	146.420000
296.175018	145.920000
296.268188	146.040000
296.361359	146.680000
296.454529	146.940000
296.547668	146.540000
296.640839	146.820000
296.734009	146.620000
296.827179	146.800000
296.920319	147.020000
297.013519	147.160000
297.106659	147.120000
297.199860	147.320000
297.292999	146.920000
297.386200	146.420000
297.479309	146.600000
297.572510	146.820000
297.665680	146.400000
297.758850	146.660000
297.852020	146.680000
297.945190	146.540000
298.038361	146.100000
298.131531	147.340000
298.224701	146.980000
298.317871	146.780000
298.411072	146.120000
298.504242	146.000000
298.597412	145.200000
298.690582	145.520000
298.783752	145.700000
298.876923	146.420000
298.970093	146.540000
299.063293	147.020000
299.156464	147.300000
299.249634	147.320000
299.342834	147.400000
299.436005	147.860000
299.529205	147.560000
299.622345	147.520000
299.715576	147.120000
299.808716	146.820000
299.901917	146.580000
299.995117	146.540000
300.088287	146.440000
300.181488	146.440000
300.274658	146.660000
300.367828	146.760000
300.461029	146.500000
300.554199	146.780000
300.647400	147.140000
300.740601	147.480000
300.833771	147.420000
300.926971	147.900000
301.020142	147.280000
301.113342	147.080000
301.206512	147.060000
301.299713	147.100000
301.392914	147.120000
301.486084	147.340000
301.579285	147.260000
301.672516	147.340000
301.765686	147.040000
301.858887	146.580000
301.952057	146.440000
302.045288	146.720000
302.138458	146.340000
302.231659	146.120000
302.324860	146.040000
302.418060	145.940000
302.511261	145.520000
302.604462	145.720000
302.697662	146.020000
302.790863	146.000000
302.884064	145.660000
302.977264	146.080000
303.070465	146.360000
303.163666	147.080000
303.256866	147.600000
303.350067	147.980000
303.443268	147.920000
303.536469	147.860000
303.629669	147.140000
303.722870	146.800000
303.816071	146.760000
303.909271	146.880000
304.002472	146.240000
304.095673	145.860000
304.188934	145.200000
304.282104	146.000000
304.375336	146.060000
304.468506	146.060000
304.561768	146.400000
304.654968	147.420000
304.748169	146.620000
304.841370	146.300000
304.934601	146.460000
305.027802	146.040000
305.121002	145.260000
305.214233	145.260000
305.307434	145.280000
305.400665	145.840000
305.493866	146.160000
