Model Number: SPM-002-B   
Serial Number: 70087108
Firmware Version: 004.15.4
Exposure Time: 100000.000000us
Data Taken on: 11-12-2020 19:39:04.779
Wavelength	Amplitude
221.570786	0.000000
221.663406	0.000000
221.756027	0.000000
221.848648	0.000000
221.941269	0.000000
222.033905	0.000000
222.126526	0.000000
222.219162	0.000000
222.311798	0.000000
222.404419	0.000000
222.497055	0.000000
222.589676	0.000000
222.682312	0.000000
222.774933	0.000000
222.867569	0.000000
222.960205	0.000000
223.052841	0.000000
223.145462	0.000000
223.238098	0.000000
223.330734	0.000000
223.423386	0.000000
223.516022	0.000000
223.608658	0.000000
223.701309	0.000000
223.793945	0.000000
223.886581	0.000000
223.979218	0.000000
224.071869	0.000000
224.164505	0.000000
224.257156	0.000000
224.349792	0.000000
224.442444	0.000000
224.535095	0.000000
224.627747	0.000000
224.720398	0.000000
224.813034	0.000000
224.905685	0.000000
224.998337	146.000000
225.090988	145.820000
225.183640	145.520000
225.276291	145.380000
225.368942	145.900000
225.461594	146.220000
225.554245	146.160000
225.646912	146.180000
225.739578	146.940000
225.832230	146.780000
225.924896	146.380000
226.017548	146.840000
226.110199	147.220000
226.202866	146.060000
226.295532	146.100000
226.388184	145.960000
226.480850	145.560000
226.573517	145.280000
226.666168	145.680000
226.758835	145.980000
226.851501	146.900000
226.944183	147.000000
227.036850	146.740000
227.129517	146.860000
227.222183	146.740000
227.314850	146.100000
227.407516	146.440000
227.500198	146.960000
227.592865	146.580000
227.685532	146.120000
227.778214	146.000000
227.870880	146.200000
227.963562	146.520000
228.056229	147.340000
228.148926	147.720000
228.241592	148.700000
228.334274	147.820000
228.426956	147.480000
228.519638	146.980000
228.612305	146.780000
228.704987	146.340000
228.797668	146.860000
228.890350	146.640000
228.983032	146.280000
229.075714	146.660000
229.168396	146.360000
229.261108	145.900000
229.353790	145.760000
229.446472	146.040000
229.539169	145.980000
229.631851	145.680000
229.724533	146.340000
229.817230	146.860000
229.909912	147.720000
230.002609	147.880000
230.095306	148.100000
230.187988	147.760000
230.280685	147.540000
230.373383	146.480000
230.466095	145.960000
230.558792	146.120000
230.651474	146.220000
230.744171	146.060000
230.836868	146.040000
230.929581	146.460000
231.022278	146.740000
231.114975	146.400000
231.207672	146.280000
231.300369	146.780000
231.393082	146.960000
231.485779	146.240000
231.578506	146.300000
231.671204	146.480000
231.763916	146.560000
231.856613	146.120000
231.949326	146.580000
232.042023	146.900000
232.134735	146.760000
232.227448	146.280000
232.320160	146.740000
232.412872	146.580000
232.505585	147.260000
232.598297	147.680000
232.691010	147.760000
232.783722	147.160000
232.876450	147.760000
232.969162	146.920000
233.061874	146.260000
233.154587	146.140000
233.247314	146.600000
233.340027	145.880000
233.432739	146.260000
233.525467	146.520000
233.618179	146.800000
233.710907	146.360000
233.803635	146.660000
233.896347	146.620000
233.989090	147.360000
234.081818	147.440000
234.174545	147.780000
234.267258	147.420000
234.359985	147.280000
234.452713	146.980000
234.545441	146.840000
234.638168	146.740000
234.730896	147.500000
234.823639	147.440000
234.916367	147.700000
235.009094	147.640000
235.101822	147.400000
235.194580	147.260000
235.287308	146.980000
235.380051	146.320000
235.472778	146.820000
235.565521	146.900000
235.658249	146.360000
235.750992	146.620000
235.843719	146.620000
235.936462	146.480000
236.029205	146.220000
236.121948	146.100000
236.214691	146.320000
236.307449	146.940000
236.400192	146.620000
236.492935	146.660000
236.585678	146.980000
236.678421	146.900000
236.771164	146.660000
236.863907	146.900000
236.956665	147.220000
237.049408	148.540000
237.142151	147.940000
237.234909	148.500000
237.327652	148.680000
237.420410	148.480000
237.513153	147.640000
237.605927	147.880000
237.698669	146.980000
237.791428	146.300000
237.884186	146.820000
237.976944	146.120000
238.069702	146.420000
238.162445	146.060000
238.255203	146.300000
238.347961	146.380000
238.440720	146.600000
238.533478	146.160000
238.626266	146.280000
238.719025	146.700000
238.811783	146.360000
238.904541	146.220000
238.997314	146.560000
239.090073	146.640000
239.182831	146.680000
239.275604	147.420000
239.368362	147.520000
239.461136	147.640000
239.553909	147.600000
239.646667	147.420000
239.739441	146.800000
239.832214	146.800000
239.925003	146.580000
240.017761	147.340000
240.110535	147.960000
240.203308	147.700000
240.296082	147.680000
240.388855	147.720000
240.481628	147.500000
240.574417	147.160000
240.667191	147.420000
240.759964	147.240000
240.852737	147.160000
240.945526	146.780000
241.038315	146.140000
241.131088	145.980000
241.223877	146.340000
241.316650	145.940000
241.409439	146.460000
241.502228	146.220000
241.595001	146.580000
241.687790	146.520000
241.780579	147.180000
241.873367	146.780000
241.966141	147.360000
242.058929	146.740000
242.151718	146.660000
242.244507	146.760000
242.337311	146.160000
242.430099	146.280000
242.522903	146.700000
242.615692	146.600000
242.708481	146.360000
242.801270	147.300000
242.894073	147.320000
242.986862	147.280000
243.079651	147.660000
243.172455	147.500000
243.265244	147.320000
243.358063	146.940000
243.450867	147.280000
243.543655	146.940000
243.636459	147.120000
243.729263	147.300000
243.822067	147.740000
243.914856	147.940000
244.007660	148.200000
244.100464	147.980000
244.193268	147.400000
244.286072	147.180000
244.378876	146.460000
244.471680	146.240000
244.564499	146.600000
244.657318	147.660000
244.750122	147.620000
244.842926	147.520000
244.935745	147.680000
245.028549	147.120000
245.121368	146.320000
245.214172	146.400000
245.306992	146.900000
245.399796	146.820000
245.492615	147.100000
245.585434	147.120000
245.678253	147.020000
245.771072	146.640000
245.863892	146.920000
245.956711	147.240000
246.049530	146.920000
246.142349	146.700000
246.235168	146.880000
246.327988	147.120000
246.420807	146.880000
246.513626	147.380000
246.606445	147.200000
246.699280	147.180000
246.792099	146.720000
246.884918	146.420000
246.977753	146.140000
247.070587	146.660000
247.163422	146.420000
247.256241	146.500000
247.349075	147.060000
247.441895	146.980000
247.534729	146.820000
247.627563	146.740000
247.720383	147.280000
247.813217	147.100000
247.906052	146.960000
247.998886	147.040000
248.091736	147.220000
248.184570	146.740000
248.277405	146.540000
248.370239	147.360000
248.463074	148.120000
248.555908	148.500000
248.648743	148.360000
248.741592	148.840000
248.834427	148.000000
248.927261	146.800000
249.020111	147.140000
249.112946	147.840000
249.205795	147.420000
249.298630	147.800000
249.391495	148.100000
249.484344	147.220000
249.577179	146.860000
249.670029	147.240000
249.762878	147.600000
249.855728	147.920000
249.948563	148.220000
250.041412	147.800000
250.134262	147.860000
250.227112	147.800000
250.319962	147.500000
250.412827	147.400000
250.505692	146.980000
250.598541	146.560000
250.691391	146.100000
250.784241	146.100000
250.877106	146.080000
250.969955	146.120000
251.062805	146.820000
251.155670	147.380000
251.248520	147.120000
251.341385	147.240000
251.434235	147.300000
251.527100	146.700000
251.619965	146.080000
251.712814	146.880000
251.805695	147.440000
251.898560	147.800000
251.991425	148.260000
252.084290	148.460000
252.177155	147.740000
252.270020	146.860000
252.362885	146.680000
252.455750	146.320000
252.548615	146.160000
252.641479	146.340000
252.734360	146.540000
252.827240	146.560000
252.920105	146.680000
253.012970	146.520000
253.105850	146.200000
253.198715	146.100000
253.291595	146.420000
253.384460	146.060000
253.477341	146.300000
253.570221	146.780000
253.663086	146.280000
253.755966	146.880000
253.848846	146.700000
253.941727	147.020000
254.034592	146.880000
254.127472	146.940000
254.220367	146.620000
254.313248	147.020000
254.406128	146.420000
254.499008	146.680000
254.591904	147.700000
254.684784	147.700000
254.777664	147.720000
254.870544	147.660000
254.963440	147.620000
255.056335	147.480000
255.149216	147.340000
255.242111	147.540000
255.334991	148.120000
255.427887	147.940000
255.520767	147.940000
255.613663	147.820000
255.706558	147.180000
255.799438	146.920000
255.892334	146.900000
255.985229	146.680000
256.078125	146.360000
256.171021	146.920000
256.263916	147.260000
256.356812	147.280000
256.449707	147.380000
256.542603	147.340000
256.635498	147.640000
256.728394	147.200000
256.821289	147.080000
256.914215	146.980000
257.007080	147.360000
257.100006	147.160000
257.192932	147.640000
257.285828	147.660000
257.378723	147.700000
257.471619	147.340000
257.564545	146.860000
257.657440	146.800000
257.750336	147.360000
257.843262	147.080000
257.936157	148.120000
258.029053	148.560000
258.121979	148.460000
258.214874	147.720000
258.307800	147.600000
258.400696	146.680000
258.493622	146.420000
258.586517	145.640000
258.679443	146.000000
258.772339	145.940000
258.865265	145.740000
258.958160	145.400000
259.051086	146.380000
259.144012	146.340000
259.236938	147.080000
259.329834	147.220000
259.422791	147.120000
259.515717	146.520000
259.608612	146.160000
259.701538	146.080000
259.794464	145.900000
259.887390	146.060000
259.980316	146.080000
260.073212	145.860000
260.166138	144.820000
260.259064	145.480000
260.351990	145.920000
260.444916	145.960000
260.537842	146.840000
260.630768	147.500000
260.723694	147.400000
260.816620	147.260000
260.909546	147.240000
261.002472	146.720000
261.095398	146.280000
261.188354	146.020000
261.281281	145.740000
261.374207	145.840000
261.467133	146.440000
261.560089	146.900000
261.653015	146.800000
261.745972	147.280000
261.838867	147.680000
261.931824	147.660000
262.024780	147.060000
262.117706	147.480000
262.210663	147.540000
262.303589	147.080000
262.396515	147.040000
262.489471	148.360000
262.582397	147.960000
262.675354	147.380000
262.768280	147.420000
262.861237	147.320000
262.954163	146.720000
263.047119	147.000000
263.140045	146.920000
263.233002	146.880000
263.325958	146.740000
263.418884	146.360000
263.511841	146.240000
263.604797	146.200000
263.697723	146.300000
263.790680	146.380000
263.883636	146.860000
263.976593	146.660000
264.069550	147.440000
264.162476	147.000000
264.255463	146.900000
264.348419	146.720000
264.441376	146.800000
264.534332	145.900000
264.627289	146.160000
264.720245	146.540000
264.813202	146.260000
264.906158	146.440000
264.999115	147.120000
265.092072	147.500000
265.185028	147.740000
265.277985	147.940000
265.370941	147.580000
265.463898	147.360000
265.556854	146.880000
265.649811	145.780000
265.742798	145.800000
265.835754	146.140000
265.928711	146.600000
266.021667	147.000000
266.114655	147.480000
266.207611	147.760000
266.300568	147.200000
266.393585	146.620000
266.486511	146.400000
266.579498	145.860000
266.672485	145.520000
266.765442	145.640000
266.858429	146.240000
266.951385	146.220000
267.044342	146.460000
267.137329	146.440000
267.230316	146.880000
267.323273	146.320000
267.416260	147.160000
267.509216	147.180000
267.602203	147.300000
267.695160	147.860000
267.788147	147.920000
267.881134	147.000000
267.974091	147.000000
268.067078	146.560000
268.160065	145.920000
268.253052	145.900000
268.346008	146.240000
268.438995	146.240000
268.531982	146.840000
268.624969	146.540000
268.717987	146.700000
268.810944	146.180000
268.903961	146.280000
268.996948	145.640000
269.089905	146.200000
269.182892	146.400000
269.275879	146.940000
269.368866	146.780000
269.461853	147.160000
269.554871	146.960000
269.647858	146.640000
269.740845	146.680000
269.833832	146.860000
269.926819	146.480000
270.019806	146.440000
270.112793	146.020000
270.205811	146.320000
270.298798	145.840000
270.391785	146.600000
270.484772	146.280000
270.577789	146.720000
270.670776	146.220000
270.763763	146.560000
270.856750	146.360000
270.949768	146.340000
271.042786	146.200000
271.135773	146.080000
271.228790	146.460000
271.321808	145.920000
271.414795	145.720000
271.507782	145.460000
271.600800	145.540000
271.693817	145.460000
271.786804	146.160000
271.879822	146.740000
271.972809	146.980000
272.065826	147.220000
272.158844	146.680000
272.251831	147.040000
272.344849	146.640000
272.437866	146.180000
272.530853	146.320000
272.623871	146.780000
272.716888	145.620000
272.809906	146.000000
272.902893	146.260000
272.995911	145.500000
273.088928	145.300000
273.181946	145.840000
273.274963	145.400000
273.367981	145.200000
273.460999	145.600000
273.554047	146.120000
273.647003	146.520000
273.740051	146.520000
273.833069	147.240000
273.926086	147.280000
274.019135	146.940000
274.112152	146.640000
274.205170	146.940000
274.298187	146.640000
274.391205	146.420000
274.484222	146.660000
274.577240	146.580000
274.670258	146.580000
274.763306	146.580000
274.856323	146.860000
274.949341	146.600000
275.042358	146.940000
275.135406	146.760000
275.228424	146.700000
275.321442	146.540000
275.414490	146.240000
275.507507	146.340000
275.600525	146.900000
275.693573	146.960000
275.786591	146.900000
275.879669	147.160000
275.972656	146.800000
276.065735	146.320000
276.158752	146.820000
276.251801	147.240000
276.344818	147.260000
276.437866	147.220000
276.530884	147.380000
276.623932	146.760000
276.716980	147.020000
276.809998	147.060000
276.903046	147.480000
276.996094	148.140000
277.089111	148.880000
277.182159	149.240000
277.275208	148.860000
277.368256	148.560000
277.461304	148.140000
277.554321	147.320000
277.647369	146.720000
277.740417	146.940000
277.833466	146.740000
277.926514	146.380000
278.019562	147.040000
278.112610	146.440000
278.205688	146.740000
278.298706	147.060000
278.391785	146.860000
278.484833	146.480000
278.577881	146.600000
278.670929	146.840000
278.763977	146.640000
278.857025	147.300000
278.950073	147.140000
279.043121	147.180000
279.136169	146.940000
279.229248	146.580000
279.322296	146.340000
279.415344	146.260000
279.508392	146.060000
279.601440	145.820000
279.694519	145.960000
279.787567	145.780000
279.880615	145.640000
279.973694	145.880000
280.066742	145.940000
280.159790	146.280000
280.252869	146.320000
280.345917	146.700000
280.438995	146.620000
280.532074	146.680000
280.625122	146.840000
280.718201	147.320000
280.811279	147.460000
280.904327	147.640000
280.997406	147.820000
281.090454	147.820000
281.183533	147.140000
281.276581	146.780000
281.369659	146.200000
281.462738	145.960000
281.555786	145.860000
281.648865	146.320000
281.741943	146.480000
281.835022	147.400000
281.928070	147.340000
282.021149	147.000000
282.114227	146.720000
282.207306	146.820000
282.300385	146.720000
282.393433	146.760000
282.486511	147.240000
282.579590	147.440000
282.672668	147.640000
282.765747	147.320000
282.858856	147.120000
282.951904	147.120000
283.045013	147.460000
283.138062	147.460000
283.231171	147.720000
283.324249	148.360000
283.417328	148.100000
283.510406	147.680000
283.603485	147.480000
283.696564	147.360000
283.789642	147.060000
283.882751	146.940000
283.975830	147.000000
284.068909	146.900000
284.161987	147.340000
284.255066	146.800000
284.348175	146.740000
284.441254	146.760000
284.534332	146.900000
284.627441	146.480000
284.720520	146.540000
284.813599	146.440000
284.906708	146.520000
284.999786	146.140000
285.092896	145.920000
285.185974	146.860000
285.279053	146.640000
285.372192	146.400000
285.465240	146.940000
285.558380	147.100000
285.651459	146.720000
285.744568	147.660000
285.837677	147.480000
285.930756	147.520000
286.023865	147.040000
286.116943	146.700000
286.210052	146.440000
286.303162	146.460000
286.396240	146.220000
286.489349	146.500000
286.582458	146.980000
286.675568	146.780000
286.768646	146.880000
286.861755	147.080000
286.954865	147.760000
287.047974	146.920000
287.141083	146.620000
287.234161	146.520000
287.327271	146.120000
287.420380	145.940000
287.513519	146.360000
287.606598	146.480000
287.699738	146.380000
287.792816	146.480000
287.885956	146.380000
287.979034	146.360000
288.072174	146.420000
288.165283	146.580000
288.258392	146.920000
288.351501	146.360000
288.444611	146.580000
288.537720	146.820000
288.630859	146.760000
288.723969	146.940000
288.817078	147.320000
288.910187	147.280000
289.003296	146.920000
289.096436	146.440000
289.189545	146.020000
289.282654	145.620000
289.375763	145.980000
289.468903	146.280000
289.562012	146.960000
289.655121	146.980000
289.748260	147.520000
289.841400	147.540000
289.934509	147.460000
290.027649	147.780000
290.120728	147.480000
290.213898	147.240000
290.306976	146.820000
290.400146	146.900000
290.493256	145.940000
290.586395	146.340000
290.679535	146.900000
290.772644	146.360000
290.865784	145.780000
290.958893	146.400000
291.052032	146.280000
291.145172	145.880000
291.238281	146.180000
291.331421	146.600000
291.424561	147.060000
291.517670	146.780000
291.610809	146.760000
291.703949	146.620000
291.797089	146.780000
291.890228	145.960000
291.983337	146.160000
292.076477	146.040000
292.169617	146.580000
292.262756	146.380000
292.355927	146.580000
292.449036	146.320000
292.542206	146.500000
292.635315	146.340000
292.728485	146.700000
292.821625	146.480000
292.914764	147.640000
293.007904	148.020000
293.101044	148.180000
293.194183	148.100000
293.287323	148.280000
293.380463	147.560000
293.473602	146.900000
293.566742	147.000000
293.659882	147.320000
293.753021	147.540000
293.846191	147.320000
293.939331	147.240000
294.032471	146.900000
294.125610	146.380000
294.218781	146.640000
294.311920	146.900000
294.405060	147.020000
294.498230	147.060000
294.591370	147.060000
294.684540	146.280000
294.777679	145.920000
294.870850	146.260000
294.963959	146.080000
295.057159	146.100000
295.150299	146.680000
295.243469	146.700000
295.336609	146.060000
295.429779	146.020000
295.522919	146.120000
295.616089	146.220000
295.709229	146.520000
295.802399	146.860000
295.895569	146.800000
295.988708	146.480000
296.081879	146.380000
296.175018	145.840000
296.268188	145.840000
296.361359	146.620000
296.454529	147.140000
296.547668	147.060000
296.640839	147.620000
296.734009	147.620000
296.827179	147.460000
296.920319	147.680000
297.013519	147.560000
297.106659	147.780000
297.199860	147.800000
297.292999	147.400000
297.386200	146.740000
297.479309	146.660000
297.572510	146.420000
297.665680	146.180000
297.758850	146.160000
297.852020	146.260000
297.945190	146.280000
298.038361	145.980000
298.131531	146.680000
298.224701	146.500000
298.317871	146.400000
298.411072	146.220000
298.504242	146.200000
298.597412	145.480000
298.690582	146.260000
298.783752	146.300000
298.876923	146.880000
298.970093	147.140000
299.063293	147.700000
299.156464	147.440000
299.249634	147.640000
299.342834	147.560000
299.436005	147.620000
299.529205	147.280000
299.622345	147.340000
299.715576	146.780000
299.808716	146.360000
299.901917	146.520000
299.995117	147.180000
300.088287	147.400000
300.181488	147.180000
300.274658	147.300000
300.367828	147.360000
300.461029	146.700000
300.554199	146.520000
300.647400	147.000000
300.740601	147.480000
300.833771	147.100000
300.926971	147.380000
301.020142	146.960000
301.113342	146.900000
301.206512	146.540000
301.299713	147.020000
301.392914	147.100000
301.486084	147.620000
301.579285	147.820000
301.672516	147.960000
301.765686	147.440000
301.858887	147.160000
301.952057	146.880000
302.045288	146.720000
302.138458	146.680000
302.231659	146.680000
302.324860	146.820000
302.418060	146.640000
302.511261	146.620000
302.604462	146.640000
302.697662	146.300000
302.790863	145.940000
302.884064	145.880000
302.977264	146.000000
303.070465	146.180000
303.163666	147.140000
303.256866	147.560000
303.350067	147.620000
303.443268	147.740000
303.536469	147.820000
303.629669	146.980000
303.722870	147.000000
303.816071	146.700000
303.909271	146.600000
304.002472	145.740000
304.095673	145.860000
304.188934	145.260000
304.282104	146.420000
304.375336	146.460000
304.468506	146.860000
304.561768	146.800000
304.654968	147.540000
304.748169	146.640000
304.841370	146.300000
304.934601	146.620000
305.027802	146.280000
305.121002	145.860000
305.214233	146.000000
305.307434	146.440000
305.400665	146.900000
305.493866	147.100000
