Model Number: SPM-002-B   
Serial Number: 70087108
Firmware Version: 004.15.4
Exposure Time: 100000.000000us
Data Taken on: 11-12-2020 19:39:10.543
Wavelength	Amplitude
221.570786	0.000000
221.663406	0.000000
221.756027	0.000000
221.848648	0.000000
221.941269	0.000000
222.033905	0.000000
222.126526	0.000000
222.219162	0.000000
222.311798	0.000000
222.404419	0.000000
222.497055	0.000000
222.589676	0.000000
222.682312	0.000000
222.774933	0.000000
222.867569	0.000000
222.960205	0.000000
223.052841	0.000000
223.145462	0.000000
223.238098	0.000000
223.330734	0.000000
223.423386	0.000000
223.516022	0.000000
223.608658	0.000000
223.701309	0.000000
223.793945	0.000000
223.886581	0.000000
223.979218	0.000000
224.071869	0.000000
224.164505	0.000000
224.257156	0.000000
224.349792	0.000000
224.442444	0.000000
224.535095	0.000000
224.627747	0.000000
224.720398	0.000000
224.813034	0.000000
224.905685	0.000000
224.998337	145.300000
225.090988	145.280000
225.183640	145.260000
225.276291	145.260000
225.368942	145.420000
225.461594	146.100000
225.554245	146.320000
225.646912	146.220000
225.739578	146.700000
225.832230	147.100000
225.924896	146.100000
226.017548	146.380000
226.110199	146.940000
226.202866	146.180000
226.295532	145.840000
226.388184	145.820000
226.480850	145.220000
226.573517	144.980000
226.666168	145.520000
226.758835	146.140000
226.851501	147.100000
226.944183	147.180000
227.036850	146.540000
227.129517	146.540000
227.222183	146.280000
227.314850	145.920000
227.407516	146.120000
227.500198	147.120000
227.592865	146.800000
227.685532	146.660000
227.778214	146.400000
227.870880	146.820000
227.963562	146.880000
228.056229	146.940000
228.148926	146.720000
228.241592	147.540000
228.334274	146.920000
228.426956	146.440000
228.519638	146.760000
228.612305	146.440000
228.704987	146.220000
228.797668	146.160000
228.890350	146.000000
228.983032	145.320000
229.075714	146.160000
229.168396	145.860000
229.261108	145.700000
229.353790	146.040000
229.446472	146.300000
229.539169	145.840000
229.631851	145.220000
229.724533	145.520000
229.817230	145.320000
229.909912	146.380000
230.002609	146.520000
230.095306	146.640000
230.187988	146.700000
230.280685	146.680000
230.373383	145.220000
230.466095	145.380000
230.558792	145.880000
230.651474	145.680000
230.744171	145.720000
230.836868	146.100000
230.929581	145.940000
231.022278	146.060000
231.114975	146.080000
231.207672	145.780000
231.300369	146.240000
231.393082	146.440000
231.485779	146.120000
231.578506	146.280000
231.671204	146.520000
231.763916	146.320000
231.856613	146.140000
231.949326	146.380000
232.042023	146.220000
232.134735	146.180000
232.227448	146.000000
232.320160	146.400000
232.412872	146.400000
232.505585	147.100000
232.598297	147.540000
232.691010	147.460000
232.783722	146.840000
232.876450	146.980000
232.969162	146.520000
233.061874	145.760000
233.154587	145.600000
233.247314	146.200000
233.340027	145.660000
233.432739	145.900000
233.525467	145.940000
233.618179	146.200000
233.710907	145.640000
233.803635	146.260000
233.896347	145.800000
233.989090	146.760000
234.081818	146.700000
234.174545	147.000000
234.267258	146.520000
234.359985	146.720000
234.452713	146.220000
234.545441	146.000000
234.638168	145.780000
234.730896	146.320000
234.823639	146.280000
234.916367	146.580000
235.009094	146.880000
235.101822	146.980000
235.194580	146.400000
235.287308	146.520000
235.380051	145.960000
235.472778	146.140000
235.565521	146.380000
235.658249	146.140000
235.750992	146.020000
235.843719	146.220000
235.936462	146.100000
236.029205	145.560000
236.121948	145.560000
236.214691	146.000000
236.307449	146.520000
236.400192	146.260000
236.492935	146.320000
236.585678	146.780000
236.678421	146.700000
236.771164	146.320000
236.863907	146.720000
236.956665	146.860000
237.049408	148.300000
237.142151	147.740000
237.234909	148.340000
237.327652	148.080000
237.420410	147.720000
237.513153	146.600000
237.605927	146.600000
237.698669	146.000000
237.791428	145.560000
237.884186	146.160000
237.976944	145.720000
238.069702	146.020000
238.162445	145.660000
238.255203	146.180000
238.347961	146.300000
238.440720	146.240000
238.533478	146.280000
238.626266	146.020000
238.719025	146.240000
238.811783	146.220000
238.904541	146.180000
238.997314	145.880000
239.090073	145.860000
239.182831	145.640000
239.275604	146.080000
239.368362	145.940000
239.461136	146.160000
239.553909	146.440000
239.646667	146.520000
239.739441	146.080000
239.832214	146.280000
239.925003	146.380000
240.017761	147.120000
240.110535	147.560000
240.203308	146.960000
240.296082	147.180000
240.388855	147.020000
240.481628	146.700000
240.574417	146.520000
240.667191	147.020000
240.759964	146.620000
240.852737	146.440000
240.945526	146.000000
241.038315	145.620000
241.131088	145.620000
241.223877	145.900000
241.316650	145.560000
241.409439	145.820000
241.502228	145.540000
241.595001	146.020000
241.687790	146.120000
241.780579	146.480000
241.873367	146.680000
241.966141	147.100000
242.058929	146.380000
242.151718	146.200000
242.244507	146.600000
242.337311	146.060000
242.430099	146.460000
242.522903	146.620000
242.615692	146.420000
242.708481	146.420000
242.801270	147.020000
242.894073	146.580000
242.986862	146.660000
243.079651	147.380000
243.172455	146.960000
243.265244	146.860000
243.358063	146.240000
243.450867	146.540000
243.543655	146.220000
243.636459	146.280000
243.729263	146.520000
243.822067	146.940000
243.914856	147.060000
244.007660	147.100000
244.100464	147.180000
244.193268	146.500000
244.286072	146.560000
244.378876	146.040000
244.471680	145.780000
244.564499	146.020000
244.657318	146.900000
244.750122	147.040000
244.842926	146.580000
244.935745	146.840000
245.028549	146.340000
245.121368	145.880000
245.214172	146.000000
245.306992	146.680000
245.399796	146.420000
245.492615	146.460000
245.585434	146.120000
245.678253	145.780000
245.771072	145.620000
245.863892	145.740000
245.956711	146.160000
246.049530	146.040000
246.142349	145.780000
246.235168	145.780000
246.327988	146.280000
246.420807	146.180000
246.513626	146.480000
246.606445	146.520000
246.699280	146.320000
246.792099	145.900000
246.884918	145.520000
246.977753	145.120000
247.070587	145.580000
247.163422	145.560000
247.256241	145.560000
247.349075	146.080000
247.441895	146.380000
247.534729	146.220000
247.627563	146.060000
247.720383	146.560000
247.813217	146.220000
247.906052	146.180000
247.998886	146.140000
248.091736	146.360000
248.184570	145.900000
248.277405	145.980000
248.370239	146.980000
248.463074	147.620000
248.555908	148.000000
248.648743	147.700000
248.741592	147.960000
248.834427	147.180000
248.927261	146.200000
249.020111	146.180000
249.112946	146.760000
249.205795	146.300000
249.298630	146.260000
249.391495	146.660000
249.484344	146.400000
249.577179	146.220000
249.670029	146.320000
249.762878	146.720000
249.855728	146.760000
249.948563	146.460000
250.041412	146.120000
250.134262	146.560000
250.227112	146.420000
250.319962	146.480000
250.412827	146.580000
250.505692	146.540000
250.598541	146.340000
250.691391	146.120000
250.784241	146.000000
250.877106	146.320000
250.969955	146.000000
251.062805	146.580000
251.155670	146.920000
251.248520	146.720000
251.341385	146.880000
251.434235	147.060000
251.527100	146.740000
251.619965	146.300000
251.712814	146.780000
251.805695	146.580000
251.898560	146.780000
251.991425	146.820000
252.084290	147.120000
252.177155	146.560000
252.270020	146.300000
252.362885	146.120000
252.455750	146.060000
252.548615	145.480000
252.641479	145.660000
252.734360	145.880000
252.827240	145.860000
252.920105	145.640000
253.012970	145.820000
253.105850	145.500000
253.198715	144.940000
253.291595	145.220000
253.384460	144.680000
253.477341	144.480000
253.570221	144.860000
253.663086	145.100000
253.755966	145.340000
253.848846	145.680000
253.941727	146.220000
254.034592	146.400000
254.127472	146.100000
254.220367	146.100000
254.313248	146.500000
254.406128	145.940000
254.499008	146.080000
254.591904	146.860000
254.684784	147.180000
254.777664	147.140000
254.870544	147.140000
254.963440	146.900000
255.056335	146.740000
255.149216	146.580000
255.242111	146.700000
255.334991	147.300000
255.427887	147.660000
255.520767	147.720000
255.613663	147.440000
255.706558	146.720000
255.799438	146.280000
255.892334	145.860000
255.985229	145.780000
256.078125	146.080000
256.171021	146.300000
256.263916	146.780000
256.356812	147.000000
256.449707	147.020000
256.542603	146.480000
256.635498	147.300000
256.728394	147.040000
256.821289	146.940000
256.914215	147.360000
257.007080	147.860000
257.100006	147.740000
257.192932	148.080000
257.285828	148.280000
257.378723	147.960000
257.471619	147.620000
257.564545	146.800000
257.657440	146.820000
257.750336	146.920000
257.843262	146.480000
257.936157	147.580000
258.029053	148.200000
258.121979	147.780000
258.214874	147.520000
258.307800	147.460000
258.400696	146.340000
258.493622	146.160000
258.586517	146.100000
258.679443	146.420000
258.772339	146.300000
258.865265	146.300000
258.958160	145.900000
259.051086	146.620000
259.144012	146.020000
259.236938	147.040000
259.329834	147.140000
259.422791	147.220000
259.515717	146.020000
259.608612	146.220000
259.701538	145.960000
259.794464	145.760000
259.887390	145.620000
259.980316	146.120000
260.073212	145.580000
260.166138	144.740000
260.259064	145.280000
260.351990	146.060000
260.444916	145.780000
260.537842	146.720000
260.630768	147.500000
260.723694	147.240000
260.816620	146.820000
260.909546	146.900000
261.002472	146.280000
261.095398	145.680000
261.188354	145.580000
261.281281	145.400000
261.374207	145.520000
261.467133	146.240000
261.560089	146.680000
261.653015	146.620000
261.745972	147.220000
261.838867	147.840000
261.931824	147.640000
262.024780	147.200000
262.117706	147.460000
262.210663	147.460000
262.303589	146.960000
262.396515	147.200000
262.489471	148.080000
262.582397	147.980000
262.675354	147.120000
262.768280	147.300000
262.861237	147.180000
262.954163	146.860000
263.047119	147.100000
263.140045	147.300000
263.233002	147.100000
263.325958	147.000000
263.418884	146.500000
263.511841	146.320000
263.604797	146.460000
263.697723	146.340000
263.790680	146.420000
263.883636	147.180000
263.976593	147.000000
264.069550	147.240000
264.162476	147.300000
264.255463	147.120000
264.348419	146.820000
264.441376	146.980000
264.534332	146.320000
264.627289	146.460000
264.720245	146.600000
264.813202	145.840000
264.906158	146.120000
264.999115	146.820000
265.092072	146.680000
265.185028	147.120000
265.277985	147.660000
265.370941	147.180000
265.463898	146.940000
265.556854	146.640000
265.649811	145.540000
265.742798	145.500000
265.835754	145.720000
265.928711	145.740000
266.021667	146.040000
266.114655	146.740000
266.207611	146.800000
266.300568	146.160000
266.393585	146.040000
266.486511	146.200000
266.579498	145.240000
266.672485	145.400000
266.765442	145.460000
266.858429	146.060000
266.951385	145.720000
267.044342	146.320000
267.137329	146.260000
267.230316	146.680000
267.323273	145.840000
267.416260	146.460000
267.509216	146.480000
267.602203	146.100000
267.695160	146.280000
267.788147	146.600000
267.881134	145.860000
267.974091	145.880000
268.067078	146.140000
268.160065	145.820000
268.253052	145.400000
268.346008	145.560000
268.438995	145.380000
268.531982	145.300000
268.624969	145.220000
268.717987	145.940000
268.810944	146.060000
268.903961	146.060000
268.996948	145.800000
269.089905	146.540000
269.182892	146.380000
269.275879	146.720000
269.368866	146.460000
269.461853	146.840000
269.554871	146.180000
269.647858	146.040000
269.740845	146.320000
269.833832	146.860000
269.926819	146.700000
270.019806	147.080000
270.112793	146.940000
270.205811	146.880000
270.298798	146.660000
270.391785	147.280000
270.484772	146.720000
270.577789	146.800000
270.670776	146.160000
270.763763	146.160000
270.856750	145.720000
270.949768	145.640000
271.042786	145.800000
271.135773	146.320000
271.228790	146.600000
271.321808	146.440000
271.414795	146.380000
271.507782	145.960000
271.600800	145.300000
271.693817	145.120000
271.786804	145.260000
271.879822	145.700000
271.972809	145.940000
272.065826	146.480000
272.158844	146.220000
272.251831	146.960000
272.344849	146.780000
272.437866	146.580000
272.530853	146.680000
272.623871	146.940000
272.716888	145.980000
272.809906	146.440000
272.902893	146.380000
272.995911	145.820000
273.088928	146.080000
273.181946	146.200000
273.274963	145.620000
273.367981	145.800000
273.460999	145.920000
273.554047	146.040000
273.647003	146.720000
273.740051	147.080000
273.833069	147.200000
273.926086	147.540000
274.019135	147.180000
274.112152	146.580000
274.205170	146.400000
274.298187	146.680000
274.391205	146.180000
274.484222	146.180000
274.577240	146.320000
274.670258	146.360000
274.763306	146.380000
274.856323	146.720000
274.949341	146.520000
275.042358	146.820000
275.135406	146.660000
275.228424	146.600000
275.321442	146.440000
275.414490	146.380000
275.507507	146.380000
275.600525	146.960000
275.693573	146.720000
275.786591	146.540000
275.879669	147.000000
275.972656	146.540000
276.065735	146.020000
276.158752	146.380000
276.251801	146.960000
276.344818	146.620000
276.437866	147.020000
276.530884	146.980000
276.623932	146.460000
276.716980	146.500000
276.809998	146.660000
276.903046	146.420000
276.996094	147.200000
277.089111	147.760000
277.182159	148.140000
277.275208	147.960000
277.368256	148.140000
277.461304	147.620000
277.554321	146.780000
277.647369	146.540000
277.740417	146.600000
277.833466	146.300000
277.926514	146.160000
278.019562	146.940000
278.112610	146.420000
278.205688	146.400000
278.298706	146.560000
278.391785	146.580000
278.484833	146.240000
278.577881	145.880000
278.670929	146.400000
278.763977	146.220000
278.857025	146.600000
278.950073	146.480000
279.043121	146.660000
279.136169	146.220000
279.229248	146.280000
279.322296	145.820000
279.415344	145.620000
279.508392	145.540000
279.601440	145.560000
279.694519	145.380000
279.787567	145.560000
279.880615	145.480000
279.973694	145.520000
280.066742	145.700000
280.159790	145.940000
280.252869	145.260000
280.345917	145.760000
280.438995	145.760000
280.532074	145.320000
280.625122	145.780000
280.718201	147.020000
280.811279	146.640000
280.904327	146.760000
280.997406	146.960000
281.090454	146.540000
281.183533	145.840000
281.276581	145.920000
281.369659	145.740000
281.462738	145.820000
281.555786	145.900000
281.648865	146.100000
281.741943	146.120000
281.835022	146.760000
281.928070	146.300000
282.021149	146.080000
282.114227	145.760000
282.207306	145.860000
282.300385	146.040000
282.393433	146.500000
282.486511	146.440000
282.579590	146.980000
282.672668	147.160000
282.765747	146.680000
282.858856	146.560000
282.951904	146.820000
283.045013	146.860000
283.138062	147.060000
283.231171	147.320000
283.324249	147.880000
283.417328	147.980000
283.510406	147.500000
283.603485	147.120000
283.696564	146.840000
283.789642	146.420000
283.882751	146.200000
283.975830	147.040000
284.068909	146.780000
284.161987	147.300000
284.255066	146.980000
284.348175	146.780000
284.441254	146.240000
284.534332	146.900000
284.627441	146.620000
284.720520	146.420000
284.813599	146.940000
284.906708	146.940000
284.999786	146.260000
285.092896	145.720000
285.185974	146.800000
285.279053	146.240000
285.372192	146.320000
285.465240	146.960000
285.558380	146.840000
285.651459	146.020000
285.744568	146.860000
285.837677	146.240000
285.930756	146.160000
286.023865	146.440000
286.116943	146.340000
286.210052	146.040000
286.303162	146.160000
286.396240	146.160000
286.489349	145.980000
286.582458	146.400000
286.675568	146.160000
286.768646	146.280000
286.861755	146.300000
286.954865	147.100000
287.047974	146.420000
287.141083	146.060000
287.234161	146.000000
287.327271	145.540000
287.420380	145.660000
287.513519	145.740000
287.606598	145.980000
287.699738	146.180000
287.792816	146.260000
287.885956	145.880000
287.979034	145.780000
288.072174	146.060000
288.165283	145.820000
288.258392	146.000000
288.351501	145.500000
288.444611	145.800000
288.537720	145.860000
288.630859	145.940000
288.723969	146.200000
288.817078	146.600000
288.910187	146.720000
289.003296	146.460000
289.096436	146.100000
289.189545	145.740000
289.282654	145.380000
289.375763	145.620000
289.468903	145.960000
289.562012	146.460000
289.655121	146.560000
289.748260	146.840000
289.841400	147.460000
289.934509	147.160000
290.027649	147.220000
290.120728	147.340000
290.213898	147.360000
290.306976	146.560000
290.400146	146.700000
290.493256	146.580000
290.586395	146.720000
290.679535	146.960000
290.772644	146.920000
290.865784	146.140000
290.958893	146.020000
291.052032	145.360000
291.145172	145.200000
291.238281	144.740000
291.331421	145.020000
291.424561	145.400000
291.517670	145.360000
291.610809	145.380000
291.703949	145.460000
291.797089	145.580000
291.890228	145.260000
291.983337	145.380000
292.076477	145.340000
292.169617	145.840000
292.262756	146.020000
292.355927	145.780000
292.449036	145.720000
292.542206	145.540000
292.635315	145.720000
292.728485	145.960000
292.821625	146.000000
292.914764	147.180000
293.007904	147.240000
293.101044	147.080000
293.194183	146.980000
293.287323	147.480000
293.380463	146.800000
293.473602	146.800000
293.566742	147.000000
293.659882	147.500000
293.753021	147.520000
293.846191	147.320000
293.939331	146.980000
294.032471	146.800000
294.125610	146.080000
294.218781	146.220000
294.311920	146.660000
294.405060	146.980000
294.498230	147.060000
294.591370	147.260000
294.684540	146.260000
294.777679	145.660000
294.870850	145.920000
294.963959	145.620000
295.057159	145.360000
295.150299	146.120000
295.243469	146.320000
295.336609	145.460000
295.429779	145.460000
295.522919	145.860000
295.616089	145.640000
295.709229	145.940000
295.802399	146.120000
295.895569	145.860000
295.988708	145.760000
296.081879	146.000000
296.175018	145.660000
296.268188	145.880000
296.361359	146.580000
296.454529	146.640000
296.547668	146.760000
296.640839	146.880000
296.734009	146.980000
296.827179	147.100000
296.920319	147.340000
297.013519	147.160000
297.106659	147.140000
297.199860	147.120000
297.292999	146.760000
297.386200	146.480000
297.479309	146.140000
297.572510	146.200000
297.665680	145.880000
297.758850	145.880000
297.852020	145.660000
297.945190	145.880000
298.038361	145.280000
298.131531	146.260000
298.224701	146.020000
298.317871	145.720000
298.411072	145.220000
298.504242	145.440000
298.597412	145.060000
298.690582	145.460000
298.783752	145.720000
298.876923	146.220000
298.970093	146.460000
299.063293	146.560000
299.156464	146.960000
299.249634	147.340000
299.342834	147.660000
299.436005	147.920000
299.529205	147.520000
299.622345	147.220000
299.715576	146.520000
299.808716	146.200000
299.901917	146.220000
299.995117	146.840000
300.088287	146.700000
300.181488	146.860000
300.274658	146.440000
300.367828	145.960000
300.461029	145.560000
300.554199	145.760000
300.647400	146.000000
300.740601	146.680000
300.833771	146.900000
300.926971	147.120000
301.020142	146.680000
301.113342	146.480000
301.206512	146.340000
301.299713	146.480000
301.392914	146.380000
301.486084	146.640000
301.579285	146.700000
301.672516	147.040000
301.765686	146.860000
301.858887	146.900000
301.952057	146.660000
302.045288	146.500000
302.138458	146.240000
302.231659	146.200000
302.324860	145.840000
302.418060	145.680000
302.511261	145.800000
302.604462	145.880000
302.697662	145.740000
302.790863	145.620000
302.884064	145.440000
302.977264	145.540000
303.070465	145.740000
303.163666	146.480000
303.256866	146.840000
303.350067	147.320000
303.443268	147.460000
303.536469	147.340000
303.629669	146.560000
303.722870	146.720000
303.816071	146.440000
303.909271	146.120000
304.002472	145.520000
304.095673	145.520000
304.188934	144.880000
304.282104	145.900000
304.375336	146.180000
304.468506	146.060000
304.561768	145.940000
304.654968	146.720000
304.748169	145.920000
304.841370	145.660000
304.934601	146.240000
305.027802	146.100000
305.121002	145.460000
305.214233	145.660000
305.307434	145.740000
305.400665	146.060000
305.493866	146.320000
