Model Number: SPM-002-B   
Serial Number: 70087108
Firmware Version: 004.15.4
Exposure Time: 100000.000000us
Data Taken on: 11-12-2020 19:39:49.963
Wavelength	Amplitude
221.570786	0.000000
221.663406	0.000000
221.756027	0.000000
221.848648	0.000000
221.941269	0.000000
222.033905	0.000000
222.126526	0.000000
222.219162	0.000000
222.311798	0.000000
222.404419	0.000000
222.497055	0.000000
222.589676	0.000000
222.682312	0.000000
222.774933	0.000000
222.867569	0.000000
222.960205	0.000000
223.052841	0.000000
223.145462	0.000000
223.238098	0.000000
223.330734	0.000000
223.423386	0.000000
223.516022	0.000000
223.608658	0.000000
223.701309	0.000000
223.793945	0.000000
223.886581	0.000000
223.979218	0.000000
224.071869	0.000000
224.164505	0.000000
224.257156	0.000000
224.349792	0.000000
224.442444	0.000000
224.535095	0.000000
224.627747	0.000000
224.720398	0.000000
224.813034	0.000000
224.905685	0.000000
224.998337	145.560000
225.090988	145.500000
225.183640	145.620000
225.276291	145.540000
225.368942	145.920000
225.461594	146.480000
225.554245	146.740000
225.646912	146.660000
225.739578	146.920000
225.832230	147.380000
225.924896	146.380000
226.017548	146.400000
226.110199	146.840000
226.202866	146.340000
226.295532	145.920000
226.388184	146.040000
226.480850	145.620000
226.573517	144.980000
226.666168	145.000000
226.758835	145.300000
226.851501	146.060000
226.944183	146.520000
227.036850	146.320000
227.129517	146.560000
227.222183	146.640000
227.314850	146.600000
227.407516	146.560000
227.500198	147.620000
227.592865	147.240000
227.685532	146.940000
227.778214	146.600000
227.870880	147.000000
227.963562	146.840000
228.056229	147.320000
228.148926	147.500000
228.241592	147.980000
228.334274	147.200000
228.426956	147.060000
228.519638	146.960000
228.612305	146.540000
228.704987	146.540000
228.797668	146.820000
228.890350	146.260000
228.983032	145.720000
229.075714	146.180000
229.168396	145.680000
229.261108	145.040000
229.353790	145.000000
229.446472	145.460000
229.539169	145.100000
229.631851	144.900000
229.724533	145.540000
229.817230	145.900000
229.909912	146.440000
230.002609	146.600000
230.095306	146.660000
230.187988	146.680000
230.280685	146.640000
230.373383	145.800000
230.466095	145.840000
230.558792	146.280000
230.651474	146.220000
230.744171	146.040000
230.836868	146.020000
230.929581	146.080000
231.022278	146.080000
231.114975	146.240000
231.207672	146.240000
231.300369	146.600000
231.393082	146.560000
231.485779	146.100000
231.578506	145.800000
231.671204	145.840000
231.763916	145.440000
231.856613	145.160000
231.949326	145.460000
232.042023	145.580000
232.134735	145.620000
232.227448	145.620000
232.320160	146.080000
232.412872	146.000000
232.505585	146.640000
232.598297	147.140000
232.691010	147.180000
232.783722	146.740000
232.876450	147.480000
232.969162	146.960000
233.061874	146.220000
233.154587	145.980000
233.247314	146.280000
233.340027	145.280000
233.432739	145.580000
233.525467	145.320000
233.618179	145.800000
233.710907	145.480000
233.803635	145.820000
233.896347	145.500000
233.989090	146.600000
234.081818	146.400000
234.174545	146.740000
234.267258	146.200000
234.359985	146.200000
234.452713	145.860000
234.545441	145.740000
234.638168	145.600000
234.730896	146.440000
234.823639	146.360000
234.916367	146.320000
235.009094	146.480000
235.101822	146.380000
235.194580	145.860000
235.287308	145.980000
235.380051	145.700000
235.472778	146.060000
235.565521	146.280000
235.658249	146.080000
235.750992	146.140000
235.843719	146.260000
235.936462	146.240000
236.029205	145.800000
236.121948	146.000000
236.214691	146.220000
236.307449	147.000000
236.400192	146.860000
236.492935	146.800000
236.585678	146.860000
236.678421	147.180000
236.771164	146.720000
236.863907	146.960000
236.956665	147.280000
237.049408	148.700000
237.142151	147.820000
237.234909	148.320000
237.327652	148.240000
237.420410	148.000000
237.513153	147.160000
237.605927	147.220000
237.698669	146.520000
237.791428	145.800000
237.884186	146.440000
237.976944	145.760000
238.069702	146.020000
238.162445	145.440000
238.255203	145.740000
238.347961	145.960000
238.440720	146.280000
238.533478	146.060000
238.626266	146.220000
238.719025	146.520000
238.811783	145.740000
238.904541	145.300000
238.997314	145.440000
239.090073	145.500000
239.182831	145.580000
239.275604	146.660000
239.368362	146.740000
239.461136	146.760000
239.553909	146.660000
239.646667	146.400000
239.739441	145.680000
239.832214	145.920000
239.925003	145.880000
240.017761	146.700000
240.110535	147.400000
240.203308	146.980000
240.296082	147.200000
240.388855	147.300000
240.481628	147.140000
240.574417	146.880000
240.667191	147.500000
240.759964	147.020000
240.852737	146.820000
240.945526	146.540000
241.038315	146.400000
241.131088	146.280000
241.223877	146.600000
241.316650	146.340000
241.409439	146.820000
241.502228	146.360000
241.595001	146.480000
241.687790	146.160000
241.780579	146.420000
241.873367	146.220000
241.966141	146.820000
242.058929	146.400000
242.151718	146.840000
242.244507	147.220000
242.337311	146.560000
242.430099	146.660000
242.522903	147.100000
242.615692	146.420000
242.708481	146.120000
242.801270	147.040000
242.894073	146.880000
242.986862	146.460000
243.079651	147.120000
243.172455	146.900000
243.265244	146.520000
243.358063	145.740000
243.450867	146.260000
243.543655	146.100000
243.636459	146.360000
243.729263	146.760000
243.822067	147.220000
243.914856	147.480000
244.007660	147.600000
244.100464	147.660000
244.193268	146.880000
244.286072	146.820000
244.378876	146.140000
244.471680	145.780000
244.564499	145.900000
244.657318	146.580000
244.750122	146.960000
244.842926	146.600000
244.935745	147.020000
245.028549	146.600000
245.121368	146.260000
245.214172	146.000000
245.306992	146.520000
245.399796	146.240000
245.492615	146.200000
245.585434	146.020000
245.678253	146.080000
245.771072	145.980000
245.863892	146.240000
245.956711	146.660000
246.049530	146.420000
246.142349	146.060000
246.235168	146.120000
246.327988	146.380000
246.420807	145.880000
246.513626	146.480000
246.606445	146.500000
246.699280	146.360000
246.792099	146.140000
246.884918	146.200000
246.977753	145.560000
247.070587	145.700000
247.163422	145.720000
247.256241	145.540000
247.349075	145.900000
247.441895	146.060000
247.534729	146.180000
247.627563	145.840000
247.720383	146.340000
247.813217	146.000000
247.906052	146.000000
247.998886	146.000000
248.091736	146.260000
248.184570	145.820000
248.277405	146.120000
248.370239	146.840000
248.463074	147.620000
248.555908	147.800000
248.648743	147.720000
248.741592	147.720000
248.834427	146.880000
248.927261	145.640000
249.020111	145.800000
249.112946	146.700000
249.205795	146.560000
249.298630	146.980000
249.391495	147.360000
249.484344	147.380000
249.577179	146.740000
249.670029	146.560000
249.762878	146.940000
249.855728	147.140000
249.948563	146.860000
250.041412	146.420000
250.134262	147.040000
250.227112	147.020000
250.319962	146.980000
250.412827	146.940000
250.505692	146.760000
250.598541	146.240000
250.691391	145.940000
250.784241	145.900000
250.877106	145.880000
250.969955	145.540000
251.062805	145.940000
251.155670	146.500000
251.248520	146.400000
251.341385	146.480000
251.434235	146.940000
251.527100	146.800000
251.619965	146.080000
251.712814	146.680000
251.805695	146.720000
251.898560	146.900000
251.991425	146.860000
252.084290	146.920000
252.177155	146.040000
252.270020	145.840000
252.362885	145.840000
252.455750	145.980000
252.548615	145.780000
252.641479	145.760000
252.734360	145.880000
252.827240	145.720000
252.920105	145.740000
253.012970	145.960000
253.105850	146.020000
253.198715	145.880000
253.291595	146.140000
253.384460	145.940000
253.477341	145.720000
253.570221	146.020000
253.663086	145.960000
253.755966	146.640000
253.848846	146.460000
253.941727	146.780000
254.034592	146.560000
254.127472	146.160000
254.220367	145.840000
254.313248	146.100000
254.406128	145.700000
254.499008	145.900000
254.591904	146.880000
254.684784	147.240000
254.777664	147.140000
254.870544	146.940000
254.963440	146.680000
255.056335	146.560000
255.149216	145.960000
255.242111	146.500000
255.334991	147.040000
255.427887	147.600000
255.520767	147.280000
255.613663	147.500000
255.706558	146.900000
255.799438	147.000000
255.892334	146.320000
255.985229	146.600000
256.078125	146.020000
256.171021	145.980000
256.263916	146.000000
256.356812	146.440000
256.449707	146.300000
256.542603	146.300000
256.635498	147.120000
256.728394	146.840000
256.821289	146.620000
256.914215	147.060000
257.007080	147.460000
257.100006	146.820000
257.192932	147.300000
257.285828	147.640000
257.378723	147.160000
257.471619	147.000000
257.564545	146.880000
257.657440	146.620000
257.750336	146.820000
257.843262	146.520000
257.936157	147.580000
258.029053	147.700000
258.121979	147.600000
258.214874	147.160000
258.307800	147.160000
258.400696	146.000000
258.493622	146.100000
258.586517	145.700000
258.679443	146.380000
258.772339	145.980000
258.865265	145.900000
258.958160	145.320000
259.051086	146.060000
259.144012	145.480000
259.236938	146.520000
259.329834	146.660000
259.422791	146.920000
259.515717	146.380000
259.608612	146.180000
259.701538	146.000000
259.794464	145.780000
259.887390	145.680000
259.980316	145.580000
260.073212	145.400000
260.166138	144.680000
260.259064	145.140000
260.351990	145.780000
260.444916	145.800000
260.537842	146.360000
260.630768	147.220000
260.723694	147.060000
260.816620	146.600000
260.909546	146.580000
261.002472	146.160000
261.095398	145.440000
261.188354	145.360000
261.281281	145.140000
261.374207	145.200000
261.467133	145.680000
261.560089	145.980000
261.653015	145.700000
261.745972	146.580000
261.838867	146.920000
261.931824	147.020000
262.024780	146.660000
262.117706	147.560000
262.210663	147.120000
262.303589	146.900000
262.396515	146.700000
262.489471	147.640000
262.582397	147.000000
262.675354	146.780000
262.768280	146.900000
262.861237	146.880000
262.954163	146.580000
263.047119	146.640000
263.140045	146.440000
263.233002	146.360000
263.325958	146.300000
263.418884	145.780000
263.511841	145.840000
263.604797	145.700000
263.697723	145.980000
263.790680	146.360000
263.883636	146.780000
263.976593	146.440000
264.069550	146.820000
264.162476	146.240000
264.255463	145.960000
264.348419	146.120000
264.441376	146.600000
264.534332	146.260000
264.627289	146.740000
264.720245	147.020000
264.813202	146.340000
264.906158	146.360000
264.999115	146.600000
265.092072	146.200000
265.185028	146.380000
265.277985	146.480000
265.370941	146.400000
265.463898	146.260000
265.556854	146.080000
265.649811	145.120000
265.742798	145.320000
265.835754	145.140000
265.928711	145.520000
266.021667	145.700000
266.114655	146.040000
266.207611	146.620000
266.300568	146.100000
266.393585	145.600000
266.486511	145.960000
266.579498	145.480000
266.672485	145.100000
266.765442	145.080000
266.858429	146.080000
266.951385	145.600000
267.044342	145.900000
267.137329	145.740000
267.230316	146.420000
267.323273	145.640000
267.416260	146.240000
267.509216	146.260000
267.602203	146.240000
267.695160	146.660000
267.788147	146.680000
267.881134	146.260000
267.974091	146.540000
268.067078	146.460000
268.160065	145.980000
268.253052	145.860000
268.346008	145.660000
268.438995	145.300000
268.531982	145.500000
268.624969	145.140000
268.717987	145.780000
268.810944	145.640000
268.903961	145.780000
268.996948	145.540000
269.089905	146.380000
269.182892	146.100000
269.275879	146.760000
269.368866	146.520000
269.461853	146.720000
269.554871	146.420000
269.647858	146.600000
269.740845	146.900000
269.833832	147.300000
269.926819	146.820000
270.019806	146.820000
270.112793	146.200000
270.205811	146.140000
270.298798	145.880000
270.391785	146.660000
270.484772	146.380000
270.577789	146.720000
270.670776	146.180000
270.763763	146.360000
270.856750	145.880000
270.949768	145.640000
271.042786	145.780000
271.135773	145.860000
271.228790	146.080000
271.321808	145.780000
271.414795	145.420000
271.507782	145.280000
271.600800	144.800000
271.693817	144.560000
271.786804	145.440000
271.879822	146.200000
271.972809	146.060000
272.065826	146.780000
272.158844	146.800000
272.251831	146.820000
272.344849	146.560000
272.437866	146.380000
272.530853	146.560000
272.623871	146.520000
272.716888	145.520000
272.809906	146.080000
272.902893	146.120000
272.995911	145.520000
273.088928	145.620000
273.181946	146.240000
273.274963	145.500000
273.367981	145.660000
273.460999	145.700000
273.554047	145.940000
273.647003	146.500000
273.740051	146.580000
273.833069	146.640000
273.926086	146.820000
274.019135	146.600000
274.112152	146.320000
274.205170	146.440000
274.298187	146.680000
274.391205	146.260000
274.484222	146.120000
274.577240	145.900000
274.670258	145.740000
274.763306	145.460000
274.856323	146.200000
274.949341	146.420000
275.042358	146.760000
275.135406	146.720000
275.228424	146.900000
275.321442	146.620000
275.414490	146.320000
275.507507	146.400000
275.600525	147.220000
275.693573	146.740000
275.786591	146.600000
275.879669	146.600000
275.972656	146.560000
276.065735	146.220000
276.158752	146.900000
276.251801	147.660000
276.344818	147.940000
276.437866	147.660000
276.530884	147.660000
276.623932	147.140000
276.716980	146.800000
276.809998	146.900000
276.903046	146.620000
276.996094	146.960000
277.089111	147.600000
277.182159	148.260000
277.275208	147.840000
277.368256	148.200000
277.461304	148.000000
277.554321	146.940000
277.647369	146.240000
277.740417	146.400000
277.833466	146.100000
277.926514	145.700000
278.019562	146.480000
278.112610	146.260000
278.205688	146.440000
278.298706	146.640000
278.391785	146.360000
278.484833	145.900000
278.577881	145.660000
278.670929	145.480000
278.763977	145.420000
278.857025	145.820000
278.950073	145.960000
279.043121	146.120000
279.136169	146.140000
279.229248	145.780000
279.322296	146.000000
279.415344	145.980000
279.508392	145.800000
279.601440	145.680000
279.694519	146.120000
279.787567	145.820000
279.880615	146.120000
279.973694	146.180000
280.066742	146.020000
280.159790	146.080000
280.252869	145.800000
280.345917	145.680000
280.438995	146.000000
280.532074	146.440000
280.625122	146.680000
280.718201	147.760000
280.811279	147.800000
280.904327	147.200000
280.997406	147.440000
281.090454	147.180000
281.183533	146.120000
281.276581	146.160000
281.369659	146.180000
281.462738	145.760000
281.555786	145.800000
281.648865	146.400000
281.741943	146.040000
281.835022	146.960000
281.928070	146.960000
282.021149	146.580000
282.114227	146.060000
282.207306	146.340000
282.300385	146.360000
282.393433	146.480000
282.486511	146.980000
282.579590	147.360000
282.672668	147.660000
282.765747	146.880000
282.858856	146.520000
282.951904	146.400000
283.045013	146.700000
283.138062	146.600000
283.231171	146.940000
283.324249	147.580000
283.417328	147.520000
283.510406	147.040000
283.603485	146.960000
283.696564	146.720000
283.789642	146.580000
283.882751	146.120000
283.975830	146.700000
284.068909	146.180000
284.161987	146.760000
284.255066	146.260000
284.348175	146.860000
284.441254	146.640000
284.534332	147.260000
284.627441	146.820000
284.720520	146.520000
284.813599	146.100000
284.906708	145.800000
284.999786	145.000000
285.092896	144.620000
285.185974	145.760000
285.279053	145.560000
285.372192	145.960000
285.465240	146.820000
285.558380	147.160000
285.651459	146.660000
285.744568	147.600000
285.837677	147.180000
285.930756	147.060000
286.023865	146.860000
286.116943	146.500000
286.210052	146.180000
286.303162	146.040000
286.396240	145.920000
286.489349	145.740000
286.582458	146.220000
286.675568	146.180000
286.768646	146.280000
286.861755	146.420000
286.954865	147.520000
287.047974	146.900000
287.141083	146.340000
287.234161	146.340000
287.327271	146.020000
287.420380	145.960000
287.513519	146.000000
287.606598	146.380000
287.699738	146.580000
287.792816	146.540000
287.885956	146.160000
287.979034	146.260000
288.072174	146.040000
288.165283	146.000000
288.258392	146.520000
288.351501	146.080000
288.444611	146.400000
288.537720	146.940000
288.630859	146.680000
288.723969	146.400000
288.817078	146.980000
288.910187	146.960000
289.003296	146.240000
289.096436	146.180000
289.189545	146.100000
289.282654	145.360000
289.375763	145.500000
289.468903	146.200000
289.562012	146.480000
289.655121	146.380000
289.748260	146.480000
289.841400	146.540000
289.934509	146.280000
290.027649	146.620000
290.120728	146.560000
290.213898	146.800000
290.306976	146.820000
290.400146	146.800000
290.493256	146.280000
290.586395	146.340000
290.679535	146.480000
290.772644	146.300000
290.865784	145.680000
290.958893	145.480000
291.052032	145.400000
291.145172	145.500000
291.238281	144.920000
291.331421	145.360000
291.424561	146.040000
291.517670	145.820000
291.610809	145.920000
291.703949	146.220000
291.797089	146.340000
291.890228	145.600000
291.983337	145.840000
292.076477	145.380000
292.169617	145.560000
292.262756	145.600000
292.355927	145.640000
292.449036	145.560000
292.542206	145.800000
292.635315	146.000000
292.728485	146.360000
292.821625	146.280000
292.914764	147.360000
293.007904	147.480000
293.101044	147.560000
293.194183	147.080000
293.287323	147.360000
293.380463	146.820000
293.473602	146.440000
293.566742	146.400000
293.659882	146.880000
293.753021	147.280000
293.846191	146.800000
293.939331	146.780000
294.032471	146.600000
294.125610	146.180000
294.218781	146.280000
294.311920	146.840000
294.405060	147.080000
294.498230	146.980000
294.591370	147.040000
294.684540	146.260000
294.777679	145.760000
294.870850	146.260000
294.963959	146.140000
295.057159	145.800000
295.150299	146.260000
295.243469	146.200000
295.336609	145.500000
295.429779	145.920000
295.522919	146.560000
295.616089	146.400000
295.709229	147.200000
295.802399	147.480000
295.895569	147.000000
295.988708	146.560000
296.081879	146.940000
296.175018	145.940000
296.268188	145.700000
296.361359	146.400000
296.454529	146.720000
296.547668	146.340000
296.640839	146.920000
296.734009	146.860000
296.827179	146.640000
296.920319	146.700000
297.013519	146.620000
297.106659	146.560000
297.199860	146.720000
297.292999	146.620000
297.386200	146.320000
297.479309	146.480000
297.572510	146.440000
297.665680	145.920000
297.758850	146.060000
297.852020	145.820000
297.945190	145.580000
298.038361	145.200000
298.131531	146.500000
298.224701	145.980000
298.317871	145.960000
298.411072	145.720000
298.504242	145.680000
298.597412	144.600000
298.690582	144.860000
298.783752	145.100000
298.876923	145.480000
298.970093	145.860000
299.063293	146.560000
299.156464	146.900000
299.249634	147.140000
299.342834	147.160000
299.436005	147.560000
299.529205	147.260000
299.622345	147.400000
299.715576	146.580000
299.808716	146.560000
299.901917	145.960000
299.995117	146.480000
300.088287	146.160000
300.181488	146.100000
300.274658	146.100000
300.367828	146.320000
300.461029	145.620000
300.554199	145.820000
300.647400	146.300000
300.740601	146.680000
300.833771	146.380000
300.926971	146.900000
301.020142	146.120000
301.113342	146.100000
301.206512	145.940000
301.299713	146.520000
301.392914	146.260000
301.486084	147.020000
301.579285	146.960000
301.672516	147.320000
301.765686	146.900000
301.858887	146.580000
301.952057	146.300000
302.045288	146.580000
302.138458	145.980000
302.231659	146.020000
302.324860	146.060000
302.418060	145.620000
302.511261	145.340000
302.604462	145.800000
302.697662	145.560000
302.790863	145.460000
302.884064	145.640000
302.977264	145.680000
303.070465	145.680000
303.163666	146.220000
303.256866	146.820000
303.350067	146.960000
303.443268	146.880000
303.536469	146.860000
303.629669	146.460000
303.722870	146.460000
303.816071	146.060000
303.909271	146.320000
304.002472	145.580000
304.095673	145.440000
304.188934	144.500000
304.282104	145.860000
304.375336	145.660000
304.468506	145.680000
304.561768	145.640000
304.654968	146.600000
304.748169	145.560000
304.841370	145.640000
304.934601	146.240000
305.027802	145.980000
305.121002	145.460000
305.214233	145.740000
305.307434	145.680000
305.400665	146.060000
305.493866	146.000000
