Model Number: SPM-002-B   
Serial Number: 70087108
Firmware Version: 004.15.4
Exposure Time: 100000.000000us
Data Taken on: 11-12-2020 19:40:00.846
Wavelength	Amplitude
221.570786	0.000000
221.663406	0.000000
221.756027	0.000000
221.848648	0.000000
221.941269	0.000000
222.033905	0.000000
222.126526	0.000000
222.219162	0.000000
222.311798	0.000000
222.404419	0.000000
222.497055	0.000000
222.589676	0.000000
222.682312	0.000000
222.774933	0.000000
222.867569	0.000000
222.960205	0.000000
223.052841	0.000000
223.145462	0.000000
223.238098	0.000000
223.330734	0.000000
223.423386	0.000000
223.516022	0.000000
223.608658	0.000000
223.701309	0.000000
223.793945	0.000000
223.886581	0.000000
223.979218	0.000000
224.071869	0.000000
224.164505	0.000000
224.257156	0.000000
224.349792	0.000000
224.442444	0.000000
224.535095	0.000000
224.627747	0.000000
224.720398	0.000000
224.813034	0.000000
224.905685	0.000000
224.998337	146.260000
225.090988	146.040000
225.183640	145.900000
225.276291	145.260000
225.368942	145.720000
225.461594	146.180000
225.554245	146.380000
225.646912	146.300000
225.739578	147.380000
225.832230	147.520000
225.924896	146.380000
226.017548	146.620000
226.110199	147.160000
226.202866	146.120000
226.295532	146.180000
226.388184	146.560000
226.480850	146.100000
226.573517	145.720000
226.666168	146.100000
226.758835	146.400000
226.851501	146.960000
226.944183	146.880000
227.036850	146.540000
227.129517	146.540000
227.222183	146.460000
227.314850	146.240000
227.407516	146.800000
227.500198	147.600000
227.592865	147.300000
227.685532	146.940000
227.778214	146.760000
227.870880	146.980000
227.963562	147.120000
228.056229	147.500000
228.148926	147.580000
228.241592	148.260000
228.334274	147.680000
228.426956	147.560000
228.519638	147.680000
228.612305	146.980000
228.704987	147.100000
228.797668	147.300000
228.890350	146.680000
228.983032	145.980000
229.075714	146.880000
229.168396	146.240000
229.261108	145.980000
229.353790	146.020000
229.446472	146.320000
229.539169	146.300000
229.631851	146.080000
229.724533	146.160000
229.817230	146.620000
229.909912	147.740000
230.002609	147.380000
230.095306	147.560000
230.187988	147.900000
230.280685	147.600000
230.373383	146.260000
230.466095	146.400000
230.558792	146.660000
230.651474	146.380000
230.744171	146.000000
230.836868	146.300000
230.929581	146.460000
231.022278	146.280000
231.114975	146.400000
231.207672	146.580000
231.300369	146.800000
231.393082	146.640000
231.485779	146.360000
231.578506	146.120000
231.671204	146.300000
231.763916	146.140000
231.856613	146.060000
231.949326	146.360000
232.042023	146.400000
232.134735	146.640000
232.227448	146.460000
232.320160	146.640000
232.412872	146.600000
232.505585	147.300000
232.598297	147.500000
232.691010	147.340000
232.783722	147.000000
232.876450	147.620000
232.969162	147.000000
233.061874	146.140000
233.154587	146.040000
233.247314	146.540000
233.340027	145.800000
233.432739	146.300000
233.525467	146.580000
233.618179	147.040000
233.710907	146.540000
233.803635	147.100000
233.896347	146.660000
233.989090	147.360000
234.081818	147.420000
234.174545	147.540000
234.267258	146.960000
234.359985	147.140000
234.452713	146.700000
234.545441	146.360000
234.638168	146.300000
234.730896	146.720000
234.823639	146.860000
234.916367	147.240000
235.009094	147.400000
235.101822	147.640000
235.194580	147.580000
235.287308	147.340000
235.380051	146.560000
235.472778	146.620000
235.565521	146.760000
235.658249	146.600000
235.750992	146.740000
235.843719	146.840000
235.936462	147.060000
236.029205	146.920000
236.121948	146.580000
236.214691	146.660000
236.307449	147.260000
236.400192	146.620000
236.492935	146.180000
236.585678	146.320000
236.678421	145.880000
236.771164	145.620000
236.863907	146.380000
236.956665	146.580000
237.049408	148.140000
237.142151	148.000000
237.234909	148.680000
237.327652	148.580000
237.420410	148.400000
237.513153	147.200000
237.605927	147.300000
237.698669	146.400000
237.791428	145.720000
237.884186	146.460000
237.976944	146.020000
238.069702	146.580000
238.162445	146.560000
238.255203	147.000000
238.347961	146.820000
238.440720	146.940000
238.533478	146.320000
238.626266	145.940000
238.719025	145.800000
238.811783	145.640000
238.904541	145.080000
238.997314	145.340000
239.090073	145.480000
239.182831	145.700000
239.275604	146.500000
239.368362	146.920000
239.461136	146.460000
239.553909	146.700000
239.646667	146.580000
239.739441	146.060000
239.832214	146.140000
239.925003	146.700000
240.017761	146.900000
240.110535	147.560000
240.203308	147.060000
240.296082	147.480000
240.388855	147.640000
240.481628	147.600000
240.574417	147.240000
240.667191	147.460000
240.759964	147.020000
240.852737	146.840000
240.945526	146.800000
241.038315	146.720000
241.131088	146.580000
241.223877	146.800000
241.316650	146.560000
241.409439	146.720000
241.502228	146.340000
241.595001	146.840000
241.687790	146.700000
241.780579	146.740000
241.873367	146.700000
241.966141	147.000000
242.058929	146.280000
242.151718	146.560000
242.244507	147.040000
242.337311	146.320000
242.430099	146.640000
242.522903	147.220000
242.615692	146.700000
242.708481	146.400000
242.801270	147.380000
242.894073	147.200000
242.986862	146.820000
243.079651	147.360000
243.172455	147.340000
243.265244	147.140000
243.358063	146.680000
243.450867	147.280000
243.543655	147.180000
243.636459	147.320000
243.729263	147.520000
243.822067	147.680000
243.914856	147.520000
244.007660	147.680000
244.100464	147.440000
244.193268	146.480000
244.286072	146.480000
244.378876	146.040000
244.471680	145.620000
244.564499	145.740000
244.657318	146.840000
244.750122	147.180000
244.842926	146.880000
244.935745	147.200000
245.028549	146.700000
245.121368	146.140000
245.214172	146.180000
245.306992	146.740000
245.399796	146.480000
245.492615	146.960000
245.585434	146.900000
245.678253	146.560000
245.771072	146.480000
245.863892	146.760000
245.956711	146.820000
246.049530	146.580000
246.142349	146.180000
246.235168	146.220000
246.327988	146.540000
246.420807	146.480000
246.513626	146.620000
246.606445	146.620000
246.699280	146.420000
246.792099	146.100000
246.884918	145.700000
246.977753	145.340000
247.070587	145.640000
247.163422	145.740000
247.256241	145.520000
247.349075	146.120000
247.441895	146.500000
247.534729	146.560000
247.627563	146.440000
247.720383	147.100000
247.813217	146.680000
247.906052	146.500000
247.998886	146.540000
248.091736	146.660000
248.184570	146.220000
248.277405	146.300000
248.370239	146.980000
248.463074	147.760000
248.555908	148.080000
248.648743	147.780000
248.741592	147.980000
248.834427	147.420000
248.927261	146.280000
249.020111	146.600000
249.112946	147.520000
249.205795	147.060000
249.298630	147.360000
249.391495	147.600000
249.484344	146.900000
249.577179	146.560000
249.670029	147.060000
249.762878	147.360000
249.855728	147.420000
249.948563	147.540000
250.041412	146.820000
250.134262	147.040000
250.227112	146.980000
250.319962	147.120000
250.412827	146.840000
250.505692	146.680000
250.598541	146.380000
250.691391	146.040000
250.784241	145.800000
250.877106	146.020000
250.969955	145.760000
251.062805	145.960000
251.155670	146.480000
251.248520	146.620000
251.341385	146.860000
251.434235	147.260000
251.527100	147.200000
251.619965	146.840000
251.712814	147.320000
251.805695	147.340000
251.898560	147.720000
251.991425	147.680000
252.084290	147.720000
252.177155	147.040000
252.270020	146.580000
252.362885	146.360000
252.455750	146.480000
252.548615	146.140000
252.641479	146.240000
252.734360	146.280000
252.827240	146.120000
252.920105	146.360000
253.012970	146.480000
253.105850	146.360000
253.198715	146.080000
253.291595	146.200000
253.384460	145.780000
253.477341	145.780000
253.570221	146.040000
253.663086	146.000000
253.755966	146.820000
253.848846	146.720000
253.941727	147.080000
254.034592	146.980000
254.127472	146.800000
254.220367	146.000000
254.313248	145.860000
254.406128	145.440000
254.499008	145.760000
254.591904	146.700000
254.684784	147.360000
254.777664	147.540000
254.870544	147.420000
254.963440	147.120000
255.056335	147.160000
255.149216	146.780000
255.242111	147.100000
255.334991	147.580000
255.427887	147.920000
255.520767	147.760000
255.613663	147.860000
255.706558	147.440000
255.799438	146.980000
255.892334	146.380000
255.985229	146.300000
256.078125	145.840000
256.171021	145.640000
256.263916	146.180000
256.356812	146.320000
256.449707	146.100000
256.542603	146.220000
256.635498	147.020000
256.728394	146.520000
256.821289	146.680000
256.914215	147.220000
257.007080	147.400000
257.100006	147.260000
257.192932	147.760000
257.285828	147.820000
257.378723	147.720000
257.471619	147.760000
257.564545	147.180000
257.657440	147.140000
257.750336	147.480000
257.843262	146.880000
257.936157	147.860000
258.029053	148.440000
258.121979	148.140000
258.214874	147.500000
258.307800	147.720000
258.400696	146.360000
258.493622	146.260000
258.586517	145.700000
258.679443	146.120000
258.772339	145.560000
258.865265	145.520000
258.958160	144.820000
259.051086	145.760000
259.144012	145.560000
259.236938	146.540000
259.329834	146.940000
259.422791	146.920000
259.515717	146.080000
259.608612	146.040000
259.701538	145.860000
259.794464	145.520000
259.887390	145.920000
259.980316	146.060000
260.073212	145.920000
260.166138	145.360000
260.259064	145.940000
260.351990	146.080000
260.444916	146.200000
260.537842	146.520000
260.630768	147.280000
260.723694	147.140000
260.816620	147.240000
260.909546	147.320000
261.002472	146.780000
261.095398	146.040000
261.188354	145.780000
261.281281	145.320000
261.374207	145.460000
261.467133	146.420000
261.560089	146.860000
261.653015	146.640000
261.745972	147.280000
261.838867	147.500000
261.931824	147.500000
262.024780	147.060000
262.117706	147.600000
262.210663	147.600000
262.303589	147.280000
262.396515	147.140000
262.489471	148.040000
262.582397	147.560000
262.675354	146.960000
262.768280	147.020000
262.861237	146.960000
262.954163	146.540000
263.047119	146.840000
263.140045	146.620000
263.233002	146.640000
263.325958	146.280000
263.418884	145.700000
263.511841	145.900000
263.604797	146.260000
263.697723	146.340000
263.790680	146.380000
263.883636	147.140000
263.976593	146.420000
264.069550	146.540000
264.162476	146.100000
264.255463	146.400000
264.348419	146.300000
264.441376	147.080000
264.534332	146.340000
264.627289	146.720000
264.720245	146.960000
264.813202	146.500000
264.906158	146.520000
264.999115	147.360000
265.092072	147.080000
265.185028	147.240000
265.277985	147.700000
265.370941	147.240000
265.463898	146.920000
265.556854	147.220000
265.649811	146.160000
265.742798	145.980000
265.835754	146.440000
265.928711	146.900000
266.021667	146.620000
266.114655	146.920000
266.207611	147.060000
266.300568	146.240000
266.393585	145.660000
266.486511	145.800000
266.579498	145.240000
266.672485	144.940000
266.765442	145.020000
266.858429	145.740000
266.951385	145.520000
267.044342	145.860000
267.137329	145.920000
267.230316	146.480000
267.323273	146.060000
267.416260	147.000000
267.509216	147.240000
267.602203	147.360000
267.695160	147.540000
267.788147	147.580000
267.881134	146.640000
267.974091	146.800000
268.067078	146.660000
268.160065	146.220000
268.253052	145.880000
268.346008	146.160000
268.438995	145.680000
268.531982	145.880000
268.624969	145.660000
268.717987	146.180000
268.810944	145.980000
268.903961	146.400000
268.996948	146.020000
269.089905	146.920000
269.182892	146.940000
269.275879	147.400000
269.368866	147.180000
269.461853	147.580000
269.554871	147.220000
269.647858	147.140000
269.740845	147.320000
269.833832	147.560000
269.926819	147.360000
270.019806	147.100000
270.112793	146.720000
270.205811	146.720000
270.298798	146.500000
270.391785	146.880000
270.484772	146.620000
270.577789	146.500000
270.670776	145.780000
270.763763	145.960000
270.856750	145.720000
270.949768	145.660000
271.042786	145.920000
271.135773	146.480000
271.228790	146.660000
271.321808	146.520000
271.414795	146.460000
271.507782	146.300000
271.600800	145.920000
271.693817	145.880000
271.786804	146.140000
271.879822	146.520000
271.972809	146.460000
272.065826	146.800000
272.158844	146.420000
272.251831	147.020000
272.344849	146.920000
272.437866	146.740000
272.530853	146.760000
272.623871	147.060000
272.716888	145.780000
272.809906	146.000000
272.902893	146.220000
272.995911	145.500000
273.088928	145.500000
273.181946	145.840000
273.274963	145.520000
273.367981	145.220000
273.460999	145.660000
273.554047	145.820000
273.647003	146.540000
273.740051	146.720000
273.833069	147.440000
273.926086	147.420000
274.019135	147.120000
274.112152	146.320000
274.205170	146.360000
274.298187	146.340000
274.391205	145.980000
274.484222	146.020000
274.577240	146.260000
274.670258	146.280000
274.763306	146.140000
274.856323	146.780000
274.949341	146.780000
275.042358	147.180000
275.135406	147.080000
275.228424	147.140000
275.321442	146.700000
275.414490	146.580000
275.507507	146.940000
275.600525	147.480000
275.693573	147.180000
275.786591	147.120000
275.879669	147.100000
275.972656	146.280000
276.065735	145.840000
276.158752	146.520000
276.251801	147.180000
276.344818	147.180000
276.437866	147.380000
276.530884	147.280000
276.623932	146.580000
276.716980	146.680000
276.809998	147.040000
276.903046	147.020000
276.996094	147.960000
277.089111	148.420000
277.182159	148.580000
277.275208	148.080000
277.368256	147.880000
277.461304	147.100000
277.554321	146.620000
277.647369	146.460000
277.740417	146.820000
277.833466	146.900000
277.926514	146.720000
278.019562	147.360000
278.112610	146.680000
278.205688	146.800000
278.298706	147.080000
278.391785	147.060000
278.484833	146.380000
278.577881	146.540000
278.670929	146.600000
278.763977	146.720000
278.857025	147.300000
278.950073	147.640000
279.043121	147.340000
279.136169	147.280000
279.229248	146.980000
279.322296	146.560000
279.415344	146.320000
279.508392	146.460000
279.601440	146.200000
279.694519	146.140000
279.787567	146.240000
279.880615	145.940000
279.973694	146.040000
280.066742	146.360000
280.159790	146.360000
280.252869	146.000000
280.345917	146.520000
280.438995	146.460000
280.532074	146.100000
280.625122	146.420000
280.718201	147.220000
280.811279	147.300000
280.904327	147.080000
280.997406	147.300000
281.090454	147.400000
281.183533	146.840000
281.276581	146.500000
281.369659	146.700000
281.462738	146.620000
281.555786	146.380000
281.648865	146.360000
281.741943	146.460000
281.835022	146.860000
281.928070	146.700000
282.021149	146.400000
282.114227	146.340000
282.207306	146.640000
282.300385	146.840000
282.393433	147.160000
282.486511	147.320000
282.579590	147.940000
282.672668	147.880000
282.765747	147.160000
282.858856	146.700000
282.951904	146.680000
283.045013	146.540000
283.138062	146.780000
283.231171	147.260000
283.324249	147.860000
283.417328	148.200000
283.510406	147.740000
283.603485	147.300000
283.696564	147.020000
283.789642	146.840000
283.882751	146.400000
283.975830	146.860000
284.068909	146.760000
284.161987	147.580000
284.255066	147.040000
284.348175	147.220000
284.441254	147.100000
284.534332	147.240000
284.627441	146.520000
284.720520	146.380000
284.813599	146.380000
284.906708	146.160000
284.999786	145.920000
285.092896	146.140000
285.185974	147.200000
285.279053	146.860000
285.372192	147.080000
285.465240	147.700000
285.558380	147.200000
285.651459	146.560000
285.744568	147.500000
285.837677	147.080000
285.930756	146.900000
286.023865	147.000000
286.116943	146.980000
286.210052	146.840000
286.303162	146.960000
286.396240	146.880000
286.489349	146.960000
286.582458	147.160000
286.675568	146.420000
286.768646	146.380000
286.861755	146.700000
286.954865	147.040000
287.047974	146.600000
287.141083	146.820000
287.234161	146.780000
287.327271	146.220000
287.420380	146.400000
287.513519	146.480000
287.606598	146.420000
287.699738	146.640000
287.792816	146.740000
287.885956	146.560000
287.979034	146.600000
288.072174	146.720000
288.165283	146.580000
288.258392	146.720000
288.351501	146.100000
288.444611	146.400000
288.537720	146.740000
288.630859	146.720000
288.723969	146.740000
288.817078	147.040000
288.910187	146.860000
289.003296	146.380000
289.096436	145.960000
289.189545	145.920000
289.282654	145.660000
289.375763	146.120000
289.468903	146.380000
289.562012	147.020000
289.655121	146.860000
289.748260	147.400000
289.841400	147.500000
289.934509	147.360000
290.027649	147.580000
290.120728	147.580000
290.213898	147.360000
290.306976	146.920000
290.400146	146.940000
290.493256	146.340000
290.586395	146.380000
290.679535	146.700000
290.772644	146.560000
290.865784	146.120000
290.958893	146.280000
291.052032	146.020000
291.145172	145.560000
291.238281	145.460000
291.331421	145.560000
291.424561	146.080000
291.517670	145.940000
291.610809	146.220000
291.703949	146.520000
291.797089	146.840000
291.890228	145.940000
291.983337	146.380000
292.076477	146.460000
292.169617	146.440000
292.262756	146.540000
292.355927	146.680000
292.449036	146.400000
292.542206	146.300000
292.635315	146.560000
292.728485	146.700000
292.821625	146.500000
292.914764	147.580000
293.007904	147.460000
293.101044	147.060000
293.194183	146.940000
293.287323	147.400000
293.380463	146.520000
293.473602	146.440000
293.566742	146.840000
293.659882	147.100000
293.753021	147.060000
293.846191	146.840000
293.939331	146.880000
294.032471	146.900000
294.125610	146.340000
294.218781	146.740000
294.311920	147.400000
294.405060	147.280000
294.498230	146.920000
294.591370	147.160000
294.684540	146.280000
294.777679	145.880000
294.870850	146.380000
294.963959	146.420000
295.057159	146.640000
295.150299	147.420000
295.243469	147.100000
295.336609	146.260000
295.429779	146.140000
295.522919	146.220000
295.616089	146.100000
295.709229	146.780000
295.802399	147.240000
295.895569	146.940000
295.988708	146.460000
296.081879	146.240000
296.175018	145.660000
296.268188	145.940000
296.361359	146.380000
296.454529	146.520000
296.547668	146.660000
296.640839	146.860000
296.734009	146.340000
296.827179	146.540000
296.920319	146.700000
297.013519	146.460000
297.106659	146.880000
297.199860	147.020000
297.292999	146.780000
297.386200	146.580000
297.479309	146.620000
297.572510	146.240000
297.665680	146.000000
297.758850	145.880000
297.852020	145.740000
297.945190	145.560000
298.038361	145.480000
298.131531	146.440000
298.224701	146.460000
298.317871	146.400000
298.411072	146.220000
298.504242	145.920000
298.597412	145.220000
298.690582	145.640000
298.783752	145.740000
298.876923	146.240000
298.970093	146.420000
299.063293	147.060000
299.156464	146.920000
299.249634	146.920000
299.342834	147.120000
299.436005	147.460000
299.529205	147.240000
299.622345	147.520000
299.715576	147.200000
299.808716	146.680000
299.901917	146.680000
299.995117	146.260000
300.088287	146.240000
300.181488	146.120000
300.274658	146.300000
300.367828	146.100000
300.461029	146.380000
300.554199	146.480000
300.647400	146.700000
300.740601	147.040000
300.833771	147.000000
300.926971	147.320000
301.020142	146.780000
301.113342	146.920000
301.206512	146.580000
301.299713	147.000000
301.392914	146.760000
301.486084	147.520000
301.579285	147.580000
301.672516	148.200000
301.765686	147.780000
301.858887	147.680000
301.952057	147.280000
302.045288	147.280000
302.138458	147.180000
302.231659	147.120000
302.324860	147.080000
302.418060	146.820000
302.511261	146.860000
302.604462	146.880000
302.697662	146.840000
302.790863	146.860000
302.884064	146.440000
302.977264	146.480000
303.070465	146.420000
303.163666	147.320000
303.256866	147.380000
303.350067	147.640000
303.443268	147.620000
303.536469	147.600000
303.629669	146.740000
303.722870	146.800000
303.816071	146.720000
303.909271	146.780000
304.002472	146.020000
304.095673	146.040000
304.188934	145.380000
304.282104	146.240000
304.375336	146.320000
304.468506	146.580000
304.561768	146.600000
304.654968	147.420000
304.748169	146.820000
304.841370	146.400000
304.934601	146.760000
305.027802	146.680000
305.121002	146.220000
305.214233	146.380000
305.307434	146.320000
305.400665	146.860000
305.493866	146.680000
