Model Number: SPM-002-B   
Serial Number: 70087108
Firmware Version: 004.15.4
Exposure Time: 100000.000000us
Data Taken on: 11-12-2020 19:40:18.008
Wavelength	Amplitude
221.570786	0.000000
221.663406	0.000000
221.756027	0.000000
221.848648	0.000000
221.941269	0.000000
222.033905	0.000000
222.126526	0.000000
222.219162	0.000000
222.311798	0.000000
222.404419	0.000000
222.497055	0.000000
222.589676	0.000000
222.682312	0.000000
222.774933	0.000000
222.867569	0.000000
222.960205	0.000000
223.052841	0.000000
223.145462	0.000000
223.238098	0.000000
223.330734	0.000000
223.423386	0.000000
223.516022	0.000000
223.608658	0.000000
223.701309	0.000000
223.793945	0.000000
223.886581	0.000000
223.979218	0.000000
224.071869	0.000000
224.164505	0.000000
224.257156	0.000000
224.349792	0.000000
224.442444	0.000000
224.535095	0.000000
224.627747	0.000000
224.720398	0.000000
224.813034	0.000000
224.905685	0.000000
224.998337	145.880000
225.090988	145.540000
225.183640	145.360000
225.276291	145.260000
225.368942	145.360000
225.461594	145.540000
225.554245	145.840000
225.646912	145.940000
225.739578	146.600000
225.832230	146.860000
225.924896	146.220000
226.017548	146.380000
226.110199	147.060000
226.202866	146.180000
226.295532	146.200000
226.388184	146.180000
226.480850	145.380000
226.573517	144.620000
226.666168	144.480000
226.758835	144.540000
226.851501	145.040000
226.944183	145.360000
227.036850	145.060000
227.129517	145.540000
227.222183	145.660000
227.314850	145.580000
227.407516	145.840000
227.500198	146.800000
227.592865	146.700000
227.685532	146.380000
227.778214	146.160000
227.870880	146.540000
227.963562	146.700000
228.056229	147.020000
228.148926	147.080000
228.241592	148.000000
228.334274	147.720000
228.426956	147.380000
228.519638	147.300000
228.612305	146.880000
228.704987	146.420000
228.797668	146.300000
228.890350	145.920000
228.983032	145.360000
229.075714	146.280000
229.168396	146.160000
229.261108	145.980000
229.353790	146.200000
229.446472	146.620000
229.539169	146.060000
229.631851	145.780000
229.724533	145.940000
229.817230	146.060000
229.909912	147.000000
230.002609	146.960000
230.095306	146.780000
230.187988	146.820000
230.280685	146.580000
230.373383	145.080000
230.466095	144.900000
230.558792	145.320000
230.651474	145.300000
230.744171	145.360000
230.836868	145.840000
230.929581	146.440000
231.022278	146.480000
231.114975	146.380000
231.207672	146.240000
231.300369	146.460000
231.393082	146.440000
231.485779	146.140000
231.578506	146.240000
231.671204	146.100000
231.763916	145.980000
231.856613	145.420000
231.949326	145.680000
232.042023	145.580000
232.134735	145.760000
232.227448	145.520000
232.320160	146.080000
232.412872	146.220000
232.505585	147.020000
232.598297	147.760000
232.691010	147.880000
232.783722	147.260000
232.876450	147.600000
232.969162	146.860000
233.061874	146.020000
233.154587	145.400000
233.247314	145.900000
233.340027	145.240000
233.432739	145.720000
233.525467	145.760000
233.618179	146.320000
233.710907	145.900000
233.803635	146.280000
233.896347	145.720000
233.989090	146.520000
234.081818	146.520000
234.174545	147.040000
234.267258	146.820000
234.359985	147.040000
234.452713	146.500000
234.545441	146.520000
234.638168	146.180000
234.730896	146.680000
234.823639	146.660000
234.916367	146.920000
235.009094	146.740000
235.101822	146.800000
235.194580	146.260000
235.287308	146.200000
235.380051	145.580000
235.472778	145.600000
235.565521	146.120000
235.658249	145.920000
235.750992	145.920000
235.843719	146.300000
235.936462	146.540000
236.029205	145.860000
236.121948	145.760000
236.214691	146.140000
236.307449	146.680000
236.400192	146.420000
236.492935	146.540000
236.585678	146.900000
236.678421	146.920000
236.771164	146.620000
236.863907	147.140000
236.956665	147.100000
237.049408	148.280000
237.142151	147.520000
237.234909	148.120000
237.327652	148.040000
237.420410	147.820000
237.513153	146.860000
237.605927	147.100000
237.698669	146.300000
237.791428	145.640000
237.884186	146.340000
237.976944	145.840000
238.069702	146.380000
238.162445	146.120000
238.255203	146.380000
238.347961	146.580000
238.440720	146.720000
238.533478	146.160000
238.626266	145.860000
238.719025	146.300000
238.811783	145.900000
238.904541	145.820000
238.997314	146.060000
239.090073	146.140000
239.182831	145.940000
239.275604	146.520000
239.368362	146.480000
239.461136	146.380000
239.553909	146.400000
239.646667	146.180000
239.739441	145.780000
239.832214	146.060000
239.925003	145.940000
240.017761	146.480000
240.110535	147.100000
240.203308	146.920000
240.296082	147.120000
240.388855	147.280000
240.481628	147.380000
240.574417	147.180000
240.667191	146.760000
240.759964	146.300000
240.852737	146.040000
240.945526	145.540000
241.038315	145.360000
241.131088	145.760000
241.223877	146.160000
241.316650	145.940000
241.409439	146.160000
241.502228	145.620000
241.595001	146.100000
241.687790	145.700000
241.780579	145.940000
241.873367	146.260000
241.966141	146.740000
242.058929	145.960000
242.151718	146.240000
242.244507	146.540000
242.337311	145.840000
242.430099	146.380000
242.522903	146.820000
242.615692	146.120000
242.708481	146.160000
242.801270	146.580000
242.894073	145.980000
242.986862	145.940000
243.079651	146.580000
243.172455	146.200000
243.265244	146.260000
243.358063	146.120000
243.450867	146.220000
243.543655	146.320000
243.636459	146.520000
243.729263	146.620000
243.822067	146.780000
243.914856	146.940000
244.007660	146.820000
244.100464	146.960000
244.193268	146.540000
244.286072	146.660000
244.378876	145.940000
244.471680	145.680000
244.564499	145.940000
244.657318	146.380000
244.750122	146.560000
244.842926	146.340000
244.935745	146.860000
245.028549	146.140000
245.121368	145.660000
245.214172	145.440000
245.306992	146.460000
245.399796	145.920000
245.492615	146.460000
245.585434	146.600000
245.678253	146.220000
245.771072	145.720000
245.863892	146.280000
245.956711	146.220000
246.049530	146.160000
246.142349	146.280000
246.235168	146.080000
246.327988	146.400000
246.420807	146.260000
246.513626	146.460000
246.606445	146.100000
246.699280	146.200000
246.792099	145.860000
246.884918	145.620000
246.977753	145.320000
247.070587	145.840000
247.163422	146.060000
247.256241	145.920000
247.349075	146.300000
247.441895	146.560000
247.534729	146.260000
247.627563	145.820000
247.720383	146.320000
247.813217	146.220000
247.906052	145.920000
247.998886	146.240000
248.091736	146.440000
248.184570	146.180000
248.277405	146.480000
248.370239	147.500000
248.463074	148.440000
248.555908	148.740000
248.648743	148.380000
248.741592	148.140000
248.834427	147.420000
248.927261	145.960000
249.020111	146.100000
249.112946	146.680000
249.205795	146.380000
249.298630	146.440000
249.391495	146.780000
249.484344	146.500000
249.577179	146.140000
249.670029	146.700000
249.762878	147.020000
249.855728	147.020000
249.948563	146.960000
250.041412	146.460000
250.134262	146.700000
250.227112	146.720000
250.319962	146.700000
250.412827	147.000000
250.505692	146.980000
250.598541	146.600000
250.691391	146.420000
250.784241	146.580000
250.877106	146.340000
250.969955	146.340000
251.062805	146.700000
251.155670	146.960000
251.248520	146.760000
251.341385	146.960000
251.434235	147.240000
251.527100	146.760000
251.619965	146.380000
251.712814	146.880000
251.805695	146.980000
251.898560	146.960000
251.991425	146.960000
252.084290	147.100000
252.177155	146.480000
252.270020	146.040000
252.362885	145.980000
252.455750	146.220000
252.548615	145.840000
252.641479	146.160000
252.734360	146.200000
252.827240	146.220000
252.920105	146.080000
253.012970	146.100000
253.105850	146.000000
253.198715	145.560000
253.291595	145.620000
253.384460	145.320000
253.477341	145.040000
253.570221	145.280000
253.663086	145.540000
253.755966	146.120000
253.848846	146.360000
253.941727	146.880000
254.034592	146.740000
254.127472	146.580000
254.220367	146.220000
254.313248	146.420000
254.406128	145.940000
254.499008	146.020000
254.591904	146.780000
254.684784	147.320000
254.777664	146.960000
254.870544	147.080000
254.963440	147.020000
255.056335	146.960000
255.149216	146.440000
255.242111	147.040000
255.334991	147.380000
255.427887	147.640000
255.520767	147.360000
255.613663	147.340000
255.706558	146.560000
255.799438	146.340000
255.892334	145.780000
255.985229	145.520000
256.078125	145.680000
256.171021	145.780000
256.263916	146.040000
256.356812	146.580000
256.449707	147.000000
256.542603	146.580000
256.635498	147.200000
256.728394	147.360000
256.821289	146.940000
256.914215	146.980000
257.007080	147.520000
257.100006	147.400000
257.192932	147.380000
257.285828	147.680000
257.378723	147.420000
257.471619	146.860000
257.564545	146.220000
257.657440	146.120000
257.750336	146.440000
257.843262	146.180000
257.936157	147.480000
258.029053	148.080000
258.121979	147.980000
258.214874	147.600000
258.307800	147.640000
258.400696	146.160000
258.493622	145.920000
258.586517	145.360000
258.679443	145.500000
258.772339	145.500000
258.865265	145.820000
258.958160	145.580000
259.051086	146.580000
259.144012	146.280000
259.236938	147.060000
259.329834	147.320000
259.422791	146.960000
259.515717	146.080000
259.608612	146.260000
259.701538	145.980000
259.794464	145.480000
259.887390	145.820000
259.980316	145.780000
260.073212	145.540000
260.166138	144.600000
260.259064	145.200000
260.351990	145.680000
260.444916	145.700000
260.537842	146.200000
260.630768	147.180000
260.723694	147.100000
260.816620	146.940000
260.909546	147.080000
261.002472	146.420000
261.095398	145.820000
261.188354	145.500000
261.281281	145.240000
261.374207	145.580000
261.467133	146.500000
261.560089	146.900000
261.653015	146.840000
261.745972	147.440000
261.838867	147.600000
261.931824	147.640000
262.024780	146.900000
262.117706	147.220000
262.210663	147.020000
262.303589	146.680000
262.396515	146.360000
262.489471	147.480000
262.582397	147.360000
262.675354	146.760000
262.768280	146.860000
262.861237	146.740000
262.954163	146.420000
263.047119	146.580000
263.140045	146.700000
263.233002	146.820000
263.325958	146.660000
263.418884	146.280000
263.511841	146.340000
263.604797	146.160000
263.697723	145.960000
263.790680	145.720000
263.883636	146.120000
263.976593	145.480000
264.069550	145.720000
264.162476	145.480000
264.255463	145.740000
264.348419	145.600000
264.441376	146.360000
264.534332	146.000000
264.627289	146.200000
264.720245	146.760000
264.813202	146.060000
264.906158	145.800000
264.999115	146.460000
265.092072	146.440000
265.185028	146.720000
265.277985	147.360000
265.370941	147.120000
265.463898	147.060000
265.556854	147.140000
265.649811	146.000000
265.742798	146.180000
265.835754	146.300000
265.928711	146.520000
266.021667	146.520000
266.114655	147.060000
266.207611	146.920000
266.300568	146.360000
266.393585	145.620000
266.486511	145.700000
266.579498	145.080000
266.672485	145.060000
266.765442	145.140000
266.858429	145.920000
266.951385	145.320000
267.044342	145.700000
267.137329	145.580000
267.230316	145.940000
267.323273	145.660000
267.416260	146.820000
267.509216	146.860000
267.602203	147.020000
267.695160	147.680000
267.788147	147.560000
267.881134	146.900000
267.974091	147.080000
268.067078	146.660000
268.160065	145.940000
268.253052	145.860000
268.346008	145.860000
268.438995	145.420000
268.531982	145.880000
268.624969	145.940000
268.717987	146.280000
268.810944	146.140000
268.903961	146.520000
268.996948	146.260000
269.089905	146.680000
269.182892	146.880000
269.275879	147.320000
269.368866	146.760000
269.461853	146.980000
269.554871	146.580000
269.647858	146.480000
269.740845	146.780000
269.833832	147.320000
269.926819	147.040000
270.019806	147.240000
270.112793	146.360000
270.205811	146.120000
270.298798	145.700000
270.391785	146.040000
270.484772	145.800000
270.577789	146.220000
270.670776	145.720000
270.763763	145.980000
270.856750	146.060000
270.949768	145.700000
271.042786	145.920000
271.135773	146.180000
271.228790	146.000000
271.321808	145.460000
271.414795	145.320000
271.507782	145.160000
271.600800	144.940000
271.693817	145.100000
271.786804	145.620000
271.879822	146.360000
271.972809	146.080000
272.065826	146.580000
272.158844	146.200000
272.251831	146.500000
272.344849	145.980000
272.437866	145.960000
272.530853	145.820000
272.623871	146.360000
272.716888	145.340000
272.809906	145.800000
272.902893	145.660000
272.995911	145.180000
273.088928	144.980000
273.181946	145.480000
273.274963	145.100000
273.367981	145.400000
273.460999	145.660000
273.554047	146.160000
273.647003	146.920000
273.740051	147.100000
273.833069	147.600000
273.926086	147.740000
274.019135	147.240000
274.112152	146.800000
274.205170	146.860000
274.298187	146.920000
274.391205	146.460000
274.484222	146.580000
274.577240	146.460000
274.670258	146.220000
274.763306	145.920000
274.856323	146.300000
274.949341	146.540000
275.042358	146.500000
275.135406	146.480000
275.228424	146.440000
275.321442	146.440000
275.414490	145.980000
275.507507	146.720000
275.600525	147.320000
275.693573	146.820000
275.786591	146.560000
275.879669	146.640000
275.972656	145.580000
276.065735	145.100000
276.158752	145.800000
276.251801	146.400000
276.344818	146.480000
276.437866	146.740000
276.530884	146.600000
276.623932	145.980000
276.716980	145.920000
276.809998	146.140000
276.903046	146.520000
276.996094	147.480000
277.089111	148.280000
277.182159	148.440000
277.275208	147.960000
277.368256	147.460000
277.461304	147.000000
277.554321	146.260000
277.647369	146.140000
277.740417	146.200000
277.833466	146.080000
277.926514	145.800000
278.019562	146.280000
278.112610	145.600000
278.205688	145.880000
278.298706	145.980000
278.391785	145.900000
278.484833	145.380000
278.577881	145.480000
278.670929	145.700000
278.763977	145.760000
278.857025	146.260000
278.950073	146.160000
279.043121	145.880000
279.136169	145.620000
279.229248	145.220000
279.322296	144.920000
279.415344	145.080000
279.508392	145.340000
279.601440	145.380000
279.694519	145.900000
279.787567	146.120000
279.880615	146.160000
279.973694	146.020000
280.066742	146.000000
280.159790	145.920000
280.252869	145.380000
280.345917	145.580000
280.438995	145.660000
280.532074	145.540000
280.625122	145.920000
280.718201	146.700000
280.811279	146.760000
280.904327	146.960000
280.997406	147.120000
281.090454	146.840000
281.183533	145.980000
281.276581	145.700000
281.369659	145.500000
281.462738	145.780000
281.555786	145.960000
281.648865	146.360000
281.741943	146.580000
281.835022	147.000000
281.928070	146.540000
282.021149	146.420000
282.114227	146.460000
282.207306	146.360000
282.300385	146.560000
282.393433	146.620000
282.486511	146.180000
282.579590	146.500000
282.672668	146.760000
282.765747	146.180000
282.858856	146.400000
282.951904	146.800000
283.045013	147.040000
283.138062	147.280000
283.231171	147.700000
283.324249	147.740000
283.417328	147.680000
283.510406	146.800000
283.603485	146.360000
283.696564	145.940000
283.789642	145.980000
283.882751	146.020000
283.975830	146.780000
284.068909	146.640000
284.161987	147.400000
284.255066	146.520000
284.348175	146.680000
284.441254	146.280000
284.534332	146.880000
284.627441	146.220000
284.720520	146.600000
284.813599	146.520000
284.906708	146.300000
284.999786	145.280000
285.092896	145.240000
285.185974	146.000000
285.279053	145.520000
285.372192	145.620000
285.465240	146.720000
285.558380	146.580000
285.651459	145.880000
285.744568	147.060000
285.837677	146.880000
285.930756	146.620000
286.023865	146.920000
286.116943	146.640000
286.210052	146.140000
286.303162	146.060000
286.396240	145.940000
286.489349	146.000000
286.582458	146.280000
286.675568	145.760000
286.768646	146.000000
286.861755	146.180000
286.954865	146.760000
287.047974	146.440000
287.141083	146.640000
287.234161	146.380000
287.327271	146.140000
287.420380	146.220000
287.513519	146.140000
287.606598	146.120000
287.699738	146.620000
287.792816	146.640000
287.885956	145.920000
287.979034	146.480000
288.072174	146.660000
288.165283	146.480000
288.258392	146.540000
288.351501	146.160000
288.444611	146.720000
288.537720	146.980000
288.630859	146.920000
288.723969	147.000000
288.817078	147.600000
288.910187	147.000000
289.003296	146.480000
289.096436	146.280000
289.189545	146.120000
289.282654	145.880000
289.375763	146.320000
289.468903	146.760000
289.562012	147.280000
289.655121	147.340000
289.748260	147.560000
289.841400	147.460000
289.934509	147.040000
290.027649	146.980000
290.120728	146.760000
290.213898	146.640000
290.306976	146.080000
290.400146	146.260000
290.493256	145.780000
290.586395	145.880000
290.679535	146.100000
290.772644	146.220000
290.865784	145.760000
290.958893	145.980000
291.052032	146.160000
291.145172	146.040000
291.238281	146.020000
291.331421	146.160000
291.424561	146.460000
291.517670	146.080000
291.610809	146.340000
291.703949	146.260000
291.797089	146.480000
291.890228	146.100000
291.983337	146.140000
292.076477	145.680000
292.169617	145.920000
292.262756	145.900000
292.355927	145.680000
292.449036	145.440000
292.542206	145.400000
292.635315	145.380000
292.728485	145.340000
292.821625	145.280000
292.914764	146.460000
293.007904	146.760000
293.101044	146.660000
293.194183	146.620000
293.287323	146.700000
293.380463	145.880000
293.473602	145.540000
293.566742	145.760000
293.659882	146.280000
293.753021	146.660000
293.846191	146.660000
293.939331	146.260000
294.032471	146.100000
294.125610	145.540000
294.218781	145.760000
294.311920	146.220000
294.405060	146.600000
294.498230	146.760000
294.591370	147.040000
294.684540	146.440000
294.777679	146.040000
294.870850	146.360000
294.963959	146.140000
295.057159	146.000000
295.150299	146.400000
295.243469	146.520000
295.336609	146.160000
295.429779	146.280000
295.522919	146.680000
295.616089	146.400000
295.709229	146.700000
295.802399	146.920000
295.895569	146.700000
295.988708	146.300000
296.081879	146.620000
296.175018	146.040000
296.268188	145.960000
296.361359	146.440000
296.454529	146.360000
296.547668	146.300000
296.640839	146.720000
296.734009	146.640000
296.827179	146.440000
296.920319	146.860000
297.013519	146.200000
297.106659	146.240000
297.199860	146.000000
297.292999	146.020000
297.386200	145.580000
297.479309	145.720000
297.572510	145.600000
297.665680	145.380000
297.758850	145.400000
297.852020	145.520000
297.945190	145.440000
298.038361	145.200000
298.131531	146.200000
298.224701	145.820000
298.317871	145.520000
298.411072	145.560000
298.504242	145.300000
298.597412	144.720000
298.690582	145.080000
298.783752	145.080000
298.876923	145.640000
298.970093	145.940000
299.063293	146.560000
299.156464	146.760000
299.249634	147.000000
299.342834	146.940000
299.436005	147.280000
299.529205	146.800000
299.622345	146.900000
299.715576	146.560000
299.808716	146.120000
299.901917	145.980000
299.995117	146.280000
300.088287	146.180000
300.181488	146.100000
300.274658	146.240000
300.367828	146.180000
300.461029	146.040000
300.554199	146.300000
300.647400	146.660000
300.740601	147.480000
300.833771	147.200000
300.926971	147.300000
301.020142	146.440000
301.113342	146.320000
301.206512	145.980000
301.299713	146.300000
301.392914	146.340000
301.486084	147.200000
301.579285	147.400000
301.672516	147.420000
301.765686	147.220000
301.858887	147.140000
301.952057	146.740000
302.045288	146.540000
302.138458	146.380000
302.231659	146.240000
302.324860	146.100000
302.418060	145.920000
302.511261	145.920000
302.604462	146.240000
302.697662	146.120000
302.790863	146.120000
302.884064	145.820000
302.977264	145.860000
303.070465	145.880000
303.163666	146.740000
303.256866	147.060000
303.350067	147.440000
303.443268	147.440000
303.536469	147.440000
303.629669	146.620000
303.722870	146.520000
303.816071	146.280000
303.909271	146.280000
304.002472	145.380000
304.095673	145.540000
304.188934	144.900000
304.282104	145.880000
304.375336	145.880000
304.468506	146.120000
304.561768	145.960000
304.654968	146.620000
304.748169	145.920000
304.841370	146.060000
304.934601	146.480000
305.027802	146.240000
305.121002	145.960000
305.214233	146.080000
305.307434	145.940000
305.400665	146.620000
305.493866	146.560000
