Model Number: SPM-001-M   
Serial Number: 10090201
Firmware Version: 004.17.6
Exposure Time: 500000.000000us
Data Taken on: 10-03-2021 10:34:37.995
Wavelength	Amplitude
733.770752	0.000000
733.808716	0.000000
733.846619	0.000000
733.884583	0.000000
733.922546	0.000000
733.960449	0.000000
733.998413	0.000000
734.036377	0.000000
734.074219	0.000000
734.112183	0.000000
734.150085	0.000000
734.188049	0.000000
734.226013	0.000000
734.263916	0.000000
734.301819	0.000000
734.339783	0.000000
734.377686	0.000000
734.415588	0.000000
734.453552	0.000000
734.491455	0.000000
734.529419	0.000000
734.567322	0.000000
734.605225	0.000000
734.643127	0.000000
734.681091	0.000000
734.718994	0.000000
734.756897	0.000000
734.794800	0.000000
734.832703	0.000000
734.870667	0.000000
734.908508	0.000000
734.946472	0.000000
734.984375	0.000000
735.022278	0.000000
735.060181	0.000000
735.098083	0.000000
735.135986	0.000000
735.173889	0.000000
735.211792	0.000000
735.249695	0.000000
735.287598	0.000000
735.325439	0.000000
735.363403	0.000000
735.401306	0.000000
735.439148	0.000000
735.477051	0.000000
735.515015	0.000000
735.552856	0.000000
735.590759	0.000000
735.628662	0.000000
735.666504	0.000000
735.704407	0.000000
735.742310	0.000000
735.780212	0.000000
735.818115	0.000000
735.856018	0.000000
735.893860	0.000000
735.931763	0.000000
735.969604	0.000000
736.007507	0.000000
736.045410	0.000000
736.083252	0.000000
736.121094	0.000000
736.158997	0.000000
736.196838	0.000000
736.234741	0.000000
736.272644	0.000000
736.310486	0.000000
736.348389	0.000000
736.386230	0.000000
736.424072	0.000000
736.461975	0.000000
736.499878	0.000000
736.537720	0.000000
736.575562	0.000000
736.613403	0.000000
736.651306	0.000000
736.689148	0.000000
736.726990	0.000000
736.764893	0.000000
736.802734	0.000000
736.840576	0.000000
736.878418	0.000000
736.916321	0.000000
736.954102	0.000000
736.992004	0.000000
737.029846	0.000000
737.067688	0.000000
737.105530	0.000000
737.143372	0.000000
737.181213	0.000000
737.219116	0.000000
737.256897	0.000000
737.294739	0.000000
737.332642	0.000000
737.370422	0.000000
737.408325	0.000000
737.446167	0.000000
737.483948	0.000000
737.521790	0.000000
737.559692	0.000000
737.597473	0.000000
737.635315	0.000000
737.673157	0.000000
737.710999	0.000000
737.748840	0.000000
737.786621	0.000000
737.824463	0.000000
737.862305	0.000000
737.900085	0.000000
737.937927	0.000000
737.975769	0.000000
738.013550	0.000000
738.051392	0.000000
738.089233	0.000000
738.127014	0.000000
738.164856	0.000000
738.202698	0.000000
738.240479	0.000000
738.278320	0.000000
738.316162	0.000000
738.353943	0.000000
738.391785	0.000000
738.429565	0.000000
738.467407	0.000000
738.505188	0.000000
738.542969	0.000000
738.580811	0.000000
738.618652	0.000000
738.656372	0.000000
738.694214	0.000000
738.732056	0.000000
738.769836	0.000000
738.807617	0.000000
738.845459	0.000000
738.883240	0.000000
738.921021	0.000000
738.958862	0.000000
738.996582	0.000000
739.034424	0.000000
739.072205	0.000000
739.109985	0.000000
739.147827	0.000000
739.185547	0.000000
739.223389	0.000000
739.261169	0.000000
739.298889	0.000000
739.336731	0.000000
739.374512	0.000000
739.412292	0.000000
739.450073	0.000000
739.487854	0.000000
739.525635	0.000000
739.563416	0.000000
739.601135	0.000000
739.638977	0.000000
739.676758	0.000000
739.714478	0.000000
739.752258	0.000000
739.790100	0.000000
739.827820	0.000000
739.865601	0.000000
739.903381	0.000000
739.941101	0.000000
739.978882	196.300000
740.016724	191.500000
740.054443	198.700000
740.092224	190.100000
740.130005	190.100000
740.167725	189.800000
740.205505	190.500000
740.243225	200.400000
740.281006	194.100000
740.318787	186.500000
740.356506	199.900000
740.394287	197.700000
740.432068	189.100000
740.469727	186.300000
740.507507	198.000000
740.545288	192.300000
740.583008	194.200000
740.620789	193.100000
740.658569	184.300000
740.696228	193.200000
740.734009	198.900000
740.771790	181.100000
740.809509	196.700000
740.847229	188.000000
740.884949	190.500000
740.922729	184.500000
740.960449	191.600000
740.998169	186.500000
741.035950	188.900000
741.073669	192.900000
741.111389	191.700000
741.149170	202.300000
741.186890	202.200000
741.224609	196.200000
741.262329	194.500000
741.300110	203.500000
741.337769	187.800000
741.375549	186.000000
741.413208	194.900000
741.450989	188.200000
741.488708	190.600000
741.526367	190.600000
741.564148	196.300000
741.601868	197.800000
741.639526	193.200000
741.677307	194.900000
741.715027	195.400000
741.752686	189.100000
741.790466	200.400000
741.828186	198.200000
741.865845	187.700000
741.903564	183.400000
741.941345	192.900000
741.979004	189.100000
742.016724	195.200000
742.054382	194.400000
742.092102	198.900000
742.129822	184.900000
742.167480	189.800000
742.205200	191.300000
742.242920	194.900000
742.280640	198.500000
742.318359	187.900000
742.356079	189.700000
742.393738	196.300000
742.431396	191.800000
742.469116	196.800000
742.506775	182.100000
742.544495	196.300000
742.582214	197.100000
742.619873	192.400000
742.657593	200.700000
742.695251	196.800000
742.732971	190.500000
742.770630	194.000000
742.808289	191.500000
742.846008	192.500000
742.883728	195.300000
742.921326	192.900000
742.959045	189.700000
742.996765	193.900000
743.034424	191.900000
743.072083	190.300000
743.109802	192.300000
743.147400	186.100000
743.185120	194.600000
743.222839	192.800000
743.260437	199.000000
743.298157	194.600000
743.335754	184.600000
743.373474	190.700000
743.411133	185.300000
743.448792	194.300000
743.486450	194.200000
743.524170	185.900000
743.561768	193.300000
743.599487	198.700000
743.637146	205.000000
743.674744	191.900000
743.712463	189.800000
743.750122	194.800000
743.787720	196.200000
743.825439	189.400000
743.863037	191.800000
743.900696	192.700000
743.938416	218.300000
743.976013	192.100000
744.013672	201.200000
744.051331	199.400000
744.088928	201.500000
744.126587	198.400000
744.164307	193.000000
744.201904	189.500000
744.239563	196.500000
744.277222	195.000000
744.314819	192.500000
744.352478	199.900000
744.390137	194.600000
744.427734	195.100000
744.465393	189.600000
744.502991	188.300000
744.540649	196.300000
744.578308	193.200000
744.615906	187.200000
744.653564	183.000000
744.691223	196.500000
744.728821	185.800000
744.766418	193.800000
744.804077	195.400000
744.841675	189.100000
744.879333	185.600000
744.916992	191.300000
744.954529	189.400000
744.992187	199.000000
745.029785	192.400000
745.067444	189.500000
745.105042	193.400000
745.142639	196.200000
745.180298	201.900000
745.217896	191.600000
745.255493	192.200000
745.293152	197.100000
745.330750	197.400000
745.368347	201.400000
745.405945	196.200000
745.443604	195.500000
745.481140	197.400000
745.518799	191.700000
745.556396	197.000000
745.593994	197.500000
745.631592	192.700000
745.669189	189.100000
745.706787	193.500000
745.744385	190.300000
745.781982	195.800000
745.819580	188.900000
745.857178	191.400000
745.894775	193.500000
745.932373	193.800000
745.969971	195.100000
746.007568	184.800000
746.045166	202.300000
746.082764	197.600000
746.120300	197.000000
746.157898	196.000000
746.195557	193.900000
746.233093	185.800000
746.270691	195.900000
746.308228	194.300000
746.345825	196.800000
746.383423	196.700000
746.420959	188.100000
746.458557	189.300000
746.496155	190.700000
746.533691	192.100000
746.571289	186.900000
746.608887	193.700000
746.646423	193.200000
746.684021	193.900000
746.721619	191.500000
746.759155	194.200000
746.796753	186.200000
746.834351	187.200000
746.871826	188.700000
746.909424	200.300000
746.946960	195.200000
746.984558	191.700000
747.022156	192.600000
747.059631	200.100000
747.097229	194.400000
747.134827	191.800000
747.172363	200.800000
747.209900	196.600000
747.247498	187.400000
747.285034	199.900000
747.322571	201.200000
747.360168	191.400000
747.397644	185.700000
747.435242	197.900000
747.472778	198.800000
747.510315	191.900000
747.547913	190.700000
747.585388	201.500000
747.622925	194.200000
747.660522	183.600000
747.697998	188.200000
747.735596	193.200000
747.773132	189.600000
747.810669	192.500000
747.848206	196.500000
747.885742	187.600000
747.923279	188.500000
747.960815	194.200000
747.998352	193.000000
748.035889	198.300000
748.073425	198.200000
748.110901	188.700000
748.148437	188.600000
748.185974	193.000000
748.223511	203.100000
748.261047	193.400000
748.298584	195.300000
748.336060	191.800000
748.373596	196.000000
748.411133	211.500000
748.448608	189.700000
748.486145	197.500000
748.523682	199.700000
748.561218	198.600000
748.598755	193.900000
748.636292	197.300000
748.673706	190.700000
748.711243	200.000000
748.748718	195.300000
748.786255	193.100000
748.823792	194.000000
748.861267	188.300000
748.898804	196.000000
748.936340	194.800000
748.973816	191.800000
749.011292	198.900000
749.048828	195.300000
749.086304	196.600000
749.123840	206.200000
749.161316	188.000000
749.198792	203.600000
749.236328	199.900000
749.273743	193.100000
749.311279	192.100000
749.348816	197.200000
749.386230	193.500000
749.423767	183.100000
749.461304	195.200000
749.498718	194.600000
749.536255	200.300000
749.573730	206.700000
749.611206	199.700000
749.648682	192.800000
749.686218	193.300000
749.723633	197.800000
749.761169	190.600000
749.798645	189.500000
749.836060	191.700000
749.873596	189.600000
749.911011	192.100000
749.948547	199.200000
749.986023	193.200000
750.023437	192.700000
750.060913	186.600000
750.098450	186.800000
750.135864	192.300000
750.173340	194.600000
750.210815	198.200000
750.248291	188.400000
750.285767	193.500000
750.323242	200.200000
750.360657	194.700000
750.398132	189.700000
750.435608	199.700000
750.473022	189.300000
750.510498	188.700000
750.547974	189.100000
750.585449	192.000000
750.622925	181.900000
750.660339	203.000000
750.697815	193.700000
750.735291	193.800000
750.772644	194.800000
750.810120	193.500000
750.847595	196.300000
750.885010	189.500000
750.922485	203.000000
750.959961	191.700000
750.997375	200.200000
751.034851	198.500000
751.072266	199.000000
751.109680	186.200000
751.147156	198.100000
751.184570	197.100000
751.221985	195.300000
751.259460	185.000000
751.296875	192.600000
751.334290	194.300000
751.371765	198.500000
751.409180	197.000000
751.446594	199.400000
751.484070	196.100000
751.521423	195.000000
751.558899	194.000000
751.596375	200.900000
751.633728	200.800000
751.671204	206.800000
751.708618	188.800000
751.746033	194.700000
751.783447	187.500000
751.820801	189.700000
751.858276	194.900000
751.895691	192.800000
751.933105	190.200000
751.970520	188.800000
752.007935	191.400000
752.045349	197.700000
752.082764	194.500000
752.120178	191.800000
752.157532	188.500000
752.195007	190.600000
752.232422	196.100000
752.269775	198.800000
752.307190	196.800000
752.344543	190.400000
752.382019	193.100000
752.419434	193.600000
752.456787	194.600000
752.494202	198.500000
752.531616	196.900000
752.568970	199.300000
752.606384	195.100000
752.643799	195.900000
752.681152	204.000000
752.718567	196.700000
752.755981	185.900000
752.793335	196.800000
752.830750	184.900000
752.868164	200.100000
752.905518	189.500000
752.942932	197.600000
752.980225	188.900000
753.017639	198.500000
753.055054	192.100000
753.092407	196.700000
753.129822	200.400000
753.167175	204.100000
753.204529	192.700000
753.241943	191.300000
753.279358	187.800000
753.316650	196.600000
753.354065	196.000000
753.391479	197.200000
753.428772	202.100000
753.466187	197.800000
753.503479	186.800000
753.540894	191.000000
753.578308	187.800000
753.615601	187.500000
753.653015	193.600000
753.690369	192.200000
753.727722	189.400000
753.765076	186.900000
753.802490	189.400000
753.839783	184.400000
753.877136	192.200000
753.914551	210.100000
753.951843	187.500000
753.989258	198.100000
754.026611	195.500000
754.063904	194.700000
754.101257	190.900000
754.138611	186.100000
754.175964	195.500000
754.213318	206.300000
754.250610	188.000000
754.288025	191.600000
754.325378	188.900000
754.362671	199.400000
754.400024	192.100000
754.437378	203.700000
754.474670	204.500000
754.512085	190.400000
754.549438	195.500000
754.586731	191.200000
754.624084	193.200000
754.661438	188.800000
754.698730	201.700000
754.736084	192.000000
754.773376	194.200000
754.810730	197.200000
754.848083	192.500000
754.885315	197.100000
754.922668	186.000000
754.960022	189.100000
754.997314	199.200000
755.034668	194.600000
755.072021	195.700000
755.109253	191.300000
755.146606	201.600000
755.183960	191.800000
755.221252	204.500000
755.258545	201.000000
755.295898	202.000000
755.333191	204.300000
755.370544	199.500000
755.407776	195.100000
755.445129	195.600000
755.482422	201.100000
755.519714	192.000000
755.557068	188.900000
755.594360	187.900000
755.631653	200.600000
755.668945	205.300000
755.706299	200.600000
755.743530	208.600000
755.780884	205.700000
755.818176	203.400000
755.855408	203.900000
755.892761	199.500000
755.930054	199.700000
755.967346	200.200000
756.004639	203.000000
756.041870	199.500000
756.079224	204.600000
756.116516	195.600000
756.153748	204.400000
756.191040	207.700000
756.228394	203.700000
756.265625	195.800000
756.302917	202.000000
756.340210	196.000000
756.377441	206.000000
756.414795	207.000000
756.452087	199.400000
756.489319	195.400000
756.526611	204.300000
756.563843	201.700000
756.601135	212.500000
756.638428	208.900000
756.675659	201.600000
756.712952	206.800000
756.750244	206.300000
756.787476	203.200000
756.824768	209.200000
756.862061	200.100000
756.899292	248.900000
756.936584	206.900000
756.973816	213.500000
757.011047	215.000000
757.048340	205.200000
757.085632	203.600000
757.122864	219.900000
757.160156	203.100000
757.197327	206.000000
757.234619	209.300000
757.271912	202.900000
757.309082	209.400000
757.346375	201.200000
757.383667	210.900000
757.420837	206.000000
757.458130	205.800000
757.495422	205.200000
757.532593	208.200000
757.569885	198.800000
757.607117	200.800000
757.644348	207.600000
757.681580	220.400000
757.718811	194.600000
757.756042	206.500000
757.793335	204.800000
757.830505	210.200000
757.867798	203.200000
757.905029	204.700000
757.942200	208.000000
757.979492	204.500000
758.016724	206.700000
758.053894	205.500000
758.091187	225.500000
758.128418	209.500000
758.165588	207.300000
758.202820	219.700000
758.240112	204.200000
758.277283	220.100000
758.314514	209.900000
758.351685	206.800000
758.388916	219.500000
758.426147	217.500000
758.463379	218.700000
758.500610	212.800000
758.537842	210.800000
758.575012	217.900000
758.612244	207.000000
758.649475	223.100000
758.686646	203.000000
758.723877	216.800000
758.761108	218.500000
758.798279	211.300000
758.835510	213.000000
758.872742	217.600000
758.909851	215.400000
758.947083	215.600000
758.984253	215.600000
759.021484	218.400000
759.058716	217.800000
759.095886	216.500000
759.133057	213.500000
759.170288	217.500000
759.207458	209.800000
759.244690	225.000000
759.281860	225.200000
759.319031	214.400000
759.356262	213.300000
759.393433	213.500000
759.430603	214.300000
759.467773	215.000000
759.505005	222.700000
759.542175	221.900000
759.579346	214.800000
759.616516	217.800000
759.653687	219.800000
759.690918	212.300000
759.728027	218.700000
759.765259	218.600000
759.802429	219.200000
759.839539	219.100000
759.876770	223.600000
759.913940	227.000000
759.951111	220.200000
759.988281	217.800000
760.025452	215.000000
760.062561	212.800000
760.099792	226.400000
760.136963	220.000000
760.174072	218.000000
760.211243	212.100000
760.248413	213.700000
760.285583	213.100000
760.322754	231.200000
760.359863	226.300000
760.397034	227.100000
760.434204	218.300000
760.471375	220.500000
760.508545	218.500000
760.545715	219.200000
760.582825	215.400000
760.619995	225.700000
760.657166	214.700000
760.694275	229.300000
760.731445	224.800000
760.768555	224.900000
760.805664	226.000000
760.842834	225.900000
760.879944	227.900000
760.917114	224.200000
760.954285	223.400000
760.991394	219.000000
761.028564	230.500000
761.065674	229.200000
761.102783	220.900000
761.139954	230.400000
761.177124	231.500000
761.214172	233.100000
761.251343	226.100000
761.288452	227.500000
761.325562	232.300000
761.362732	226.000000
761.399841	230.100000
761.436951	232.100000
761.474121	227.100000
761.511169	230.500000
761.548340	237.200000
761.585449	234.400000
761.622559	235.000000
761.659668	233.300000
761.696838	240.200000
761.733887	236.000000
761.771057	232.800000
761.808167	235.500000
761.845276	240.100000
761.882385	247.400000
761.919434	237.500000
761.956604	255.700000
761.993713	233.700000
762.030762	243.500000
762.067871	238.400000
762.105042	235.900000
762.142090	246.900000
762.179199	241.600000
762.216309	244.900000
762.253418	257.400000
762.290527	251.200000
762.327637	246.800000
762.364685	236.200000
762.401794	248.500000
762.438904	245.000000
762.475952	240.100000
762.513062	239.200000
762.550110	242.100000
762.587219	253.400000
762.624329	255.000000
762.661377	248.900000
762.698486	249.000000
762.735596	247.700000
762.772644	241.600000
762.809753	239.000000
762.846863	249.000000
762.883911	252.100000
762.921021	252.600000
762.958069	250.000000
762.995117	258.200000
763.032227	259.300000
763.069336	251.300000
763.106323	247.300000
763.143433	247.200000
763.180481	253.100000
763.217590	255.000000
763.254639	250.700000
763.291687	253.200000
763.328735	260.800000
763.365845	256.800000
763.402893	252.400000
763.439941	258.400000
763.477051	260.700000
763.514038	261.400000
763.551147	255.100000
763.588196	259.500000
763.625244	255.800000
763.662292	265.700000
763.699402	266.900000
763.736389	263.400000
763.773499	271.300000
763.810486	265.100000
763.847534	262.700000
763.884644	267.400000
763.921631	261.500000
763.958679	272.500000
763.995728	262.700000
764.032776	272.900000
764.069824	258.600000
764.106873	267.700000
764.143860	277.400000
764.180969	268.600000
764.218018	275.900000
764.255005	267.900000
764.292053	271.400000
764.329102	280.700000
764.366089	280.600000
764.403137	279.400000
764.440125	269.500000
764.477173	272.600000
764.514221	275.500000
764.551208	273.700000
764.588257	269.200000
764.625305	282.000000
764.662292	286.200000
764.699341	290.300000
764.736389	282.100000
764.773376	296.200000
764.810425	285.600000
764.847473	291.200000
764.884399	286.200000
764.921448	294.400000
764.958435	293.500000
764.995483	282.700000
765.032532	299.600000
765.069458	284.400000
765.106506	285.800000
765.143555	285.300000
765.180481	290.500000
765.217529	296.500000
765.254578	282.400000
765.291504	291.600000
765.328552	291.400000
765.365540	285.700000
765.402527	301.900000
765.439575	285.500000
765.476501	282.800000
765.513550	285.300000
765.550537	289.700000
765.587463	297.600000
765.624512	290.000000
765.661499	281.400000
765.698486	298.800000
765.735474	288.600000
765.772461	291.800000
765.809448	299.700000
765.846436	298.500000
765.883423	304.600000
765.920410	297.800000
765.957397	291.200000
765.994385	297.900000
766.031311	307.000000
766.068359	299.900000
766.105286	301.600000
766.142273	307.100000
766.179260	304.700000
766.216187	295.800000
766.253174	294.900000
766.290161	303.600000
766.327148	306.500000
766.364136	306.500000
766.401123	324.100000
766.438049	301.100000
766.475037	317.800000
766.512024	311.500000
766.548950	328.200000
766.585937	322.900000
766.622864	317.800000
766.659790	316.500000
766.696777	306.200000
766.733704	322.100000
766.770691	312.700000
766.807678	326.900000
766.844604	323.300000
766.881531	324.400000
766.918518	333.300000
766.955444	332.200000
766.992432	326.900000
767.029358	331.300000
767.066284	333.800000
767.103271	331.500000
767.140198	360.900000
767.177124	343.300000
767.214050	339.800000
767.251038	340.500000
767.287964	338.200000
767.324890	336.600000
767.361816	341.100000
767.398743	347.200000
767.435730	340.900000
767.472595	346.100000
767.509583	352.200000
767.546509	339.300000
767.583374	349.600000
767.620361	340.800000
767.657288	349.000000
767.694214	348.100000
767.731140	348.600000
767.768066	349.800000
767.804993	356.900000
767.841919	347.800000
767.878845	353.700000
767.915710	362.800000
767.952698	354.300000
767.989563	359.000000
768.026489	360.400000
