Model Number: SPM-001-M   
Serial Number: 10090201
Firmware Version: 004.17.6
Exposure Time: 500000.000000us
Data Taken on: 10-03-2021 10:38:50.495
Wavelength	Amplitude
733.770752	0.000000
733.808716	0.000000
733.846619	0.000000
733.884583	0.000000
733.922546	0.000000
733.960449	0.000000
733.998413	0.000000
734.036377	0.000000
734.074219	0.000000
734.112183	0.000000
734.150085	0.000000
734.188049	0.000000
734.226013	0.000000
734.263916	0.000000
734.301819	0.000000
734.339783	0.000000
734.377686	0.000000
734.415588	0.000000
734.453552	0.000000
734.491455	0.000000
734.529419	0.000000
734.567322	0.000000
734.605225	0.000000
734.643127	0.000000
734.681091	0.000000
734.718994	0.000000
734.756897	0.000000
734.794800	0.000000
734.832703	0.000000
734.870667	0.000000
734.908508	0.000000
734.946472	0.000000
734.984375	0.000000
735.022278	0.000000
735.060181	0.000000
735.098083	0.000000
735.135986	0.000000
735.173889	0.000000
735.211792	0.000000
735.249695	0.000000
735.287598	0.000000
735.325439	0.000000
735.363403	0.000000
735.401306	0.000000
735.439148	0.000000
735.477051	0.000000
735.515015	0.000000
735.552856	0.000000
735.590759	0.000000
735.628662	0.000000
735.666504	0.000000
735.704407	0.000000
735.742310	0.000000
735.780212	0.000000
735.818115	0.000000
735.856018	0.000000
735.893860	0.000000
735.931763	0.000000
735.969604	0.000000
736.007507	0.000000
736.045410	0.000000
736.083252	0.000000
736.121094	0.000000
736.158997	0.000000
736.196838	0.000000
736.234741	0.000000
736.272644	0.000000
736.310486	0.000000
736.348389	0.000000
736.386230	0.000000
736.424072	0.000000
736.461975	0.000000
736.499878	0.000000
736.537720	0.000000
736.575562	0.000000
736.613403	0.000000
736.651306	0.000000
736.689148	0.000000
736.726990	0.000000
736.764893	0.000000
736.802734	0.000000
736.840576	0.000000
736.878418	0.000000
736.916321	0.000000
736.954102	0.000000
736.992004	0.000000
737.029846	0.000000
737.067688	0.000000
737.105530	0.000000
737.143372	0.000000
737.181213	0.000000
737.219116	0.000000
737.256897	0.000000
737.294739	0.000000
737.332642	0.000000
737.370422	0.000000
737.408325	0.000000
737.446167	0.000000
737.483948	0.000000
737.521790	0.000000
737.559692	0.000000
737.597473	0.000000
737.635315	0.000000
737.673157	0.000000
737.710999	0.000000
737.748840	0.000000
737.786621	0.000000
737.824463	0.000000
737.862305	0.000000
737.900085	0.000000
737.937927	0.000000
737.975769	0.000000
738.013550	0.000000
738.051392	0.000000
738.089233	0.000000
738.127014	0.000000
738.164856	0.000000
738.202698	0.000000
738.240479	0.000000
738.278320	0.000000
738.316162	0.000000
738.353943	0.000000
738.391785	0.000000
738.429565	0.000000
738.467407	0.000000
738.505188	0.000000
738.542969	0.000000
738.580811	0.000000
738.618652	0.000000
738.656372	0.000000
738.694214	0.000000
738.732056	0.000000
738.769836	0.000000
738.807617	0.000000
738.845459	0.000000
738.883240	0.000000
738.921021	0.000000
738.958862	0.000000
738.996582	0.000000
739.034424	0.000000
739.072205	0.000000
739.109985	0.000000
739.147827	0.000000
739.185547	0.000000
739.223389	0.000000
739.261169	0.000000
739.298889	0.000000
739.336731	0.000000
739.374512	0.000000
739.412292	0.000000
739.450073	0.000000
739.487854	0.000000
739.525635	0.000000
739.563416	0.000000
739.601135	0.000000
739.638977	0.000000
739.676758	0.000000
739.714478	0.000000
739.752258	0.000000
739.790100	0.000000
739.827820	0.000000
739.865601	0.000000
739.903381	0.000000
739.941101	0.000000
739.978882	196.400000
740.016724	191.400000
740.054443	198.000000
740.092224	189.300000
740.130005	190.200000
740.167725	190.200000
740.205505	188.300000
740.243225	199.000000
740.281006	193.000000
740.318787	186.000000
740.356506	198.100000
740.394287	197.000000
740.432068	187.700000
740.469727	187.800000
740.507507	197.200000
740.545288	193.000000
740.583008	195.300000
740.620789	193.900000
740.658569	183.800000
740.696228	191.400000
740.734009	199.600000
740.771790	179.600000
740.809509	197.900000
740.847229	186.100000
740.884949	190.100000
740.922729	185.900000
740.960449	190.700000
740.998169	186.700000
741.035950	188.700000
741.073669	192.500000
741.111389	193.400000
741.149170	201.900000
741.186890	203.100000
741.224609	194.400000
741.262329	194.500000
741.300110	203.300000
741.337769	187.600000
741.375549	185.200000
741.413208	194.300000
741.450989	187.500000
741.488708	189.700000
741.526367	189.300000
741.564148	195.100000
741.601868	196.700000
741.639526	191.700000
741.677307	194.500000
741.715027	195.600000
741.752686	187.700000
741.790466	200.700000
741.828186	197.000000
741.865845	187.900000
741.903564	183.700000
741.941345	192.800000
741.979004	188.300000
742.016724	195.000000
742.054382	194.800000
742.092102	200.000000
742.129822	185.300000
742.167480	190.400000
742.205200	191.300000
742.242920	194.900000
742.280640	197.400000
742.318359	188.500000
742.356079	190.900000
742.393738	195.500000
742.431396	190.600000
742.469116	196.300000
742.506775	182.000000
742.544495	194.800000
742.582214	197.700000
742.619873	192.100000
742.657593	199.400000
742.695251	195.400000
742.732971	193.200000
742.770630	193.000000
742.808289	193.200000
742.846008	190.800000
742.883728	196.200000
742.921326	192.200000
742.959045	189.400000
742.996765	191.900000
743.034424	193.100000
743.072083	189.400000
743.109802	191.100000
743.147400	186.200000
743.185120	193.200000
743.222839	191.400000
743.260437	198.600000
743.298157	193.900000
743.335754	185.000000
743.373474	190.000000
743.411133	184.400000
743.448792	193.000000
743.486450	193.000000
743.524170	185.700000
743.561768	191.800000
743.599487	198.700000
743.637146	204.300000
743.674744	190.300000
743.712463	190.400000
743.750122	194.400000
743.787720	195.300000
743.825439	188.700000
743.863037	190.700000
743.900696	193.200000
743.938416	216.300000
743.976013	191.000000
744.013672	201.300000
744.051331	198.000000
744.088928	201.600000
744.126587	199.500000
744.164307	192.900000
744.201904	189.300000
744.239563	196.500000
744.277222	195.300000
744.314819	191.500000
744.352478	200.200000
744.390137	194.900000
744.427734	194.600000
744.465393	189.900000
744.502991	187.600000
744.540649	196.400000
744.578308	194.800000
744.615906	187.100000
744.653564	182.100000
744.691223	195.800000
744.728821	185.600000
744.766418	191.000000
744.804077	196.500000
744.841675	189.100000
744.879333	184.500000
744.916992	192.800000
744.954529	191.200000
744.992187	198.100000
745.029785	190.700000
745.067444	189.500000
745.105042	194.000000
745.142639	195.000000
745.180298	202.300000
745.217896	189.900000
745.255493	192.500000
745.293152	195.700000
745.330750	196.700000
745.368347	201.000000
745.405945	196.500000
745.443604	193.800000
745.481140	197.000000
745.518799	191.300000
745.556396	196.800000
745.593994	196.900000
745.631592	192.400000
745.669189	187.800000
745.706787	195.200000
745.744385	189.300000
745.781982	195.400000
745.819580	190.400000
745.857178	191.300000
745.894775	192.700000
745.932373	195.300000
745.969971	192.500000
746.007568	183.800000
746.045166	201.200000
746.082764	198.300000
746.120300	197.300000
746.157898	195.400000
746.195557	191.900000
746.233093	186.100000
746.270691	195.900000
746.308228	194.600000
746.345825	197.300000
746.383423	195.700000
746.420959	188.000000
746.458557	189.800000
746.496155	191.000000
746.533691	190.200000
746.571289	187.500000
746.608887	192.200000
746.646423	193.000000
746.684021	192.200000
746.721619	190.600000
746.759155	193.700000
746.796753	185.900000
746.834351	186.400000
746.871826	188.200000
746.909424	199.400000
746.946960	194.500000
746.984558	191.300000
747.022156	190.400000
747.059631	200.300000
747.097229	194.900000
747.134827	191.600000
747.172363	200.800000
747.209900	194.200000
747.247498	188.400000
747.285034	201.400000
747.322571	200.300000
747.360168	192.400000
747.397644	185.600000
747.435242	196.300000
747.472778	199.800000
747.510315	191.600000
747.547913	190.900000
747.585388	200.800000
747.622925	193.600000
747.660522	183.200000
747.697998	187.800000
747.735596	192.000000
747.773132	190.200000
747.810669	194.000000
747.848206	196.700000
747.885742	186.000000
747.923279	187.400000
747.960815	194.800000
747.998352	192.900000
748.035889	198.800000
748.073425	197.400000
748.110901	190.700000
748.148437	188.300000
748.185974	193.500000
748.223511	201.800000
748.261047	194.200000
748.298584	193.600000
748.336060	193.600000
748.373596	195.400000
748.411133	210.800000
748.448608	188.700000
748.486145	197.500000
748.523682	199.000000
748.561218	199.500000
748.598755	193.100000
748.636292	196.800000
748.673706	189.800000
748.711243	200.200000
748.748718	194.300000
748.786255	192.500000
748.823792	192.100000
748.861267	188.700000
748.898804	195.200000
748.936340	195.700000
748.973816	190.500000
749.011292	199.600000
749.048828	195.400000
749.086304	195.900000
749.123840	204.500000
749.161316	188.000000
749.198792	204.600000
749.236328	200.500000
749.273743	193.600000
749.311279	191.000000
749.348816	195.200000
749.386230	193.200000
749.423767	181.300000
749.461304	196.500000
749.498718	195.300000
749.536255	199.800000
749.573730	207.200000
749.611206	199.400000
749.648682	192.700000
749.686218	192.300000
749.723633	198.100000
749.761169	189.800000
749.798645	189.600000
749.836060	191.100000
749.873596	190.600000
749.911011	192.200000
749.948547	199.800000
749.986023	193.100000
750.023437	192.500000
750.060913	185.800000
750.098450	187.000000
750.135864	190.800000
750.173340	194.500000
750.210815	197.400000
750.248291	186.300000
750.285767	193.100000
750.323242	199.800000
750.360657	194.700000
750.398132	187.800000
750.435608	197.800000
750.473022	189.200000
750.510498	188.100000
750.547974	188.600000
750.585449	190.100000
750.622925	182.400000
750.660339	203.400000
750.697815	193.600000
750.735291	192.300000
750.772644	194.400000
750.810120	193.600000
750.847595	195.100000
750.885010	189.600000
750.922485	202.800000
750.959961	192.600000
750.997375	199.900000
751.034851	196.500000
751.072266	199.300000
751.109680	186.500000
751.147156	198.400000
751.184570	196.300000
751.221985	195.000000
751.259460	183.700000
751.296875	192.400000
751.334290	194.300000
751.371765	198.300000
751.409180	197.700000
751.446594	199.100000
751.484070	196.300000
751.521423	195.600000
751.558899	195.400000
751.596375	200.800000
751.633728	200.200000
751.671204	205.700000
751.708618	188.600000
751.746033	192.900000
751.783447	186.700000
751.820801	188.700000
751.858276	196.400000
751.895691	191.500000
751.933105	189.800000
751.970520	186.600000
752.007935	190.800000
752.045349	196.400000
752.082764	193.000000
752.120178	190.700000
752.157532	189.200000
752.195007	189.100000
752.232422	196.000000
752.269775	196.800000
752.307190	195.900000
752.344543	189.600000
752.382019	191.400000
752.419434	190.900000
752.456787	194.500000
752.494202	197.400000
752.531616	194.900000
752.568970	197.900000
752.606384	194.500000
752.643799	195.400000
752.681152	204.000000
752.718567	196.000000
752.755981	185.200000
752.793335	195.700000
752.830750	184.700000
752.868164	199.100000
752.905518	188.300000
752.942932	198.600000
752.980225	188.200000
753.017639	198.300000
753.055054	191.600000
753.092407	195.900000
753.129822	198.900000
753.167175	203.800000
753.204529	191.900000
753.241943	190.500000
753.279358	186.100000
753.316650	197.500000
753.354065	195.400000
753.391479	196.500000
753.428772	201.300000
753.466187	196.000000
753.503479	186.000000
753.540894	191.000000
753.578308	188.000000
753.615601	186.800000
753.653015	192.500000
753.690369	191.500000
753.727722	187.400000
753.765076	186.200000
753.802490	186.800000
753.839783	184.500000
753.877136	190.300000
753.914551	209.300000
753.951843	187.600000
753.989258	196.200000
754.026611	193.000000
754.063904	194.300000
754.101257	188.700000
754.138611	185.100000
754.175964	193.600000
754.213318	204.700000
754.250610	185.300000
754.288025	190.600000
754.325378	188.100000
754.362671	199.100000
754.400024	191.200000
754.437378	201.300000
754.474670	204.700000
754.512085	190.300000
754.549438	194.500000
754.586731	190.600000
754.624084	192.200000
754.661438	188.300000
754.698730	202.800000
754.736084	192.100000
754.773376	192.700000
754.810730	195.700000
754.848083	193.200000
754.885315	197.800000
754.922668	185.200000
754.960022	188.200000
754.997314	197.300000
755.034668	194.700000
755.072021	195.300000
755.109253	190.500000
755.146606	201.200000
755.183960	192.800000
755.221252	202.900000
755.258545	199.200000
755.295898	201.200000
755.333191	200.500000
755.370544	197.700000
755.407776	193.000000
755.445129	195.900000
755.482422	199.400000
755.519714	191.900000
755.557068	186.800000
755.594360	187.200000
755.631653	198.100000
755.668945	202.900000
755.706299	197.200000
755.743530	207.700000
755.780884	203.200000
755.818176	201.700000
755.855408	200.700000
755.892761	199.700000
755.930054	196.100000
755.967346	197.700000
756.004639	199.800000
756.041870	195.500000
756.079224	201.300000
756.116516	194.300000
756.153748	201.700000
756.191040	204.600000
756.228394	200.700000
756.265625	193.300000
756.302917	197.400000
756.340210	193.400000
756.377441	204.500000
756.414795	205.500000
756.452087	197.800000
756.489319	191.800000
756.526611	202.200000
756.563843	199.400000
756.601135	210.300000
756.638428	206.900000
756.675659	198.500000
756.712952	203.500000
756.750244	202.300000
756.787476	200.600000
756.824768	207.700000
756.862061	197.200000
756.899292	246.000000
756.936584	203.600000
756.973816	211.100000
757.011047	211.400000
757.048340	201.700000
757.085632	200.400000
757.122864	215.300000
757.160156	197.700000
757.197327	203.100000
757.234619	205.800000
757.271912	199.700000
757.309082	206.600000
757.346375	199.700000
757.383667	207.500000
757.420837	202.800000
757.458130	203.600000
757.495422	202.000000
757.532593	204.900000
757.569885	194.600000
757.607117	198.100000
757.644348	203.900000
757.681580	215.200000
757.718811	191.000000
757.756042	202.700000
757.793335	198.400000
757.830505	206.800000
757.867798	202.400000
757.905029	200.900000
757.942200	205.700000
757.979492	200.500000
758.016724	202.500000
758.053894	201.700000
758.091187	223.600000
758.128418	204.700000
758.165588	203.600000
758.202820	216.600000
758.240112	202.900000
758.277283	216.300000
758.314514	207.300000
758.351685	202.700000
758.388916	216.400000
758.426147	212.500000
758.463379	214.600000
758.500610	208.800000
758.537842	207.200000
758.575012	214.100000
758.612244	202.200000
758.649475	220.400000
758.686646	200.300000
758.723877	213.900000
758.761108	215.800000
758.798279	207.000000
758.835510	210.300000
758.872742	214.500000
758.909851	210.200000
758.947083	211.800000
758.984253	210.700000
759.021484	214.000000
759.058716	213.400000
759.095886	214.000000
759.133057	209.100000
759.170288	213.600000
759.207458	205.100000
759.244690	222.800000
759.281860	217.900000
759.319031	209.400000
759.356262	209.300000
759.393433	209.300000
759.430603	208.200000
759.467773	210.300000
759.505005	218.200000
759.542175	217.700000
759.579346	210.200000
759.616516	213.300000
759.653687	214.600000
759.690918	209.800000
759.728027	212.800000
759.765259	214.100000
759.802429	216.400000
759.839539	214.800000
759.876770	218.700000
759.913940	222.500000
759.951111	215.500000
759.988281	213.900000
760.025452	211.800000
760.062561	208.200000
760.099792	221.800000
760.136963	215.300000
760.174072	213.100000
760.211243	206.800000
760.248413	210.300000
760.285583	209.600000
760.322754	226.900000
760.359863	220.900000
760.397034	222.500000
760.434204	211.800000
760.471375	216.800000
760.508545	212.200000
760.545715	215.600000
760.582825	209.000000
760.619995	221.200000
760.657166	209.100000
760.694275	223.000000
760.731445	218.600000
760.768555	218.700000
760.805664	219.800000
760.842834	220.000000
760.879944	221.000000
760.917114	220.900000
760.954285	217.900000
760.991394	212.200000
761.028564	224.200000
761.065674	222.900000
761.102783	214.200000
761.139954	223.800000
761.177124	224.500000
761.214172	226.600000
761.251343	219.900000
761.288452	221.600000
761.325562	225.100000
761.362732	219.000000
761.399841	223.200000
761.436951	226.900000
761.474121	219.900000
761.511169	222.700000
761.548340	228.300000
761.585449	228.200000
761.622559	230.100000
761.659668	227.600000
761.696838	234.000000
761.733887	228.400000
761.771057	224.500000
761.808167	228.000000
761.845276	232.500000
761.882385	240.600000
761.919434	229.400000
761.956604	250.200000
761.993713	226.100000
762.030762	237.600000
762.067871	229.400000
762.105042	229.100000
762.142090	238.800000
762.179199	232.600000
762.216309	238.400000
762.253418	249.200000
762.290527	242.900000
762.327637	238.100000
762.364685	229.400000
762.401794	240.300000
762.438904	237.500000
762.475952	230.700000
762.513062	231.800000
762.550110	230.700000
762.587219	246.400000
762.624329	246.600000
762.661377	240.000000
762.698486	238.100000
762.735596	239.900000
762.772644	232.500000
762.809753	230.700000
762.846863	240.200000
762.883911	243.400000
762.921021	241.900000
762.958069	241.100000
762.995117	248.700000
763.032227	249.400000
763.069336	241.000000
763.106323	237.400000
763.143433	236.700000
763.180481	244.100000
763.217590	245.500000
763.254639	241.500000
763.291687	244.200000
763.328735	251.600000
763.365845	243.300000
763.402893	243.400000
763.439941	246.500000
763.477051	250.000000
763.514038	251.800000
763.551147	244.500000
763.588196	248.600000
763.625244	245.900000
763.662292	254.900000
763.699402	257.700000
763.736389	254.200000
763.773499	262.000000
763.810486	255.800000
763.847534	251.700000
763.884644	256.300000
763.921631	250.700000
763.958679	263.200000
763.995728	251.900000
764.032776	261.600000
764.069824	247.200000
764.106873	258.500000
764.143860	263.600000
764.180969	255.000000
764.218018	265.500000
764.255005	254.500000
764.292053	258.100000
764.329102	271.000000
764.366089	267.600000
764.403137	265.700000
764.440125	256.400000
764.477173	260.000000
764.514221	261.900000
764.551208	259.900000
764.588257	254.400000
764.625305	268.700000
764.662292	272.100000
764.699341	276.700000
764.736389	267.200000
764.773376	283.500000
764.810425	270.200000
764.847473	279.700000
764.884399	272.000000
764.921448	281.500000
764.958435	279.900000
764.995483	268.500000
765.032532	286.700000
765.069458	271.600000
765.106506	273.000000
765.143555	268.500000
765.180481	276.100000
765.217529	283.100000
765.254578	267.600000
765.291504	278.900000
765.328552	276.300000
765.365540	270.800000
765.402527	289.000000
765.439575	272.800000
765.476501	267.600000
765.513550	269.000000
765.550537	275.900000
765.587463	283.300000
765.624512	273.900000
765.661499	264.400000
765.698486	283.900000
765.735474	272.700000
765.772461	276.400000
765.809448	286.000000
765.846436	283.200000
765.883423	284.900000
765.920410	281.200000
765.957397	275.300000
765.994385	282.200000
766.031311	291.000000
766.068359	285.300000
766.105286	284.800000
766.142273	291.700000
766.179260	285.600000
766.216187	279.600000
766.253174	276.000000
766.290161	287.200000
766.327148	290.600000
766.364136	289.500000
766.401123	305.900000
766.438049	284.500000
766.475037	298.500000
766.512024	294.100000
766.548950	308.600000
766.585937	302.600000
766.622864	300.200000
766.659790	298.600000
766.696777	288.000000
766.733704	304.700000
766.770691	294.700000
766.807678	312.800000
766.844604	306.400000
766.881531	305.400000
766.918518	311.600000
766.955444	314.100000
766.992432	307.900000
767.029358	309.700000
767.066284	313.000000
767.103271	310.400000
767.140198	340.200000
767.177124	326.800000
767.214050	319.000000
767.251038	318.300000
767.287964	315.900000
767.324890	312.800000
767.361816	320.100000
767.398743	326.300000
767.435730	321.400000
767.472595	323.500000
767.509583	328.500000
767.546509	317.600000
767.583374	324.600000
767.620361	318.700000
767.657288	326.300000
767.694214	327.900000
767.731140	324.700000
767.768066	326.200000
767.804993	331.300000
767.841919	321.300000
767.878845	332.200000
767.915710	338.200000
767.952698	332.500000
767.989563	333.900000
768.026489	336.700000
