Model Number: SPM-001-M   
Serial Number: 10090201
Firmware Version: 004.17.6
Exposure Time: 500000.000000us
Data Taken on: 10-03-2021 10:42:03.994
Wavelength	Amplitude
733.770752	0.000000
733.808716	0.000000
733.846619	0.000000
733.884583	0.000000
733.922546	0.000000
733.960449	0.000000
733.998413	0.000000
734.036377	0.000000
734.074219	0.000000
734.112183	0.000000
734.150085	0.000000
734.188049	0.000000
734.226013	0.000000
734.263916	0.000000
734.301819	0.000000
734.339783	0.000000
734.377686	0.000000
734.415588	0.000000
734.453552	0.000000
734.491455	0.000000
734.529419	0.000000
734.567322	0.000000
734.605225	0.000000
734.643127	0.000000
734.681091	0.000000
734.718994	0.000000
734.756897	0.000000
734.794800	0.000000
734.832703	0.000000
734.870667	0.000000
734.908508	0.000000
734.946472	0.000000
734.984375	0.000000
735.022278	0.000000
735.060181	0.000000
735.098083	0.000000
735.135986	0.000000
735.173889	0.000000
735.211792	0.000000
735.249695	0.000000
735.287598	0.000000
735.325439	0.000000
735.363403	0.000000
735.401306	0.000000
735.439148	0.000000
735.477051	0.000000
735.515015	0.000000
735.552856	0.000000
735.590759	0.000000
735.628662	0.000000
735.666504	0.000000
735.704407	0.000000
735.742310	0.000000
735.780212	0.000000
735.818115	0.000000
735.856018	0.000000
735.893860	0.000000
735.931763	0.000000
735.969604	0.000000
736.007507	0.000000
736.045410	0.000000
736.083252	0.000000
736.121094	0.000000
736.158997	0.000000
736.196838	0.000000
736.234741	0.000000
736.272644	0.000000
736.310486	0.000000
736.348389	0.000000
736.386230	0.000000
736.424072	0.000000
736.461975	0.000000
736.499878	0.000000
736.537720	0.000000
736.575562	0.000000
736.613403	0.000000
736.651306	0.000000
736.689148	0.000000
736.726990	0.000000
736.764893	0.000000
736.802734	0.000000
736.840576	0.000000
736.878418	0.000000
736.916321	0.000000
736.954102	0.000000
736.992004	0.000000
737.029846	0.000000
737.067688	0.000000
737.105530	0.000000
737.143372	0.000000
737.181213	0.000000
737.219116	0.000000
737.256897	0.000000
737.294739	0.000000
737.332642	0.000000
737.370422	0.000000
737.408325	0.000000
737.446167	0.000000
737.483948	0.000000
737.521790	0.000000
737.559692	0.000000
737.597473	0.000000
737.635315	0.000000
737.673157	0.000000
737.710999	0.000000
737.748840	0.000000
737.786621	0.000000
737.824463	0.000000
737.862305	0.000000
737.900085	0.000000
737.937927	0.000000
737.975769	0.000000
738.013550	0.000000
738.051392	0.000000
738.089233	0.000000
738.127014	0.000000
738.164856	0.000000
738.202698	0.000000
738.240479	0.000000
738.278320	0.000000
738.316162	0.000000
738.353943	0.000000
738.391785	0.000000
738.429565	0.000000
738.467407	0.000000
738.505188	0.000000
738.542969	0.000000
738.580811	0.000000
738.618652	0.000000
738.656372	0.000000
738.694214	0.000000
738.732056	0.000000
738.769836	0.000000
738.807617	0.000000
738.845459	0.000000
738.883240	0.000000
738.921021	0.000000
738.958862	0.000000
738.996582	0.000000
739.034424	0.000000
739.072205	0.000000
739.109985	0.000000
739.147827	0.000000
739.185547	0.000000
739.223389	0.000000
739.261169	0.000000
739.298889	0.000000
739.336731	0.000000
739.374512	0.000000
739.412292	0.000000
739.450073	0.000000
739.487854	0.000000
739.525635	0.000000
739.563416	0.000000
739.601135	0.000000
739.638977	0.000000
739.676758	0.000000
739.714478	0.000000
739.752258	0.000000
739.790100	0.000000
739.827820	0.000000
739.865601	0.000000
739.903381	0.000000
739.941101	0.000000
739.978882	196.300000
740.016724	192.400000
740.054443	197.200000
740.092224	189.900000
740.130005	188.600000
740.167725	190.400000
740.205505	189.500000
740.243225	199.600000
740.281006	193.300000
740.318787	185.400000
740.356506	197.100000
740.394287	197.900000
740.432068	189.600000
740.469727	186.400000
740.507507	196.100000
740.545288	192.100000
740.583008	194.200000
740.620789	193.800000
740.658569	183.900000
740.696228	191.200000
740.734009	198.400000
740.771790	180.900000
740.809509	196.400000
740.847229	188.100000
740.884949	189.900000
740.922729	185.500000
740.960449	190.100000
740.998169	188.000000
741.035950	189.400000
741.073669	195.000000
741.111389	192.200000
741.149170	202.800000
741.186890	202.900000
741.224609	196.500000
741.262329	193.900000
741.300110	204.200000
741.337769	187.500000
741.375549	188.000000
741.413208	192.900000
741.450989	188.800000
741.488708	190.500000
741.526367	190.400000
741.564148	196.400000
741.601868	197.500000
741.639526	193.000000
741.677307	195.000000
741.715027	194.300000
741.752686	188.400000
741.790466	199.100000
741.828186	196.000000
741.865845	189.400000
741.903564	185.300000
741.941345	191.700000
741.979004	188.600000
742.016724	195.600000
742.054382	193.700000
742.092102	198.400000
742.129822	185.100000
742.167480	190.700000
742.205200	190.400000
742.242920	193.000000
742.280640	195.100000
742.318359	189.000000
742.356079	189.500000
742.393738	197.300000
742.431396	191.500000
742.469116	195.800000
742.506775	182.000000
742.544495	195.100000
742.582214	196.700000
742.619873	192.200000
742.657593	199.500000
742.695251	197.500000
742.732971	191.700000
742.770630	194.300000
742.808289	192.500000
742.846008	193.400000
742.883728	195.100000
742.921326	192.600000
742.959045	189.900000
742.996765	192.000000
743.034424	192.300000
743.072083	190.900000
743.109802	191.400000
743.147400	185.900000
743.185120	194.400000
743.222839	192.600000
743.260437	199.200000
743.298157	195.500000
743.335754	184.500000
743.373474	191.900000
743.411133	184.500000
743.448792	193.700000
743.486450	192.400000
743.524170	184.600000
743.561768	193.000000
743.599487	198.600000
743.637146	203.700000
743.674744	191.200000
743.712463	189.800000
743.750122	191.700000
743.787720	197.000000
743.825439	189.300000
743.863037	189.900000
743.900696	191.600000
743.938416	217.200000
743.976013	190.800000
744.013672	201.900000
744.051331	197.700000
744.088928	201.700000
744.126587	198.900000
744.164307	193.500000
744.201904	189.900000
744.239563	197.200000
744.277222	195.200000
744.314819	192.500000
744.352478	199.800000
744.390137	195.900000
744.427734	195.100000
744.465393	191.000000
744.502991	188.000000
744.540649	196.400000
744.578308	192.600000
744.615906	186.500000
744.653564	181.600000
744.691223	198.100000
744.728821	184.200000
744.766418	193.900000
744.804077	195.800000
744.841675	189.100000
744.879333	186.200000
744.916992	192.600000
744.954529	189.100000
744.992187	197.700000
745.029785	190.900000
745.067444	189.500000
745.105042	193.200000
745.142639	195.600000
745.180298	201.400000
745.217896	191.700000
745.255493	191.800000
745.293152	196.800000
745.330750	196.100000
745.368347	200.600000
745.405945	194.600000
745.443604	193.900000
745.481140	197.300000
745.518799	189.400000
745.556396	196.400000
745.593994	196.800000
745.631592	192.300000
745.669189	187.400000
745.706787	196.000000
745.744385	187.700000
745.781982	195.400000
745.819580	190.000000
745.857178	191.200000
745.894775	193.000000
745.932373	193.700000
745.969971	192.500000
746.007568	184.100000
746.045166	202.500000
746.082764	197.600000
746.120300	197.200000
746.157898	197.200000
746.195557	192.800000
746.233093	187.200000
746.270691	195.600000
746.308228	195.100000
746.345825	196.300000
746.383423	197.200000
746.420959	187.500000
746.458557	190.300000
746.496155	190.600000
746.533691	193.100000
746.571289	187.100000
746.608887	194.400000
746.646423	192.800000
746.684021	193.600000
746.721619	189.600000
746.759155	194.000000
746.796753	185.800000
746.834351	187.400000
746.871826	188.800000
746.909424	200.200000
746.946960	195.000000
746.984558	192.000000
747.022156	191.800000
747.059631	199.200000
747.097229	195.200000
747.134827	191.300000
747.172363	200.700000
747.209900	195.200000
747.247498	186.900000
747.285034	200.400000
747.322571	200.200000
747.360168	190.800000
747.397644	186.100000
747.435242	196.700000
747.472778	200.500000
747.510315	190.900000
747.547913	190.800000
747.585388	199.600000
747.622925	194.300000
747.660522	183.100000
747.697998	189.600000
747.735596	191.900000
747.773132	189.300000
747.810669	192.200000
747.848206	197.100000
747.885742	187.000000
747.923279	187.300000
747.960815	195.200000
747.998352	192.900000
748.035889	196.900000
748.073425	199.900000
748.110901	189.900000
748.148437	189.600000
748.185974	192.700000
748.223511	203.800000
748.261047	193.800000
748.298584	195.300000
748.336060	191.200000
748.373596	196.400000
748.411133	210.700000
748.448608	190.000000
748.486145	196.400000
748.523682	201.300000
748.561218	198.000000
748.598755	193.800000
748.636292	196.400000
748.673706	191.400000
748.711243	199.400000
748.748718	194.900000
748.786255	191.900000
748.823792	192.900000
748.861267	187.800000
748.898804	196.700000
748.936340	194.900000
748.973816	191.000000
749.011292	199.200000
749.048828	194.700000
749.086304	196.900000
749.123840	204.200000
749.161316	187.100000
749.198792	201.300000
749.236328	199.300000
749.273743	192.400000
749.311279	190.900000
749.348816	194.900000
749.386230	193.900000
749.423767	181.000000
749.461304	196.300000
749.498718	193.700000
749.536255	199.900000
749.573730	205.400000
749.611206	200.400000
749.648682	192.700000
749.686218	192.500000
749.723633	198.100000
749.761169	191.100000
749.798645	188.900000
749.836060	191.700000
749.873596	189.800000
749.911011	193.400000
749.948547	199.800000
749.986023	193.100000
750.023437	191.000000
750.060913	188.400000
750.098450	187.700000
750.135864	192.700000
750.173340	192.700000
750.210815	199.000000
750.248291	186.500000
750.285767	194.000000
750.323242	200.700000
750.360657	195.600000
750.398132	188.000000
750.435608	199.000000
750.473022	189.700000
750.510498	189.900000
750.547974	188.900000
750.585449	191.600000
750.622925	182.400000
750.660339	201.800000
750.697815	192.500000
750.735291	192.300000
750.772644	194.100000
750.810120	194.200000
750.847595	196.000000
750.885010	187.800000
750.922485	202.500000
750.959961	192.300000
750.997375	200.700000
751.034851	198.200000
751.072266	199.300000
751.109680	186.300000
751.147156	199.500000
751.184570	196.300000
751.221985	196.400000
751.259460	184.900000
751.296875	193.400000
751.334290	193.800000
751.371765	199.000000
751.409180	195.300000
751.446594	200.800000
751.484070	195.000000
751.521423	195.400000
751.558899	193.500000
751.596375	201.700000
751.633728	198.000000
751.671204	206.800000
751.708618	188.500000
751.746033	193.300000
751.783447	186.900000
751.820801	190.000000
751.858276	194.800000
751.895691	193.500000
751.933105	191.100000
751.970520	188.700000
752.007935	190.300000
752.045349	197.300000
752.082764	192.600000
752.120178	190.900000
752.157532	188.100000
752.195007	191.000000
752.232422	195.600000
752.269775	200.500000
752.307190	196.500000
752.344543	190.000000
752.382019	191.300000
752.419434	192.000000
752.456787	194.800000
752.494202	198.100000
752.531616	195.700000
752.568970	198.600000
752.606384	194.900000
752.643799	194.400000
752.681152	202.400000
752.718567	196.500000
752.755981	185.900000
752.793335	195.400000
752.830750	186.400000
752.868164	199.500000
752.905518	188.000000
752.942932	197.400000
752.980225	187.800000
753.017639	198.300000
753.055054	192.600000
753.092407	194.900000
753.129822	199.100000
753.167175	202.700000
753.204529	193.100000
753.241943	189.900000
753.279358	186.600000
753.316650	196.900000
753.354065	194.600000
753.391479	198.100000
753.428772	203.300000
753.466187	198.000000
753.503479	186.900000
753.540894	192.100000
753.578308	188.600000
753.615601	186.700000
753.653015	193.700000
753.690369	192.000000
753.727722	188.800000
753.765076	186.300000
753.802490	188.300000
753.839783	184.500000
753.877136	191.900000
753.914551	208.300000
753.951843	189.800000
753.989258	196.000000
754.026611	195.900000
754.063904	194.900000
754.101257	187.800000
754.138611	184.700000
754.175964	194.600000
754.213318	204.900000
754.250610	187.200000
754.288025	191.300000
754.325378	187.700000
754.362671	199.500000
754.400024	190.600000
754.437378	202.500000
754.474670	203.300000
754.512085	190.400000
754.549438	195.000000
754.586731	191.700000
754.624084	191.100000
754.661438	188.800000
754.698730	201.000000
754.736084	191.200000
754.773376	192.500000
754.810730	195.700000
754.848083	190.600000
754.885315	198.100000
754.922668	185.600000
754.960022	188.700000
754.997314	197.500000
755.034668	194.800000
755.072021	194.900000
755.109253	192.200000
755.146606	200.100000
755.183960	191.900000
755.221252	201.500000
755.258545	200.000000
755.295898	199.000000
755.333191	201.600000
755.370544	196.500000
755.407776	193.700000
755.445129	193.000000
755.482422	199.300000
755.519714	190.000000
755.557068	187.800000
755.594360	185.300000
755.631653	199.700000
755.668945	204.200000
755.706299	196.300000
755.743530	207.400000
755.780884	203.900000
755.818176	200.500000
755.855408	201.600000
755.892761	195.900000
755.930054	196.700000
755.967346	198.800000
756.004639	200.700000
756.041870	197.100000
756.079224	201.500000
756.116516	192.200000
756.153748	202.000000
756.191040	203.700000
756.228394	199.500000
756.265625	193.000000
756.302917	198.400000
756.340210	194.000000
756.377441	202.400000
756.414795	204.800000
756.452087	196.600000
756.489319	191.300000
756.526611	200.000000
756.563843	198.900000
756.601135	207.600000
756.638428	208.200000
756.675659	198.400000
756.712952	204.300000
756.750244	201.700000
756.787476	200.200000
756.824768	205.400000
756.862061	196.200000
756.899292	245.000000
756.936584	204.800000
756.973816	210.600000
757.011047	210.800000
757.048340	200.600000
757.085632	201.400000
757.122864	215.000000
757.160156	197.800000
757.197327	202.400000
757.234619	205.300000
757.271912	200.400000
757.309082	205.700000
757.346375	198.500000
757.383667	208.500000
757.420837	203.600000
757.458130	203.000000
757.495422	199.600000
757.532593	205.900000
757.569885	194.000000
757.607117	197.500000
757.644348	204.400000
757.681580	214.300000
757.718811	190.000000
757.756042	203.000000
757.793335	199.500000
757.830505	204.900000
757.867798	199.800000
757.905029	199.100000
757.942200	203.900000
757.979492	198.900000
758.016724	202.400000
758.053894	200.800000
758.091187	221.300000
758.128418	203.300000
758.165588	202.400000
758.202820	215.600000
758.240112	202.200000
758.277283	215.300000
758.314514	206.600000
758.351685	200.900000
758.388916	215.400000
758.426147	213.000000
758.463379	216.200000
758.500610	208.000000
758.537842	207.400000
758.575012	211.900000
758.612244	202.000000
758.649475	217.200000
758.686646	201.400000
758.723877	214.300000
758.761108	216.200000
758.798279	205.700000
758.835510	210.100000
758.872742	214.000000
758.909851	212.200000
758.947083	210.200000
758.984253	211.000000
759.021484	213.000000
759.058716	212.700000
759.095886	212.800000
759.133057	207.800000
759.170288	213.100000
759.207458	207.600000
759.244690	220.600000
759.281860	219.900000
759.319031	207.100000
759.356262	207.600000
759.393433	208.700000
759.430603	208.500000
759.467773	209.000000
759.505005	216.600000
759.542175	215.600000
759.579346	209.000000
759.616516	210.600000
759.653687	214.600000
759.690918	208.000000
759.728027	212.600000
759.765259	212.800000
759.802429	215.000000
759.839539	213.600000
759.876770	218.700000
759.913940	222.500000
759.951111	211.800000
759.988281	212.800000
760.025452	209.300000
760.062561	208.400000
760.099792	220.900000
760.136963	216.700000
760.174072	211.200000
760.211243	205.500000
760.248413	207.700000
760.285583	209.100000
760.322754	224.000000
760.359863	221.300000
760.397034	222.000000
760.434204	211.700000
760.471375	214.200000
760.508545	214.000000
760.545715	213.300000
760.582825	209.800000
760.619995	220.100000
760.657166	208.200000
760.694275	220.000000
760.731445	217.200000
760.768555	218.500000
760.805664	220.500000
760.842834	217.400000
760.879944	221.100000
760.917114	217.900000
760.954285	218.000000
760.991394	210.700000
761.028564	225.500000
761.065674	222.000000
761.102783	214.500000
761.139954	224.400000
761.177124	225.000000
761.214172	226.000000
761.251343	218.600000
761.288452	220.300000
761.325562	225.000000
761.362732	218.200000
761.399841	220.600000
761.436951	223.300000
761.474121	217.300000
761.511169	222.900000
761.548340	228.500000
761.585449	226.400000
761.622559	227.300000
761.659668	223.700000
761.696838	229.700000
761.733887	228.000000
761.771057	223.000000
761.808167	225.600000
761.845276	229.000000
761.882385	238.900000
761.919434	228.500000
761.956604	248.200000
761.993713	222.100000
762.030762	236.600000
762.067871	225.800000
762.105042	228.200000
762.142090	235.400000
762.179199	230.700000
762.216309	233.400000
762.253418	245.900000
762.290527	242.500000
762.327637	237.500000
762.364685	226.100000
762.401794	237.900000
762.438904	235.200000
762.475952	229.300000
762.513062	229.000000
762.550110	229.200000
762.587219	244.700000
762.624329	245.700000
762.661377	236.600000
762.698486	238.600000
762.735596	235.800000
762.772644	230.900000
762.809753	227.900000
762.846863	236.700000
762.883911	240.900000
762.921021	242.500000
762.958069	238.900000
762.995117	246.800000
763.032227	247.100000
763.069336	238.500000
763.106323	233.600000
763.143433	234.800000
763.180481	241.700000
763.217590	242.700000
763.254639	239.100000
763.291687	240.100000
763.328735	249.200000
763.365845	240.900000
763.402893	241.300000
763.439941	244.700000
763.477051	246.300000
763.514038	247.500000
763.551147	241.100000
763.588196	245.000000
763.625244	242.400000
763.662292	251.000000
763.699402	255.100000
763.736389	248.600000
763.773499	258.600000
763.810486	252.700000
763.847534	249.400000
763.884644	254.200000
763.921631	249.000000
763.958679	261.400000
763.995728	250.500000
764.032776	257.900000
764.069824	245.400000
764.106873	255.200000
764.143860	261.700000
764.180969	253.500000
764.218018	261.100000
764.255005	250.700000
764.292053	254.900000
764.329102	265.600000
764.366089	265.000000
764.403137	262.200000
764.440125	252.700000
764.477173	256.500000
764.514221	260.600000
764.551208	256.600000
764.588257	253.300000
764.625305	263.100000
764.662292	270.100000
764.699341	273.200000
764.736389	263.800000
764.773376	278.700000
764.810425	266.200000
764.847473	273.100000
764.884399	268.400000
764.921448	277.800000
764.958435	274.900000
764.995483	264.300000
765.032532	283.300000
765.069458	265.700000
765.106506	267.200000
765.143555	265.700000
765.180481	269.500000
765.217529	279.900000
765.254578	260.800000
765.291504	274.300000
765.328552	270.300000
765.365540	267.600000
765.402527	280.600000
765.439575	268.000000
765.476501	263.400000
765.513550	266.900000
765.550537	269.900000
765.587463	278.000000
765.624512	270.500000
765.661499	262.700000
765.698486	280.500000
765.735474	268.800000
765.772461	273.100000
765.809448	279.900000
765.846436	278.700000
765.883423	283.500000
765.920410	277.200000
765.957397	272.300000
765.994385	277.700000
766.031311	287.200000
766.068359	280.300000
766.105286	280.300000
766.142273	285.700000
766.179260	282.600000
766.216187	275.800000
766.253174	271.100000
766.290161	281.000000
766.327148	285.600000
766.364136	286.000000
766.401123	300.600000
766.438049	280.000000
766.475037	295.100000
766.512024	291.200000
766.548950	304.700000
766.585937	299.200000
766.622864	294.300000
766.659790	293.200000
766.696777	282.300000
766.733704	300.900000
766.770691	290.600000
766.807678	304.600000
766.844604	299.800000
766.881531	299.600000
766.918518	305.500000
766.955444	307.300000
766.992432	301.300000
767.029358	304.200000
767.066284	307.900000
767.103271	303.900000
767.140198	333.600000
767.177124	321.000000
767.214050	312.700000
767.251038	312.900000
767.287964	309.600000
767.324890	307.800000
767.361816	313.600000
767.398743	320.900000
767.435730	313.600000
767.472595	317.100000
767.509583	323.700000
767.546509	311.200000
767.583374	318.200000
767.620361	311.100000
767.657288	319.400000
767.694214	318.000000
767.731140	318.400000
767.768066	319.300000
767.804993	324.700000
767.841919	315.400000
767.878845	322.500000
767.915710	330.200000
767.952698	323.700000
767.989563	327.600000
768.026489	327.800000
