Model Number: SPM-001-M   
Serial Number: 10090201
Firmware Version: 004.17.6
Exposure Time: 500000.000000us
Data Taken on: 10-03-2021 10:36:33.998
Wavelength	Amplitude
733.770752	0.000000
733.808716	0.000000
733.846619	0.000000
733.884583	0.000000
733.922546	0.000000
733.960449	0.000000
733.998413	0.000000
734.036377	0.000000
734.074219	0.000000
734.112183	0.000000
734.150085	0.000000
734.188049	0.000000
734.226013	0.000000
734.263916	0.000000
734.301819	0.000000
734.339783	0.000000
734.377686	0.000000
734.415588	0.000000
734.453552	0.000000
734.491455	0.000000
734.529419	0.000000
734.567322	0.000000
734.605225	0.000000
734.643127	0.000000
734.681091	0.000000
734.718994	0.000000
734.756897	0.000000
734.794800	0.000000
734.832703	0.000000
734.870667	0.000000
734.908508	0.000000
734.946472	0.000000
734.984375	0.000000
735.022278	0.000000
735.060181	0.000000
735.098083	0.000000
735.135986	0.000000
735.173889	0.000000
735.211792	0.000000
735.249695	0.000000
735.287598	0.000000
735.325439	0.000000
735.363403	0.000000
735.401306	0.000000
735.439148	0.000000
735.477051	0.000000
735.515015	0.000000
735.552856	0.000000
735.590759	0.000000
735.628662	0.000000
735.666504	0.000000
735.704407	0.000000
735.742310	0.000000
735.780212	0.000000
735.818115	0.000000
735.856018	0.000000
735.893860	0.000000
735.931763	0.000000
735.969604	0.000000
736.007507	0.000000
736.045410	0.000000
736.083252	0.000000
736.121094	0.000000
736.158997	0.000000
736.196838	0.000000
736.234741	0.000000
736.272644	0.000000
736.310486	0.000000
736.348389	0.000000
736.386230	0.000000
736.424072	0.000000
736.461975	0.000000
736.499878	0.000000
736.537720	0.000000
736.575562	0.000000
736.613403	0.000000
736.651306	0.000000
736.689148	0.000000
736.726990	0.000000
736.764893	0.000000
736.802734	0.000000
736.840576	0.000000
736.878418	0.000000
736.916321	0.000000
736.954102	0.000000
736.992004	0.000000
737.029846	0.000000
737.067688	0.000000
737.105530	0.000000
737.143372	0.000000
737.181213	0.000000
737.219116	0.000000
737.256897	0.000000
737.294739	0.000000
737.332642	0.000000
737.370422	0.000000
737.408325	0.000000
737.446167	0.000000
737.483948	0.000000
737.521790	0.000000
737.559692	0.000000
737.597473	0.000000
737.635315	0.000000
737.673157	0.000000
737.710999	0.000000
737.748840	0.000000
737.786621	0.000000
737.824463	0.000000
737.862305	0.000000
737.900085	0.000000
737.937927	0.000000
737.975769	0.000000
738.013550	0.000000
738.051392	0.000000
738.089233	0.000000
738.127014	0.000000
738.164856	0.000000
738.202698	0.000000
738.240479	0.000000
738.278320	0.000000
738.316162	0.000000
738.353943	0.000000
738.391785	0.000000
738.429565	0.000000
738.467407	0.000000
738.505188	0.000000
738.542969	0.000000
738.580811	0.000000
738.618652	0.000000
738.656372	0.000000
738.694214	0.000000
738.732056	0.000000
738.769836	0.000000
738.807617	0.000000
738.845459	0.000000
738.883240	0.000000
738.921021	0.000000
738.958862	0.000000
738.996582	0.000000
739.034424	0.000000
739.072205	0.000000
739.109985	0.000000
739.147827	0.000000
739.185547	0.000000
739.223389	0.000000
739.261169	0.000000
739.298889	0.000000
739.336731	0.000000
739.374512	0.000000
739.412292	0.000000
739.450073	0.000000
739.487854	0.000000
739.525635	0.000000
739.563416	0.000000
739.601135	0.000000
739.638977	0.000000
739.676758	0.000000
739.714478	0.000000
739.752258	0.000000
739.790100	0.000000
739.827820	0.000000
739.865601	0.000000
739.903381	0.000000
739.941101	0.000000
739.978882	194.900000
740.016724	192.200000
740.054443	197.500000
740.092224	188.600000
740.130005	189.900000
740.167725	189.500000
740.205505	189.600000
740.243225	198.600000
740.281006	194.400000
740.318787	186.500000
740.356506	199.600000
740.394287	197.900000
740.432068	188.800000
740.469727	185.900000
740.507507	196.800000
740.545288	192.900000
740.583008	195.300000
740.620789	192.800000
740.658569	184.400000
740.696228	191.600000
740.734009	198.900000
740.771790	180.800000
740.809509	196.500000
740.847229	188.400000
740.884949	190.400000
740.922729	185.500000
740.960449	190.800000
740.998169	187.100000
741.035950	188.500000
741.073669	193.300000
741.111389	193.000000
741.149170	202.600000
741.186890	203.100000
741.224609	195.400000
741.262329	194.200000
741.300110	202.900000
741.337769	185.900000
741.375549	186.900000
741.413208	192.900000
741.450989	187.600000
741.488708	189.000000
741.526367	189.700000
741.564148	195.500000
741.601868	196.600000
741.639526	192.300000
741.677307	193.100000
741.715027	194.500000
741.752686	188.500000
741.790466	198.500000
741.828186	195.700000
741.865845	188.400000
741.903564	184.400000
741.941345	192.000000
741.979004	189.700000
742.016724	195.500000
742.054382	193.400000
742.092102	197.200000
742.129822	186.200000
742.167480	190.700000
742.205200	191.900000
742.242920	194.500000
742.280640	197.700000
742.318359	188.400000
742.356079	189.500000
742.393738	195.800000
742.431396	191.600000
742.469116	195.500000
742.506775	181.100000
742.544495	194.200000
742.582214	197.200000
742.619873	191.000000
742.657593	199.400000
742.695251	196.300000
742.732971	192.200000
742.770630	193.000000
742.808289	191.300000
742.846008	191.700000
742.883728	195.500000
742.921326	191.500000
742.959045	189.700000
742.996765	191.000000
743.034424	192.400000
743.072083	190.200000
743.109802	191.400000
743.147400	185.400000
743.185120	193.800000
743.222839	191.500000
743.260437	196.700000
743.298157	192.700000
743.335754	184.700000
743.373474	189.800000
743.411133	183.200000
743.448792	192.900000
743.486450	192.800000
743.524170	184.200000
743.561768	192.200000
743.599487	198.000000
743.637146	203.400000
743.674744	192.100000
743.712463	190.000000
743.750122	194.500000
743.787720	194.600000
743.825439	188.600000
743.863037	191.200000
743.900696	193.400000
743.938416	215.900000
743.976013	192.000000
744.013672	200.100000
744.051331	198.800000
744.088928	202.600000
744.126587	199.200000
744.164307	194.300000
744.201904	190.500000
744.239563	194.500000
744.277222	194.700000
744.314819	192.200000
744.352478	200.200000
744.390137	192.300000
744.427734	195.600000
744.465393	188.600000
744.502991	187.300000
744.540649	194.900000
744.578308	192.800000
744.615906	185.600000
744.653564	182.200000
744.691223	196.400000
744.728821	184.400000
744.766418	191.200000
744.804077	194.300000
744.841675	189.200000
744.879333	186.200000
744.916992	191.400000
744.954529	188.500000
744.992187	198.100000
745.029785	189.700000
745.067444	188.300000
745.105042	192.200000
745.142639	194.700000
745.180298	201.600000
745.217896	190.200000
745.255493	190.900000
745.293152	196.900000
745.330750	196.600000
745.368347	200.100000
745.405945	194.300000
745.443604	193.400000
745.481140	197.100000
745.518799	192.700000
745.556396	196.000000
745.593994	197.800000
745.631592	192.600000
745.669189	188.600000
745.706787	194.000000
745.744385	189.800000
745.781982	195.100000
745.819580	190.800000
745.857178	190.200000
745.894775	192.900000
745.932373	192.700000
745.969971	194.000000
746.007568	183.900000
746.045166	203.000000
746.082764	197.600000
746.120300	196.200000
746.157898	195.100000
746.195557	192.600000
746.233093	184.900000
746.270691	196.400000
746.308228	194.300000
746.345825	197.600000
746.383423	196.800000
746.420959	188.600000
746.458557	189.100000
746.496155	189.600000
746.533691	191.400000
746.571289	186.800000
746.608887	193.800000
746.646423	193.700000
746.684021	193.400000
746.721619	191.200000
746.759155	193.800000
746.796753	185.300000
746.834351	186.000000
746.871826	186.900000
746.909424	200.400000
746.946960	194.900000
746.984558	192.100000
747.022156	191.800000
747.059631	199.700000
747.097229	195.000000
747.134827	190.500000
747.172363	200.000000
747.209900	194.600000
747.247498	187.800000
747.285034	200.600000
747.322571	200.400000
747.360168	191.100000
747.397644	185.600000
747.435242	196.100000
747.472778	199.800000
747.510315	191.000000
747.547913	190.800000
747.585388	201.000000
747.622925	192.700000
747.660522	184.300000
747.697998	189.000000
747.735596	192.800000
747.773132	188.800000
747.810669	192.800000
747.848206	195.700000
747.885742	187.400000
747.923279	186.700000
747.960815	194.700000
747.998352	193.100000
748.035889	198.300000
748.073425	197.600000
748.110901	190.200000
748.148437	187.800000
748.185974	192.600000
748.223511	202.400000
748.261047	195.300000
748.298584	195.300000
748.336060	192.600000
748.373596	195.300000
748.411133	210.400000
748.448608	187.800000
748.486145	196.900000
748.523682	199.300000
748.561218	198.900000
748.598755	193.800000
748.636292	196.400000
748.673706	189.600000
748.711243	199.300000
748.748718	196.300000
748.786255	192.400000
748.823792	193.800000
748.861267	188.000000
748.898804	195.200000
748.936340	194.600000
748.973816	190.300000
749.011292	198.500000
749.048828	194.800000
749.086304	197.600000
749.123840	205.900000
749.161316	188.700000
749.198792	203.600000
749.236328	201.000000
749.273743	194.300000
749.311279	190.400000
749.348816	194.600000
749.386230	192.800000
749.423767	181.400000
749.461304	195.100000
749.498718	193.400000
749.536255	199.600000
749.573730	206.500000
749.611206	199.000000
749.648682	191.500000
749.686218	191.800000
749.723633	197.200000
749.761169	191.100000
749.798645	189.500000
749.836060	192.200000
749.873596	189.200000
749.911011	193.000000
749.948547	200.400000
749.986023	193.200000
750.023437	192.000000
750.060913	185.700000
750.098450	186.300000
750.135864	191.900000
750.173340	193.000000
750.210815	198.200000
750.248291	187.900000
750.285767	192.700000
750.323242	200.700000
750.360657	194.200000
750.398132	187.800000
750.435608	197.100000
750.473022	187.400000
750.510498	189.200000
750.547974	189.100000
750.585449	191.200000
750.622925	182.900000
750.660339	200.600000
750.697815	193.000000
750.735291	192.900000
750.772644	194.300000
750.810120	192.000000
750.847595	195.600000
750.885010	189.200000
750.922485	202.500000
750.959961	191.700000
750.997375	200.600000
751.034851	196.900000
751.072266	197.900000
751.109680	186.200000
751.147156	198.600000
751.184570	196.400000
751.221985	195.100000
751.259460	183.500000
751.296875	193.000000
751.334290	193.700000
751.371765	198.000000
751.409180	196.300000
751.446594	196.800000
751.484070	195.600000
751.521423	193.900000
751.558899	194.000000
751.596375	200.300000
751.633728	200.200000
751.671204	205.500000
751.708618	188.800000
751.746033	193.300000
751.783447	185.400000
751.820801	188.700000
751.858276	195.000000
751.895691	192.600000
751.933105	190.900000
751.970520	188.400000
752.007935	191.400000
752.045349	196.400000
752.082764	192.500000
752.120178	191.200000
752.157532	188.000000
752.195007	189.500000
752.232422	195.300000
752.269775	198.000000
752.307190	195.200000
752.344543	189.100000
752.382019	190.600000
752.419434	191.600000
752.456787	195.100000
752.494202	197.800000
752.531616	196.100000
752.568970	198.000000
752.606384	193.700000
752.643799	196.400000
752.681152	202.000000
752.718567	196.300000
752.755981	185.500000
752.793335	196.000000
752.830750	185.900000
752.868164	200.300000
752.905518	188.900000
752.942932	198.500000
752.980225	187.100000
753.017639	197.400000
753.055054	192.200000
753.092407	195.700000
753.129822	198.600000
753.167175	203.600000
753.204529	192.900000
753.241943	190.400000
753.279358	186.800000
753.316650	197.100000
753.354065	195.000000
753.391479	198.000000
753.428772	201.800000
753.466187	195.900000
753.503479	187.200000
753.540894	192.000000
753.578308	186.200000
753.615601	186.300000
753.653015	193.900000
753.690369	191.900000
753.727722	188.800000
753.765076	186.000000
753.802490	187.000000
753.839783	183.500000
753.877136	190.500000
753.914551	209.100000
753.951843	187.000000
753.989258	197.000000
754.026611	193.700000
754.063904	194.200000
754.101257	188.000000
754.138611	185.000000
754.175964	193.600000
754.213318	205.200000
754.250610	184.500000
754.288025	190.400000
754.325378	188.200000
754.362671	198.600000
754.400024	191.500000
754.437378	202.500000
754.474670	205.100000
754.512085	189.300000
754.549438	194.900000
754.586731	190.900000
754.624084	193.700000
754.661438	187.200000
754.698730	200.600000
754.736084	190.300000
754.773376	191.500000
754.810730	195.300000
754.848083	193.500000
754.885315	197.700000
754.922668	184.800000
754.960022	186.700000
754.997314	198.500000
755.034668	193.700000
755.072021	194.200000
755.109253	190.800000
755.146606	201.600000
755.183960	192.000000
755.221252	201.500000
755.258545	198.300000
755.295898	199.700000
755.333191	200.600000
755.370544	197.200000
755.407776	194.900000
755.445129	195.000000
755.482422	198.700000
755.519714	190.300000
755.557068	186.500000
755.594360	185.900000
755.631653	198.800000
755.668945	203.800000
755.706299	197.900000
755.743530	206.400000
755.780884	203.600000
755.818176	201.500000
755.855408	200.500000
755.892761	198.300000
755.930054	196.800000
755.967346	198.400000
756.004639	201.400000
756.041870	197.100000
756.079224	202.700000
756.116516	192.500000
756.153748	201.400000
756.191040	205.400000
756.228394	200.500000
756.265625	193.100000
756.302917	198.100000
756.340210	193.800000
756.377441	203.300000
756.414795	204.200000
756.452087	198.300000
756.489319	190.300000
756.526611	200.600000
756.563843	198.800000
756.601135	210.400000
756.638428	207.400000
756.675659	196.700000
756.712952	203.400000
756.750244	203.400000
756.787476	199.600000
756.824768	206.000000
756.862061	197.500000
756.899292	245.500000
756.936584	203.300000
756.973816	210.600000
757.011047	212.600000
757.048340	200.500000
757.085632	199.300000
757.122864	216.000000
757.160156	196.600000
757.197327	202.900000
757.234619	205.000000
757.271912	200.000000
757.309082	205.700000
757.346375	198.100000
757.383667	207.300000
757.420837	202.800000
757.458130	202.500000
757.495422	200.300000
757.532593	203.500000
757.569885	194.500000
757.607117	198.100000
757.644348	204.700000
757.681580	215.800000
757.718811	190.300000
757.756042	202.500000
757.793335	200.300000
757.830505	206.500000
757.867798	200.400000
757.905029	199.200000
757.942200	205.700000
757.979492	199.800000
758.016724	202.500000
758.053894	202.300000
758.091187	223.100000
758.128418	204.800000
758.165588	204.200000
758.202820	218.100000
758.240112	202.200000
758.277283	214.500000
758.314514	205.900000
758.351685	203.300000
758.388916	214.300000
758.426147	215.000000
758.463379	214.900000
758.500610	209.600000
758.537842	206.600000
758.575012	212.900000
758.612244	202.000000
758.649475	219.900000
758.686646	199.700000
758.723877	214.600000
758.761108	213.100000
758.798279	207.400000
758.835510	210.200000
758.872742	216.100000
758.909851	209.400000
758.947083	210.500000
758.984253	210.200000
759.021484	212.600000
759.058716	213.600000
759.095886	213.200000
759.133057	207.800000
759.170288	211.500000
759.207458	205.300000
759.244690	220.200000
759.281860	219.900000
759.319031	208.400000
759.356262	207.700000
759.393433	208.300000
759.430603	209.700000
759.467773	209.200000
759.505005	217.700000
759.542175	215.100000
759.579346	210.100000
759.616516	212.900000
759.653687	213.700000
759.690918	207.400000
759.728027	214.400000
759.765259	212.800000
759.802429	215.800000
759.839539	214.300000
759.876770	219.700000
759.913940	223.100000
759.951111	215.200000
759.988281	213.600000
760.025452	212.000000
760.062561	207.300000
760.099792	223.100000
760.136963	216.200000
760.174072	212.800000
760.211243	207.800000
760.248413	210.500000
760.285583	209.800000
760.322754	224.400000
760.359863	220.900000
760.397034	221.700000
760.434204	212.700000
760.471375	216.100000
760.508545	212.200000
760.545715	215.000000
760.582825	210.300000
760.619995	221.600000
760.657166	206.300000
760.694275	222.900000
760.731445	218.000000
760.768555	218.400000
760.805664	219.700000
760.842834	218.900000
760.879944	220.600000
760.917114	218.200000
760.954285	216.500000
760.991394	212.100000
761.028564	224.100000
761.065674	222.000000
761.102783	215.400000
761.139954	224.500000
761.177124	226.000000
761.214172	226.800000
761.251343	219.100000
761.288452	220.800000
761.325562	224.800000
761.362732	219.100000
761.399841	221.900000
761.436951	223.200000
761.474121	220.700000
761.511169	223.600000
761.548340	227.900000
761.585449	228.100000
761.622559	227.800000
761.659668	225.200000
761.696838	232.600000
761.733887	228.200000
761.771057	224.500000
761.808167	226.400000
761.845276	232.200000
761.882385	240.200000
761.919434	229.400000
761.956604	249.500000
761.993713	225.100000
762.030762	235.100000
762.067871	229.900000
762.105042	229.300000
762.142090	238.300000
762.179199	232.700000
762.216309	237.800000
762.253418	245.500000
762.290527	241.600000
762.327637	238.500000
762.364685	227.800000
762.401794	237.400000
762.438904	236.400000
762.475952	231.400000
762.513062	229.400000
762.550110	231.100000
762.587219	246.800000
762.624329	245.400000
762.661377	239.900000
762.698486	239.100000
762.735596	239.200000
762.772644	232.200000
762.809753	230.900000
762.846863	239.000000
762.883911	243.100000
762.921021	242.200000
762.958069	239.800000
762.995117	248.400000
763.032227	249.000000
763.069336	241.400000
763.106323	237.000000
763.143433	236.000000
763.180481	243.100000
763.217590	244.300000
763.254639	243.800000
763.291687	243.100000
763.328735	250.100000
763.365845	243.700000
763.402893	240.800000
763.439941	246.700000
763.477051	250.500000
763.514038	251.000000
763.551147	242.900000
763.588196	248.300000
763.625244	244.500000
763.662292	254.900000
763.699402	255.800000
763.736389	252.200000
763.773499	260.000000
763.810486	254.300000
763.847534	248.600000
763.884644	255.100000
763.921631	249.900000
763.958679	260.400000
763.995728	251.300000
764.032776	261.500000
764.069824	247.900000
764.106873	257.200000
764.143860	262.900000
764.180969	254.800000
764.218018	262.200000
764.255005	255.100000
764.292053	256.100000
764.329102	266.700000
764.366089	265.700000
764.403137	264.600000
764.440125	254.400000
764.477173	259.500000
764.514221	261.800000
764.551208	259.400000
764.588257	254.900000
764.625305	266.000000
764.662292	272.900000
764.699341	275.400000
764.736389	267.700000
764.773376	281.600000
764.810425	270.800000
764.847473	277.300000
764.884399	271.300000
764.921448	280.700000
764.958435	278.100000
764.995483	266.800000
765.032532	284.200000
765.069458	270.100000
765.106506	271.200000
765.143555	269.700000
765.180481	275.000000
765.217529	280.500000
765.254578	268.200000
765.291504	277.000000
765.328552	274.900000
765.365540	269.700000
765.402527	287.400000
765.439575	271.600000
765.476501	266.000000
765.513550	267.300000
765.550537	273.900000
765.587463	280.900000
765.624512	271.600000
765.661499	264.300000
765.698486	284.600000
765.735474	271.000000
765.772461	274.700000
765.809448	282.500000
765.846436	281.700000
765.883423	285.000000
765.920410	280.000000
765.957397	277.700000
765.994385	281.800000
766.031311	289.200000
766.068359	281.200000
766.105286	283.000000
766.142273	289.500000
766.179260	284.600000
766.216187	277.700000
766.253174	276.000000
766.290161	284.600000
766.327148	287.900000
766.364136	289.400000
766.401123	305.200000
766.438049	281.300000
766.475037	298.300000
766.512024	291.300000
766.548950	307.100000
766.585937	302.000000
766.622864	298.300000
766.659790	297.400000
766.696777	287.900000
766.733704	304.400000
766.770691	296.000000
766.807678	310.100000
766.844604	304.700000
766.881531	302.900000
766.918518	311.800000
766.955444	309.600000
766.992432	305.800000
767.029358	307.800000
767.066284	311.900000
767.103271	307.600000
767.140198	337.200000
767.177124	324.900000
767.214050	316.500000
767.251038	319.100000
767.287964	314.100000
767.324890	310.600000
767.361816	317.400000
767.398743	322.900000
767.435730	317.700000
767.472595	322.900000
767.509583	327.500000
767.546509	316.900000
767.583374	324.100000
767.620361	315.800000
767.657288	326.200000
767.694214	323.100000
767.731140	323.400000
767.768066	324.400000
767.804993	331.200000
767.841919	320.600000
767.878845	329.200000
767.915710	337.500000
767.952698	329.900000
767.989563	333.500000
768.026489	335.600000
