Model Number: SPM-002-B   
Serial Number: 70087108
Firmware Version: 004.15.4
Exposure Time: 100000.000000us
Data Taken on: 15-01-2021 16:39:47.635
Wavelength	Amplitude
221.570786	0.000000
221.663406	0.000000
221.756027	0.000000
221.848648	0.000000
221.941269	0.000000
222.033905	0.000000
222.126526	0.000000
222.219162	0.000000
222.311798	0.000000
222.404419	0.000000
222.497055	0.000000
222.589676	0.000000
222.682312	0.000000
222.774933	0.000000
222.867569	0.000000
222.960205	0.000000
223.052841	0.000000
223.145462	0.000000
223.238098	0.000000
223.330734	0.000000
223.423386	0.000000
223.516022	0.000000
223.608658	0.000000
223.701309	0.000000
223.793945	0.000000
223.886581	0.000000
223.979218	0.000000
224.071869	0.000000
224.164505	0.000000
224.257156	0.000000
224.349792	0.000000
224.442444	0.000000
224.535095	0.000000
224.627747	0.000000
224.720398	0.000000
224.813034	0.000000
224.905685	0.000000
224.998337	152.820000
225.090988	152.420000
225.183640	152.660000
225.276291	152.260000
225.368942	152.620000
225.461594	153.080000
225.554245	153.640000
225.646912	153.860000
225.739578	154.560000
225.832230	155.020000
225.924896	154.340000
226.017548	154.360000
226.110199	154.700000
226.202866	153.900000
226.295532	153.280000
226.388184	153.060000
226.480850	152.480000
226.573517	151.880000
226.666168	152.360000
226.758835	152.660000
226.851501	153.380000
226.944183	153.640000
227.036850	153.260000
227.129517	153.300000
227.222183	153.680000
227.314850	153.400000
227.407516	153.800000
227.500198	154.840000
227.592865	154.400000
227.685532	153.760000
227.778214	153.640000
227.870880	154.000000
227.963562	153.920000
228.056229	154.580000
228.148926	154.500000
228.241592	155.420000
228.334274	154.820000
228.426956	154.240000
228.519638	153.980000
228.612305	153.740000
228.704987	153.160000
228.797668	153.420000
228.890350	153.420000
228.983032	153.100000
229.075714	154.100000
229.168396	153.920000
229.261108	153.400000
229.353790	153.340000
229.446472	153.620000
229.539169	153.240000
229.631851	152.960000
229.724533	153.400000
229.817230	154.060000
229.909912	154.860000
230.002609	154.640000
230.095306	154.740000
230.187988	154.620000
230.280685	154.060000
230.373383	152.960000
230.466095	152.720000
230.558792	152.760000
230.651474	152.640000
230.744171	152.660000
230.836868	152.720000
230.929581	152.960000
231.022278	153.240000
231.114975	153.320000
231.207672	153.000000
231.300369	153.420000
231.393082	153.620000
231.485779	153.060000
231.578506	152.920000
231.671204	153.480000
231.763916	153.140000
231.856613	153.180000
231.949326	153.600000
232.042023	153.520000
232.134735	153.320000
232.227448	153.300000
232.320160	153.400000
232.412872	153.520000
232.505585	154.640000
232.598297	154.880000
232.691010	154.580000
232.783722	153.880000
232.876450	154.040000
232.969162	152.920000
233.061874	152.380000
233.154587	152.240000
233.247314	152.840000
233.340027	152.360000
233.432739	152.920000
233.525467	152.820000
233.618179	153.300000
233.710907	152.980000
233.803635	153.500000
233.896347	152.940000
233.989090	153.820000
234.081818	153.940000
234.174545	154.100000
234.267258	153.740000
234.359985	154.040000
234.452713	153.640000
234.545441	153.380000
234.638168	153.320000
234.730896	153.560000
234.823639	153.280000
234.916367	153.700000
235.009094	153.720000
235.101822	153.860000
235.194580	153.900000
235.287308	154.220000
235.380051	153.540000
235.472778	153.680000
235.565521	153.760000
235.658249	153.460000
235.750992	153.500000
235.843719	153.580000
235.936462	153.760000
236.029205	153.520000
236.121948	153.080000
236.214691	153.380000
236.307449	154.020000
236.400192	153.640000
236.492935	153.560000
236.585678	154.040000
236.678421	153.940000
236.771164	153.560000
236.863907	154.060000
236.956665	154.180000
237.049408	155.820000
237.142151	155.180000
237.234909	155.760000
237.327652	155.880000
237.420410	155.680000
237.513153	154.320000
237.605927	154.360000
237.698669	153.580000
237.791428	152.820000
237.884186	153.320000
237.976944	152.860000
238.069702	153.240000
238.162445	152.880000
238.255203	153.200000
238.347961	153.480000
238.440720	153.580000
238.533478	153.500000
238.626266	153.440000
238.719025	153.600000
238.811783	152.760000
238.904541	152.860000
238.997314	152.640000
239.090073	152.520000
239.182831	152.900000
239.275604	154.040000
239.368362	154.080000
239.461136	154.580000
239.553909	154.720000
239.646667	154.140000
239.739441	153.300000
239.832214	153.480000
239.925003	153.120000
240.017761	154.000000
240.110535	154.280000
240.203308	154.060000
240.296082	153.820000
240.388855	153.820000
240.481628	153.740000
240.574417	153.880000
240.667191	154.060000
240.759964	153.820000
240.852737	154.060000
240.945526	153.540000
241.038315	153.260000
241.131088	153.560000
241.223877	153.900000
241.316650	153.480000
241.409439	154.120000
241.502228	153.880000
241.595001	154.220000
241.687790	154.120000
241.780579	154.280000
241.873367	153.960000
241.966141	154.320000
242.058929	153.440000
242.151718	153.580000
242.244507	154.120000
242.337311	153.460000
242.430099	153.980000
242.522903	154.320000
242.615692	153.960000
242.708481	153.620000
242.801270	154.500000
242.894073	153.960000
242.986862	154.000000
243.079651	154.600000
243.172455	154.160000
243.265244	154.000000
243.358063	153.480000
243.450867	153.700000
243.543655	153.480000
243.636459	153.680000
243.729263	154.000000
243.822067	154.500000
243.914856	154.700000
244.007660	154.760000
244.100464	154.760000
244.193268	154.000000
244.286072	153.680000
244.378876	153.000000
244.471680	152.520000
244.564499	152.940000
244.657318	153.780000
244.750122	154.160000
244.842926	153.880000
244.935745	154.460000
245.028549	153.960000
245.121368	153.520000
245.214172	153.440000
245.306992	154.120000
245.399796	153.780000
245.492615	154.060000
245.585434	153.860000
245.678253	154.040000
245.771072	153.680000
245.863892	154.020000
245.956711	154.120000
246.049530	153.800000
246.142349	153.380000
246.235168	153.480000
246.327988	153.800000
246.420807	153.380000
246.513626	153.720000
246.606445	153.560000
246.699280	153.460000
246.792099	153.060000
246.884918	152.920000
246.977753	152.900000
247.070587	153.100000
247.163422	153.180000
247.256241	153.140000
247.349075	153.500000
247.441895	153.440000
247.534729	153.520000
247.627563	153.280000
247.720383	153.840000
247.813217	153.640000
247.906052	153.620000
247.998886	153.800000
248.091736	154.180000
248.184570	153.760000
248.277405	153.880000
248.370239	154.920000
248.463074	155.720000
248.555908	155.800000
248.648743	155.540000
248.741592	155.600000
248.834427	154.720000
248.927261	153.700000
249.020111	154.060000
249.112946	154.760000
249.205795	154.400000
249.298630	154.180000
249.391495	154.040000
249.484344	153.700000
249.577179	153.500000
249.670029	153.920000
249.762878	154.580000
249.855728	154.960000
249.948563	155.220000
250.041412	154.780000
250.134262	154.800000
250.227112	154.820000
250.319962	154.940000
250.412827	154.520000
250.505692	154.200000
250.598541	154.420000
250.691391	154.260000
250.784241	154.200000
250.877106	154.460000
250.969955	154.500000
251.062805	154.780000
251.155670	155.040000
251.248520	154.740000
251.341385	154.920000
251.434235	154.940000
251.527100	154.260000
251.619965	153.600000
251.712814	154.500000
251.805695	154.180000
251.898560	154.260000
251.991425	154.700000
252.084290	155.180000
252.177155	154.260000
252.270020	154.000000
252.362885	154.120000
252.455750	153.880000
252.548615	153.420000
252.641479	153.460000
252.734360	153.460000
252.827240	153.220000
252.920105	153.380000
253.012970	153.360000
253.105850	153.220000
253.198715	153.200000
253.291595	153.300000
253.384460	152.700000
253.477341	152.600000
253.570221	153.100000
253.663086	152.820000
253.755966	153.500000
253.848846	154.080000
253.941727	154.400000
254.034592	153.860000
254.127472	153.500000
254.220367	153.360000
254.313248	153.280000
254.406128	152.520000
254.499008	153.180000
254.591904	154.280000
254.684784	154.260000
254.777664	154.320000
254.870544	154.400000
254.963440	154.020000
255.056335	153.660000
255.149216	153.460000
255.242111	153.720000
255.334991	154.320000
255.427887	154.420000
255.520767	154.800000
255.613663	154.940000
255.706558	154.140000
255.799438	154.160000
255.892334	154.120000
255.985229	153.880000
256.078125	153.640000
256.171021	154.200000
256.263916	154.660000
256.356812	154.640000
256.449707	154.960000
256.542603	154.660000
256.635498	154.800000
256.728394	154.080000
256.821289	153.940000
256.914215	153.940000
257.007080	154.460000
257.100006	154.380000
257.192932	155.060000
257.285828	155.320000
257.378723	154.860000
257.471619	154.280000
257.564545	153.960000
257.657440	153.820000
257.750336	154.120000
257.843262	153.880000
257.936157	155.160000
258.029053	155.300000
258.121979	155.140000
258.214874	154.500000
258.307800	154.460000
258.400696	153.160000
258.493622	153.200000
258.586517	152.460000
258.679443	153.160000
258.772339	153.100000
258.865265	153.240000
258.958160	152.860000
259.051086	153.960000
259.144012	153.720000
259.236938	154.720000
259.329834	154.900000
259.422791	154.900000
259.515717	154.180000
259.608612	153.660000
259.701538	153.480000
259.794464	153.380000
259.887390	153.340000
259.980316	153.140000
260.073212	153.120000
260.166138	152.120000
260.259064	152.740000
260.351990	153.540000
260.444916	153.860000
260.537842	154.320000
260.630768	155.000000
260.723694	154.400000
260.816620	154.060000
260.909546	154.280000
261.002472	153.820000
261.095398	153.240000
261.188354	153.260000
261.281281	152.660000
261.374207	152.240000
261.467133	153.020000
261.560089	153.360000
261.653015	153.080000
261.745972	154.240000
261.838867	154.760000
261.931824	155.100000
262.024780	154.720000
262.117706	155.440000
262.210663	155.300000
262.303589	155.120000
262.396515	154.440000
262.489471	155.660000
262.582397	155.280000
262.675354	154.700000
262.768280	154.900000
262.861237	154.700000
262.954163	154.440000
263.047119	154.620000
263.140045	154.580000
263.233002	154.600000
263.325958	154.780000
263.418884	154.380000
263.511841	154.160000
263.604797	154.360000
263.697723	154.200000
263.790680	154.020000
263.883636	154.380000
263.976593	154.480000
264.069550	154.180000
264.162476	153.780000
264.255463	153.920000
264.348419	153.420000
264.441376	153.620000
264.534332	153.080000
264.627289	153.260000
264.720245	153.880000
264.813202	153.480000
264.906158	153.500000
264.999115	154.480000
265.092072	154.280000
265.185028	154.440000
265.277985	154.920000
265.370941	154.920000
265.463898	154.360000
265.556854	154.220000
265.649811	153.080000
265.742798	153.320000
265.835754	153.340000
265.928711	154.060000
266.021667	154.220000
266.114655	154.460000
266.207611	154.420000
266.300568	153.980000
266.393585	153.180000
266.486511	153.640000
266.579498	152.800000
266.672485	152.500000
266.765442	152.340000
266.858429	153.140000
266.951385	152.580000
267.044342	153.040000
267.137329	153.200000
267.230316	153.500000
267.323273	152.780000
267.416260	153.820000
267.509216	153.900000
267.602203	153.600000
267.695160	154.080000
267.788147	154.280000
267.881134	153.320000
267.974091	153.620000
268.067078	153.640000
268.160065	153.300000
268.253052	153.260000
268.346008	153.540000
268.438995	153.340000
268.531982	153.720000
268.624969	153.440000
268.717987	153.620000
268.810944	153.480000
268.903961	153.680000
268.996948	153.320000
269.089905	154.020000
269.182892	154.120000
269.275879	154.600000
269.368866	154.740000
269.461853	155.160000
269.554871	154.680000
269.647858	154.740000
269.740845	154.860000
269.833832	154.800000
269.926819	154.380000
270.019806	154.180000
270.112793	153.640000
270.205811	153.360000
270.298798	153.120000
270.391785	153.860000
270.484772	153.640000
270.577789	153.900000
270.670776	153.440000
270.763763	153.380000
270.856750	152.860000
270.949768	153.220000
271.042786	153.200000
271.135773	153.640000
271.228790	153.980000
271.321808	153.700000
271.414795	153.300000
271.507782	153.300000
271.600800	152.840000
271.693817	152.860000
271.786804	153.420000
271.879822	153.980000
271.972809	153.820000
272.065826	154.500000
272.158844	153.960000
272.251831	154.660000
272.344849	154.300000
272.437866	154.260000
272.530853	154.300000
272.623871	154.720000
272.716888	153.260000
272.809906	153.620000
272.902893	153.440000
272.995911	152.380000
273.088928	152.180000
273.181946	152.800000
273.274963	152.300000
273.367981	152.440000
273.460999	153.240000
273.554047	153.940000
273.647003	154.240000
273.740051	154.620000
273.833069	154.960000
273.926086	154.760000
274.019135	154.180000
274.112152	153.600000
274.205170	153.680000
274.298187	153.900000
274.391205	153.900000
274.484222	153.800000
274.577240	153.800000
274.670258	153.520000
274.763306	153.200000
274.856323	153.380000
274.949341	153.580000
275.042358	154.040000
275.135406	154.120000
275.228424	154.260000
275.321442	154.120000
275.414490	153.800000
275.507507	154.060000
275.600525	154.660000
275.693573	154.280000
275.786591	153.740000
275.879669	154.100000
275.972656	153.680000
276.065735	153.140000
276.158752	153.840000
276.251801	154.900000
276.344818	154.840000
276.437866	155.020000
276.530884	154.920000
276.623932	154.060000
276.716980	154.080000
276.809998	154.240000
276.903046	154.060000
276.996094	154.960000
277.089111	155.800000
277.182159	156.180000
277.275208	155.820000
277.368256	155.880000
277.461304	155.180000
277.554321	154.420000
277.647369	154.140000
277.740417	154.340000
277.833466	154.060000
277.926514	153.980000
278.019562	154.700000
278.112610	153.960000
278.205688	154.080000
278.298706	154.340000
278.391785	154.080000
278.484833	153.600000
278.577881	153.440000
278.670929	153.600000
278.763977	153.660000
278.857025	154.420000
278.950073	154.480000
279.043121	154.600000
279.136169	154.280000
279.229248	153.740000
279.322296	153.680000
279.415344	153.520000
279.508392	153.740000
279.601440	153.840000
279.694519	153.820000
279.787567	153.400000
279.880615	153.360000
279.973694	152.840000
280.066742	152.820000
280.159790	153.120000
280.252869	152.520000
280.345917	152.780000
280.438995	153.040000
280.532074	153.100000
280.625122	153.500000
280.718201	154.780000
280.811279	154.900000
280.904327	154.860000
280.997406	154.900000
281.090454	154.880000
281.183533	154.060000
281.276581	153.740000
281.369659	153.620000
281.462738	153.540000
281.555786	153.360000
281.648865	153.640000
281.741943	153.640000
281.835022	154.200000
281.928070	153.920000
282.021149	153.560000
282.114227	153.480000
282.207306	153.060000
282.300385	153.380000
282.393433	153.940000
282.486511	154.200000
282.579590	154.640000
282.672668	155.440000
282.765747	154.540000
282.858856	153.880000
282.951904	154.140000
283.045013	154.000000
283.138062	154.140000
283.231171	154.920000
283.324249	155.480000
283.417328	155.220000
283.510406	154.840000
283.603485	154.720000
283.696564	154.200000
283.789642	154.140000
283.882751	154.040000
283.975830	154.540000
284.068909	154.160000
284.161987	154.640000
284.255066	154.160000
284.348175	154.420000
284.441254	154.140000
284.534332	154.520000
284.627441	153.980000
284.720520	153.720000
284.813599	153.560000
284.906708	153.520000
284.999786	152.700000
285.092896	152.840000
285.185974	154.180000
285.279053	153.800000
285.372192	153.640000
285.465240	154.620000
285.558380	154.560000
285.651459	154.000000
285.744568	155.100000
285.837677	155.060000
285.930756	154.760000
286.023865	154.860000
286.116943	154.380000
286.210052	153.920000
286.303162	153.980000
286.396240	153.980000
286.489349	153.760000
286.582458	154.200000
286.675568	153.900000
286.768646	153.760000
286.861755	154.120000
286.954865	154.980000
287.047974	154.320000
287.141083	154.360000
287.234161	154.380000
287.327271	153.840000
287.420380	153.780000
287.513519	154.000000
287.606598	153.720000
287.699738	153.860000
287.792816	153.780000
287.885956	153.320000
287.979034	152.960000
288.072174	153.340000
288.165283	153.260000
288.258392	153.640000
288.351501	153.300000
288.444611	153.780000
288.537720	154.080000
288.630859	153.840000
288.723969	153.880000
288.817078	154.400000
288.910187	154.340000
289.003296	153.860000
289.096436	153.800000
289.189545	153.260000
289.282654	152.300000
289.375763	152.660000
289.468903	153.140000
289.562012	153.500000
289.655121	153.780000
289.748260	154.440000
289.841400	154.700000
289.934509	154.300000
290.027649	154.320000
290.120728	154.140000
290.213898	154.000000
290.306976	153.440000
290.400146	153.640000
290.493256	153.260000
290.586395	153.600000
290.679535	153.820000
290.772644	153.860000
290.865784	153.020000
290.958893	153.280000
291.052032	153.080000
291.145172	153.060000
291.238281	152.680000
291.331421	152.920000
291.424561	153.400000
291.517670	153.080000
291.610809	153.100000
291.703949	153.340000
291.797089	153.740000
291.890228	153.160000
291.983337	153.280000
292.076477	153.020000
292.169617	153.520000
292.262756	153.680000
292.355927	153.660000
292.449036	153.780000
292.542206	153.940000
292.635315	153.700000
292.728485	154.120000
292.821625	153.900000
292.914764	154.780000
293.007904	154.980000
293.101044	155.020000
293.194183	154.380000
293.287323	154.540000
293.380463	153.440000
293.473602	153.140000
293.566742	153.240000
293.659882	153.680000
293.753021	154.140000
293.846191	154.560000
293.939331	154.480000
294.032471	154.200000
294.125610	153.800000
294.218781	153.980000
294.311920	154.220000
294.405060	154.360000
294.498230	154.460000
294.591370	154.420000
294.684540	153.520000
294.777679	153.040000
294.870850	153.320000
294.963959	153.380000
295.057159	153.140000
295.150299	153.480000
295.243469	153.480000
295.336609	153.060000
295.429779	152.920000
295.522919	153.580000
295.616089	153.820000
295.709229	154.600000
295.802399	154.640000
295.895569	154.260000
295.988708	154.000000
296.081879	154.200000
296.175018	153.420000
296.268188	153.460000
296.361359	154.400000
296.454529	154.440000
296.547668	154.160000
296.640839	154.600000
296.734009	154.260000
296.827179	154.100000
296.920319	154.600000
297.013519	154.300000
297.106659	154.240000
297.199860	154.440000
297.292999	154.200000
297.386200	153.520000
297.479309	153.540000
297.572510	153.280000
297.665680	153.140000
297.758850	153.000000
297.852020	153.080000
297.945190	152.980000
298.038361	152.740000
298.131531	153.840000
298.224701	153.580000
298.317871	153.420000
298.411072	152.880000
298.504242	152.720000
298.597412	152.260000
298.690582	152.760000
298.783752	152.980000
298.876923	154.140000
298.970093	154.840000
299.063293	154.740000
299.156464	155.120000
299.249634	155.360000
299.342834	155.400000
299.436005	155.700000
299.529205	155.460000
299.622345	155.140000
299.715576	154.520000
299.808716	154.060000
299.901917	153.600000
299.995117	154.080000
300.088287	154.400000
300.181488	154.200000
300.274658	154.180000
300.367828	154.140000
300.461029	153.980000
300.554199	153.920000
300.647400	154.240000
300.740601	154.540000
300.833771	154.320000
300.926971	154.460000
301.020142	153.900000
301.113342	153.720000
301.206512	153.540000
301.299713	154.040000
301.392914	153.820000
301.486084	154.300000
301.579285	154.160000
301.672516	154.740000
301.765686	154.160000
301.858887	154.240000
301.952057	154.060000
302.045288	154.280000
302.138458	153.780000
302.231659	153.920000
302.324860	153.600000
302.418060	153.200000
302.511261	153.000000
302.604462	153.100000
302.697662	152.580000
302.790863	152.400000
302.884064	151.940000
302.977264	152.320000
303.070465	152.480000
303.163666	153.780000
303.256866	154.320000
303.350067	154.620000
303.443268	154.760000
303.536469	155.140000
303.629669	154.400000
303.722870	154.200000
303.816071	154.340000
303.909271	154.120000
304.002472	152.880000
304.095673	152.660000
304.188934	152.280000
304.282104	153.020000
304.375336	152.860000
304.468506	153.220000
304.561768	152.960000
304.654968	153.620000
304.748169	153.140000
304.841370	152.860000
304.934601	153.400000
305.027802	153.620000
305.121002	153.100000
305.214233	152.760000
305.307434	153.380000
305.400665	153.740000
305.493866	153.580000
