Model Number: SPM-002-B   
Serial Number: 70087108
Firmware Version: 004.15.4
Exposure Time: 100000.000000us
Data Taken on: 15-01-2021 16:40:49.042
Wavelength	Amplitude
221.570786	0.000000
221.663406	0.000000
221.756027	0.000000
221.848648	0.000000
221.941269	0.000000
222.033905	0.000000
222.126526	0.000000
222.219162	0.000000
222.311798	0.000000
222.404419	0.000000
222.497055	0.000000
222.589676	0.000000
222.682312	0.000000
222.774933	0.000000
222.867569	0.000000
222.960205	0.000000
223.052841	0.000000
223.145462	0.000000
223.238098	0.000000
223.330734	0.000000
223.423386	0.000000
223.516022	0.000000
223.608658	0.000000
223.701309	0.000000
223.793945	0.000000
223.886581	0.000000
223.979218	0.000000
224.071869	0.000000
224.164505	0.000000
224.257156	0.000000
224.349792	0.000000
224.442444	0.000000
224.535095	0.000000
224.627747	0.000000
224.720398	0.000000
224.813034	0.000000
224.905685	0.000000
224.998337	152.340000
225.090988	152.200000
225.183640	152.160000
225.276291	152.280000
225.368942	152.660000
225.461594	153.640000
225.554245	153.660000
225.646912	153.600000
225.739578	154.100000
225.832230	154.520000
225.924896	153.400000
226.017548	153.780000
226.110199	154.460000
226.202866	153.440000
226.295532	153.420000
226.388184	153.380000
226.480850	152.760000
226.573517	152.100000
226.666168	152.700000
226.758835	152.380000
226.851501	153.380000
226.944183	153.740000
227.036850	153.160000
227.129517	153.220000
227.222183	153.740000
227.314850	153.140000
227.407516	153.600000
227.500198	154.860000
227.592865	154.200000
227.685532	153.640000
227.778214	153.600000
227.870880	153.500000
227.963562	153.840000
228.056229	154.600000
228.148926	154.640000
228.241592	155.620000
228.334274	155.320000
228.426956	154.740000
228.519638	154.640000
228.612305	154.320000
228.704987	153.820000
228.797668	154.000000
228.890350	153.780000
228.983032	152.920000
229.075714	153.800000
229.168396	153.400000
229.261108	152.860000
229.353790	152.740000
229.446472	153.440000
229.539169	152.980000
229.631851	152.880000
229.724533	153.360000
229.817230	153.540000
229.909912	154.600000
230.002609	154.560000
230.095306	154.260000
230.187988	153.960000
230.280685	153.780000
230.373383	152.360000
230.466095	152.420000
230.558792	152.860000
230.651474	152.720000
230.744171	152.740000
230.836868	152.680000
230.929581	152.760000
231.022278	153.160000
231.114975	153.360000
231.207672	153.060000
231.300369	153.820000
231.393082	153.760000
231.485779	153.420000
231.578506	153.360000
231.671204	153.620000
231.763916	153.240000
231.856613	153.300000
231.949326	153.560000
232.042023	153.320000
232.134735	153.200000
232.227448	152.860000
232.320160	153.100000
232.412872	152.940000
232.505585	154.180000
232.598297	154.500000
232.691010	154.740000
232.783722	154.400000
232.876450	154.900000
232.969162	153.760000
233.061874	153.320000
233.154587	152.820000
233.247314	153.000000
233.340027	152.360000
233.432739	153.080000
233.525467	153.140000
233.618179	153.680000
233.710907	153.140000
233.803635	153.520000
233.896347	153.060000
233.989090	153.840000
234.081818	153.700000
234.174545	154.260000
234.267258	153.800000
234.359985	154.060000
234.452713	153.500000
234.545441	153.360000
234.638168	153.120000
234.730896	153.680000
234.823639	153.300000
234.916367	153.840000
235.009094	154.320000
235.101822	154.380000
235.194580	154.160000
235.287308	154.540000
235.380051	153.860000
235.472778	153.800000
235.565521	154.260000
235.658249	153.860000
235.750992	153.860000
235.843719	154.140000
235.936462	154.060000
236.029205	153.340000
236.121948	153.440000
236.214691	153.580000
236.307449	154.140000
236.400192	153.880000
236.492935	153.700000
236.585678	153.680000
236.678421	153.520000
236.771164	153.140000
236.863907	153.840000
236.956665	154.200000
237.049408	155.860000
237.142151	155.240000
237.234909	155.780000
237.327652	155.620000
237.420410	155.580000
237.513153	154.380000
237.605927	154.720000
237.698669	153.920000
237.791428	153.200000
237.884186	153.520000
237.976944	153.120000
238.069702	153.240000
238.162445	152.880000
238.255203	153.080000
238.347961	153.060000
238.440720	153.040000
238.533478	153.000000
238.626266	153.000000
238.719025	153.260000
238.811783	152.940000
238.904541	152.800000
238.997314	152.580000
239.090073	152.440000
239.182831	152.640000
239.275604	153.700000
239.368362	153.660000
239.461136	153.600000
239.553909	153.600000
239.646667	153.380000
239.739441	152.560000
239.832214	153.060000
239.925003	153.420000
240.017761	154.220000
240.110535	154.560000
240.203308	154.180000
240.296082	154.220000
240.388855	154.340000
240.481628	154.180000
240.574417	154.420000
240.667191	154.580000
240.759964	153.940000
240.852737	153.780000
240.945526	153.360000
241.038315	152.820000
241.131088	152.980000
241.223877	153.600000
241.316650	153.200000
241.409439	153.960000
241.502228	153.720000
241.595001	154.280000
241.687790	153.820000
241.780579	153.840000
241.873367	153.580000
241.966141	154.160000
242.058929	153.240000
242.151718	153.780000
242.244507	154.620000
242.337311	153.640000
242.430099	153.780000
242.522903	154.080000
242.615692	153.320000
242.708481	153.240000
242.801270	154.240000
242.894073	153.800000
242.986862	154.060000
243.079651	155.020000
243.172455	154.340000
243.265244	154.620000
243.358063	154.340000
243.450867	154.360000
243.543655	153.920000
243.636459	154.100000
243.729263	153.880000
243.822067	154.320000
243.914856	154.800000
244.007660	154.740000
244.100464	154.920000
244.193268	154.640000
244.286072	154.360000
244.378876	153.560000
244.471680	153.600000
244.564499	153.640000
244.657318	154.220000
244.750122	154.580000
244.842926	154.080000
244.935745	154.340000
245.028549	153.860000
245.121368	153.380000
245.214172	153.180000
245.306992	153.920000
245.399796	153.460000
245.492615	154.040000
245.585434	154.080000
245.678253	154.000000
245.771072	153.980000
245.863892	154.500000
245.956711	154.480000
246.049530	154.240000
246.142349	153.900000
246.235168	153.720000
246.327988	153.960000
246.420807	153.640000
246.513626	153.660000
246.606445	153.460000
246.699280	153.700000
246.792099	153.400000
246.884918	153.180000
246.977753	152.960000
247.070587	153.400000
247.163422	153.060000
247.256241	152.900000
247.349075	153.240000
247.441895	153.440000
247.534729	153.200000
247.627563	153.120000
247.720383	153.460000
247.813217	153.320000
247.906052	153.240000
247.998886	153.640000
248.091736	153.940000
248.184570	153.720000
248.277405	153.740000
248.370239	154.540000
248.463074	155.260000
248.555908	155.360000
248.648743	155.120000
248.741592	155.340000
248.834427	154.420000
248.927261	153.120000
249.020111	153.300000
249.112946	154.040000
249.205795	153.520000
249.298630	153.680000
249.391495	153.900000
249.484344	153.320000
249.577179	153.200000
249.670029	153.680000
249.762878	154.480000
249.855728	154.800000
249.948563	155.260000
250.041412	154.520000
250.134262	154.620000
250.227112	154.460000
250.319962	154.260000
250.412827	154.220000
250.505692	154.060000
250.598541	154.080000
250.691391	153.600000
250.784241	154.020000
250.877106	154.160000
250.969955	154.040000
251.062805	154.400000
251.155670	154.840000
251.248520	154.440000
251.341385	154.560000
251.434235	154.680000
251.527100	154.200000
251.619965	154.020000
251.712814	154.720000
251.805695	154.360000
251.898560	154.600000
251.991425	154.680000
252.084290	154.380000
252.177155	153.500000
252.270020	153.520000
252.362885	153.380000
252.455750	153.440000
252.548615	153.600000
252.641479	153.660000
252.734360	153.480000
252.827240	153.500000
252.920105	153.480000
253.012970	153.140000
253.105850	153.280000
253.198715	153.360000
253.291595	153.340000
253.384460	152.960000
253.477341	152.680000
253.570221	152.760000
253.663086	152.120000
253.755966	152.840000
253.848846	152.980000
253.941727	153.560000
254.034592	153.540000
254.127472	153.520000
254.220367	153.180000
254.313248	153.260000
254.406128	152.560000
254.499008	152.940000
254.591904	154.020000
254.684784	154.620000
254.777664	154.880000
254.870544	155.000000
254.963440	154.440000
255.056335	154.020000
255.149216	153.460000
255.242111	153.640000
255.334991	154.000000
255.427887	154.200000
255.520767	154.440000
255.613663	154.440000
255.706558	153.760000
255.799438	153.980000
255.892334	153.760000
255.985229	153.440000
256.078125	153.000000
256.171021	153.240000
256.263916	153.340000
256.356812	153.660000
256.449707	153.800000
256.542603	153.780000
256.635498	154.340000
256.728394	154.160000
256.821289	153.860000
256.914215	154.280000
257.007080	154.600000
257.100006	154.280000
257.192932	154.340000
257.285828	154.520000
257.378723	153.880000
257.471619	153.920000
257.564545	153.680000
257.657440	153.740000
257.750336	154.420000
257.843262	154.220000
257.936157	155.020000
258.029053	155.280000
258.121979	155.340000
258.214874	154.760000
258.307800	154.940000
258.400696	153.640000
258.493622	153.340000
258.586517	152.620000
258.679443	153.060000
258.772339	152.660000
258.865265	152.960000
258.958160	152.560000
259.051086	153.120000
259.144012	152.520000
259.236938	153.440000
259.329834	153.300000
259.422791	153.620000
259.515717	153.160000
259.608612	152.960000
259.701538	152.780000
259.794464	152.740000
259.887390	152.420000
259.980316	152.700000
260.073212	152.800000
260.166138	151.860000
260.259064	152.640000
260.351990	153.480000
260.444916	153.680000
260.537842	154.340000
260.630768	155.280000
260.723694	154.960000
260.816620	154.700000
260.909546	154.360000
261.002472	153.700000
261.095398	153.160000
261.188354	153.020000
261.281281	152.480000
261.374207	152.540000
261.467133	152.980000
261.560089	153.340000
261.653015	152.980000
261.745972	153.920000
261.838867	154.480000
261.931824	154.600000
262.024780	153.980000
262.117706	154.400000
262.210663	154.160000
262.303589	153.500000
262.396515	153.460000
262.489471	154.960000
262.582397	154.860000
262.675354	154.200000
262.768280	154.900000
262.861237	154.580000
262.954163	153.800000
263.047119	153.860000
263.140045	153.780000
263.233002	153.580000
263.325958	153.580000
263.418884	153.120000
263.511841	153.100000
263.604797	153.740000
263.697723	153.420000
263.790680	153.440000
263.883636	154.080000
263.976593	153.840000
264.069550	153.560000
264.162476	153.420000
264.255463	153.460000
264.348419	153.040000
264.441376	153.640000
264.534332	153.020000
264.627289	153.220000
264.720245	153.560000
264.813202	153.120000
264.906158	152.860000
264.999115	153.720000
265.092072	153.660000
265.185028	154.000000
265.277985	154.800000
265.370941	154.740000
265.463898	154.260000
265.556854	154.180000
265.649811	153.200000
265.742798	153.000000
265.835754	153.020000
265.928711	153.840000
266.021667	153.800000
266.114655	154.360000
266.207611	154.580000
266.300568	154.040000
266.393585	153.620000
266.486511	154.120000
266.579498	153.160000
266.672485	153.120000
266.765442	153.240000
266.858429	153.480000
266.951385	152.800000
267.044342	153.340000
267.137329	153.000000
267.230316	153.440000
267.323273	152.920000
267.416260	153.720000
267.509216	153.620000
267.602203	153.640000
267.695160	153.820000
267.788147	154.060000
267.881134	153.560000
267.974091	153.720000
268.067078	153.520000
268.160065	153.220000
268.253052	152.980000
268.346008	152.840000
268.438995	152.400000
268.531982	152.560000
268.624969	152.540000
268.717987	152.980000
268.810944	152.820000
268.903961	153.260000
268.996948	153.000000
269.089905	153.120000
269.182892	152.900000
269.275879	153.860000
269.368866	153.420000
269.461853	153.400000
269.554871	153.480000
269.647858	153.500000
269.740845	153.260000
269.833832	154.020000
269.926819	154.000000
270.019806	154.100000
270.112793	153.480000
270.205811	153.680000
270.298798	153.220000
270.391785	154.000000
270.484772	153.680000
270.577789	154.040000
270.670776	153.320000
270.763763	153.360000
270.856750	152.980000
270.949768	152.700000
271.042786	152.840000
271.135773	153.060000
271.228790	153.520000
271.321808	153.120000
271.414795	152.920000
271.507782	152.720000
271.600800	152.380000
271.693817	152.320000
271.786804	152.880000
271.879822	153.400000
271.972809	153.320000
272.065826	153.920000
272.158844	153.080000
272.251831	153.620000
272.344849	153.580000
272.437866	153.580000
272.530853	153.540000
272.623871	154.300000
272.716888	153.140000
272.809906	153.240000
272.902893	153.360000
272.995911	152.600000
273.088928	152.180000
273.181946	152.760000
273.274963	152.440000
273.367981	152.380000
273.460999	152.940000
273.554047	153.760000
273.647003	154.180000
273.740051	154.340000
273.833069	154.880000
273.926086	154.960000
274.019135	154.460000
274.112152	153.940000
274.205170	153.980000
274.298187	153.920000
274.391205	153.500000
274.484222	153.400000
274.577240	153.300000
274.670258	153.260000
274.763306	153.060000
274.856323	153.600000
274.949341	153.740000
275.042358	154.140000
275.135406	153.960000
275.228424	153.800000
275.321442	153.680000
275.414490	153.360000
275.507507	153.680000
275.600525	154.400000
275.693573	154.100000
275.786591	153.580000
275.879669	153.960000
275.972656	153.240000
276.065735	152.740000
276.158752	153.360000
276.251801	154.160000
276.344818	154.120000
276.437866	154.420000
276.530884	154.300000
276.623932	153.400000
276.716980	153.400000
276.809998	153.260000
276.903046	153.100000
276.996094	154.020000
277.089111	154.960000
277.182159	155.260000
277.275208	155.120000
277.368256	155.320000
277.461304	154.620000
277.554321	153.860000
277.647369	153.380000
277.740417	153.320000
277.833466	153.160000
277.926514	153.140000
278.019562	154.080000
278.112610	153.580000
278.205688	153.880000
278.298706	153.560000
278.391785	153.380000
278.484833	152.420000
278.577881	152.560000
278.670929	152.900000
278.763977	153.420000
278.857025	153.900000
278.950073	154.380000
279.043121	154.620000
279.136169	153.940000
279.229248	153.500000
279.322296	153.380000
279.415344	153.020000
279.508392	152.780000
279.601440	152.880000
279.694519	152.700000
279.787567	152.620000
279.880615	152.460000
279.973694	152.240000
280.066742	152.420000
280.159790	152.680000
280.252869	152.080000
280.345917	152.840000
280.438995	153.160000
280.532074	153.020000
280.625122	153.200000
280.718201	154.520000
280.811279	154.180000
280.904327	154.180000
280.997406	154.580000
281.090454	154.760000
281.183533	153.840000
281.276581	153.760000
281.369659	153.400000
281.462738	153.380000
281.555786	153.360000
281.648865	153.400000
281.741943	153.320000
281.835022	154.080000
281.928070	153.520000
282.021149	153.100000
282.114227	152.940000
282.207306	153.240000
282.300385	153.200000
282.393433	153.760000
282.486511	154.000000
282.579590	154.600000
282.672668	154.740000
282.765747	153.940000
282.858856	153.600000
282.951904	153.580000
283.045013	153.640000
283.138062	153.760000
283.231171	154.440000
283.324249	154.800000
283.417328	155.100000
283.510406	154.500000
283.603485	154.040000
283.696564	154.240000
283.789642	154.100000
283.882751	153.620000
283.975830	154.140000
284.068909	153.740000
284.161987	153.900000
284.255066	153.420000
284.348175	153.580000
284.441254	153.580000
284.534332	154.380000
284.627441	153.820000
284.720520	153.920000
284.813599	154.140000
284.906708	154.000000
284.999786	153.080000
285.092896	152.940000
285.185974	154.080000
285.279053	153.080000
285.372192	153.080000
285.465240	154.040000
285.558380	154.040000
285.651459	153.340000
285.744568	154.780000
285.837677	154.520000
285.930756	154.480000
286.023865	154.480000
286.116943	154.000000
286.210052	153.600000
286.303162	153.440000
286.396240	153.080000
286.489349	152.800000
286.582458	153.180000
286.675568	152.840000
286.768646	153.120000
286.861755	153.660000
286.954865	154.400000
287.047974	154.020000
287.141083	153.940000
287.234161	153.400000
287.327271	152.880000
287.420380	153.060000
287.513519	152.880000
287.606598	153.080000
287.699738	153.380000
287.792816	153.320000
287.885956	153.220000
287.979034	153.200000
288.072174	153.440000
288.165283	153.500000
288.258392	153.980000
288.351501	153.160000
288.444611	153.680000
288.537720	153.720000
288.630859	153.500000
288.723969	153.580000
288.817078	154.380000
288.910187	154.300000
289.003296	153.780000
289.096436	153.880000
289.189545	153.200000
289.282654	152.580000
289.375763	152.960000
289.468903	153.360000
289.562012	153.780000
289.655121	154.060000
289.748260	154.080000
289.841400	154.020000
289.934509	153.900000
290.027649	153.820000
290.120728	153.660000
290.213898	154.040000
290.306976	153.580000
290.400146	153.940000
290.493256	153.280000
290.586395	153.460000
290.679535	153.560000
290.772644	153.840000
290.865784	152.860000
290.958893	153.300000
291.052032	153.160000
291.145172	152.820000
291.238281	152.240000
291.331421	152.660000
291.424561	153.280000
291.517670	153.240000
291.610809	153.460000
291.703949	153.440000
291.797089	153.840000
291.890228	153.100000
291.983337	153.020000
292.076477	152.900000
292.169617	153.480000
292.262756	153.100000
292.355927	153.280000
292.449036	153.020000
292.542206	153.200000
292.635315	153.180000
292.728485	153.560000
292.821625	152.900000
292.914764	154.380000
293.007904	154.300000
293.101044	154.260000
293.194183	154.020000
293.287323	154.500000
293.380463	153.400000
293.473602	153.040000
293.566742	153.120000
293.659882	153.400000
293.753021	153.920000
293.846191	153.900000
293.939331	154.040000
294.032471	154.120000
294.125610	153.780000
294.218781	153.780000
294.311920	154.440000
294.405060	154.600000
294.498230	154.240000
294.591370	154.200000
294.684540	153.480000
294.777679	152.720000
294.870850	152.820000
294.963959	152.920000
295.057159	152.940000
295.150299	153.380000
295.243469	153.760000
295.336609	153.480000
295.429779	153.680000
295.522919	154.360000
295.616089	154.300000
295.709229	154.620000
295.802399	154.700000
295.895569	154.140000
295.988708	153.680000
296.081879	153.980000
296.175018	153.440000
296.268188	153.700000
296.361359	154.700000
296.454529	154.680000
296.547668	154.140000
296.640839	154.380000
296.734009	153.760000
296.827179	153.340000
296.920319	153.600000
297.013519	153.540000
297.106659	153.600000
297.199860	153.580000
297.292999	153.540000
297.386200	152.980000
297.479309	152.980000
297.572510	152.760000
297.665680	153.080000
297.758850	152.920000
297.852020	152.940000
297.945190	153.020000
298.038361	152.680000
298.131531	153.320000
298.224701	153.080000
298.317871	152.900000
298.411072	152.460000
298.504242	152.600000
298.597412	152.060000
298.690582	152.460000
298.783752	152.720000
298.876923	153.380000
298.970093	153.540000
299.063293	153.880000
299.156464	154.120000
299.249634	154.260000
299.342834	154.440000
299.436005	154.720000
299.529205	154.080000
299.622345	154.040000
299.715576	153.500000
299.808716	152.920000
299.901917	152.940000
299.995117	153.720000
300.088287	153.640000
300.181488	153.820000
300.274658	153.920000
300.367828	153.580000
300.461029	153.060000
300.554199	153.280000
300.647400	153.180000
300.740601	153.880000
300.833771	153.660000
300.926971	153.800000
301.020142	153.380000
301.113342	153.640000
301.206512	153.380000
301.299713	154.060000
301.392914	154.060000
301.486084	154.340000
301.579285	154.180000
301.672516	154.340000
301.765686	153.880000
301.858887	153.940000
301.952057	153.600000
302.045288	153.640000
302.138458	153.380000
302.231659	153.080000
302.324860	152.820000
302.418060	152.680000
302.511261	152.600000
302.604462	152.660000
302.697662	152.880000
302.790863	152.600000
302.884064	152.420000
302.977264	152.580000
303.070465	152.580000
303.163666	153.280000
303.256866	153.900000
303.350067	154.060000
303.443268	154.080000
303.536469	154.600000
303.629669	153.940000
303.722870	154.100000
303.816071	153.960000
303.909271	154.120000
304.002472	153.060000
304.095673	152.880000
304.188934	152.140000
304.282104	153.400000
304.375336	153.500000
304.468506	153.700000
304.561768	153.620000
304.654968	153.980000
304.748169	153.180000
304.841370	152.720000
304.934601	153.340000
305.027802	153.400000
305.121002	152.960000
305.214233	152.920000
305.307434	153.240000
305.400665	153.540000
305.493866	153.580000
