Model Number: SPM-002-B   
Serial Number: 70087108
Firmware Version: 004.15.4
Exposure Time: 100000.000000us
Data Taken on: 15-01-2021 16:40:53.883
Wavelength	Amplitude
221.570786	0.000000
221.663406	0.000000
221.756027	0.000000
221.848648	0.000000
221.941269	0.000000
222.033905	0.000000
222.126526	0.000000
222.219162	0.000000
222.311798	0.000000
222.404419	0.000000
222.497055	0.000000
222.589676	0.000000
222.682312	0.000000
222.774933	0.000000
222.867569	0.000000
222.960205	0.000000
223.052841	0.000000
223.145462	0.000000
223.238098	0.000000
223.330734	0.000000
223.423386	0.000000
223.516022	0.000000
223.608658	0.000000
223.701309	0.000000
223.793945	0.000000
223.886581	0.000000
223.979218	0.000000
224.071869	0.000000
224.164505	0.000000
224.257156	0.000000
224.349792	0.000000
224.442444	0.000000
224.535095	0.000000
224.627747	0.000000
224.720398	0.000000
224.813034	0.000000
224.905685	0.000000
224.998337	152.360000
225.090988	152.120000
225.183640	151.680000
225.276291	151.620000
225.368942	152.340000
225.461594	153.400000
225.554245	153.780000
225.646912	154.300000
225.739578	154.760000
225.832230	155.120000
225.924896	154.000000
226.017548	154.460000
226.110199	154.880000
226.202866	154.240000
226.295532	153.700000
226.388184	153.820000
226.480850	153.080000
226.573517	152.500000
226.666168	152.840000
226.758835	153.280000
226.851501	153.720000
226.944183	153.880000
227.036850	153.600000
227.129517	153.380000
227.222183	153.580000
227.314850	153.200000
227.407516	153.720000
227.500198	154.420000
227.592865	154.380000
227.685532	153.660000
227.778214	153.700000
227.870880	153.800000
227.963562	154.080000
228.056229	154.720000
228.148926	154.980000
228.241592	155.880000
228.334274	155.280000
228.426956	155.200000
228.519638	154.920000
228.612305	154.560000
228.704987	154.300000
228.797668	154.500000
228.890350	153.740000
228.983032	153.020000
229.075714	153.800000
229.168396	153.460000
229.261108	153.120000
229.353790	153.500000
229.446472	153.900000
229.539169	153.460000
229.631851	152.760000
229.724533	153.080000
229.817230	153.340000
229.909912	154.620000
230.002609	154.440000
230.095306	154.700000
230.187988	154.700000
230.280685	154.240000
230.373383	152.980000
230.466095	152.980000
230.558792	153.400000
230.651474	153.040000
230.744171	153.060000
230.836868	152.600000
230.929581	152.900000
231.022278	152.800000
231.114975	153.120000
231.207672	153.220000
231.300369	153.900000
231.393082	153.940000
231.485779	153.820000
231.578506	153.520000
231.671204	153.560000
231.763916	153.580000
231.856613	153.200000
231.949326	153.540000
232.042023	153.600000
232.134735	153.240000
232.227448	152.840000
232.320160	153.380000
232.412872	152.840000
232.505585	153.900000
232.598297	154.300000
232.691010	154.280000
232.783722	153.520000
232.876450	154.480000
232.969162	153.580000
233.061874	153.220000
233.154587	153.000000
233.247314	153.700000
233.340027	152.980000
233.432739	153.260000
233.525467	153.240000
233.618179	153.800000
233.710907	153.420000
233.803635	153.520000
233.896347	153.160000
233.989090	153.920000
234.081818	153.900000
234.174545	154.220000
234.267258	154.280000
234.359985	154.560000
234.452713	154.240000
234.545441	154.040000
234.638168	153.640000
234.730896	153.820000
234.823639	153.500000
234.916367	153.640000
235.009094	153.900000
235.101822	154.060000
235.194580	153.980000
235.287308	154.360000
235.380051	153.620000
235.472778	153.520000
235.565521	153.700000
235.658249	153.140000
235.750992	153.180000
235.843719	153.400000
235.936462	153.920000
236.029205	153.560000
236.121948	153.460000
236.214691	153.720000
236.307449	154.360000
236.400192	153.740000
236.492935	153.620000
236.585678	154.040000
236.678421	153.960000
236.771164	153.900000
236.863907	154.480000
236.956665	154.860000
237.049408	156.720000
237.142151	156.020000
237.234909	156.720000
237.327652	156.580000
237.420410	156.160000
237.513153	154.780000
237.605927	155.180000
237.698669	154.300000
237.791428	153.480000
237.884186	154.420000
237.976944	154.100000
238.069702	154.100000
238.162445	153.380000
238.255203	153.860000
238.347961	153.860000
238.440720	153.840000
238.533478	153.600000
238.626266	153.840000
238.719025	154.020000
238.811783	153.500000
238.904541	153.260000
238.997314	152.960000
239.090073	152.660000
239.182831	152.960000
239.275604	153.680000
239.368362	153.740000
239.461136	154.160000
239.553909	154.520000
239.646667	154.000000
239.739441	153.440000
239.832214	153.800000
239.925003	154.060000
240.017761	154.580000
240.110535	155.280000
240.203308	154.900000
240.296082	154.700000
240.388855	154.540000
240.481628	154.440000
240.574417	154.340000
240.667191	154.440000
240.759964	154.000000
240.852737	153.840000
240.945526	153.520000
241.038315	152.960000
241.131088	153.320000
241.223877	153.780000
241.316650	153.400000
241.409439	153.700000
241.502228	153.420000
241.595001	153.900000
241.687790	153.780000
241.780579	153.920000
241.873367	154.160000
241.966141	154.680000
242.058929	153.760000
242.151718	154.140000
242.244507	154.720000
242.337311	153.700000
242.430099	154.060000
242.522903	154.320000
242.615692	153.740000
242.708481	153.640000
242.801270	154.500000
242.894073	154.200000
242.986862	154.100000
243.079651	154.860000
243.172455	154.540000
243.265244	154.340000
243.358063	153.600000
243.450867	154.240000
243.543655	154.020000
243.636459	154.160000
243.729263	154.500000
243.822067	155.240000
243.914856	155.400000
244.007660	155.320000
244.100464	155.280000
244.193268	154.620000
244.286072	154.540000
244.378876	153.540000
244.471680	153.080000
244.564499	153.240000
244.657318	154.300000
244.750122	154.520000
244.842926	154.280000
244.935745	154.780000
245.028549	154.600000
245.121368	154.120000
245.214172	153.840000
245.306992	154.560000
245.399796	154.140000
245.492615	154.400000
245.585434	153.880000
245.678253	153.640000
245.771072	153.340000
245.863892	153.960000
245.956711	154.060000
246.049530	154.400000
246.142349	154.540000
246.235168	154.920000
246.327988	154.940000
246.420807	154.480000
246.513626	154.400000
246.606445	154.180000
246.699280	153.800000
246.792099	153.280000
246.884918	153.100000
246.977753	152.540000
247.070587	152.800000
247.163422	152.840000
247.256241	152.860000
247.349075	153.220000
247.441895	153.600000
247.534729	153.400000
247.627563	153.420000
247.720383	154.280000
247.813217	154.120000
247.906052	153.980000
247.998886	154.060000
248.091736	153.820000
248.184570	152.980000
248.277405	153.200000
248.370239	154.120000
248.463074	155.520000
248.555908	155.780000
248.648743	155.700000
248.741592	155.540000
248.834427	154.560000
248.927261	152.920000
249.020111	153.480000
249.112946	154.300000
249.205795	153.960000
249.298630	154.440000
249.391495	154.700000
249.484344	153.880000
249.577179	153.720000
249.670029	154.240000
249.762878	154.800000
249.855728	154.960000
249.948563	155.360000
250.041412	154.680000
250.134262	154.700000
250.227112	154.440000
250.319962	154.360000
250.412827	154.300000
250.505692	154.160000
250.598541	154.340000
250.691391	153.940000
250.784241	153.940000
250.877106	154.000000
250.969955	153.940000
251.062805	154.080000
251.155670	154.680000
251.248520	154.660000
251.341385	155.120000
251.434235	155.040000
251.527100	154.680000
251.619965	154.040000
251.712814	154.880000
251.805695	154.720000
251.898560	155.260000
251.991425	155.500000
252.084290	155.600000
252.177155	154.240000
252.270020	153.900000
252.362885	153.560000
252.455750	153.280000
252.548615	153.200000
252.641479	153.580000
252.734360	153.220000
252.827240	153.220000
252.920105	153.720000
253.012970	153.380000
253.105850	153.260000
253.198715	153.260000
253.291595	153.220000
253.384460	152.620000
253.477341	152.780000
253.570221	153.000000
253.663086	153.060000
253.755966	153.940000
253.848846	153.880000
253.941727	154.280000
254.034592	154.020000
254.127472	153.720000
254.220367	153.520000
254.313248	153.460000
254.406128	152.980000
254.499008	153.480000
254.591904	154.440000
254.684784	154.700000
254.777664	154.820000
254.870544	154.860000
254.963440	154.380000
255.056335	154.180000
255.149216	153.460000
255.242111	154.240000
255.334991	154.480000
255.427887	154.720000
255.520767	154.760000
255.613663	155.120000
255.706558	153.940000
255.799438	153.700000
255.892334	153.700000
255.985229	153.580000
256.078125	153.300000
256.171021	153.740000
256.263916	154.220000
256.356812	154.140000
256.449707	154.220000
256.542603	154.080000
256.635498	154.740000
256.728394	154.500000
256.821289	154.520000
256.914215	154.660000
257.007080	154.320000
257.100006	153.900000
257.192932	154.540000
257.285828	154.840000
257.378723	154.180000
257.471619	154.480000
257.564545	154.140000
257.657440	153.700000
257.750336	154.160000
257.843262	154.080000
257.936157	155.340000
258.029053	155.700000
258.121979	155.580000
258.214874	154.840000
258.307800	154.680000
258.400696	153.480000
258.493622	153.180000
258.586517	152.540000
258.679443	153.120000
258.772339	152.940000
258.865265	152.800000
258.958160	152.420000
259.051086	153.460000
259.144012	152.680000
259.236938	153.860000
259.329834	154.020000
259.422791	153.880000
259.515717	153.380000
259.608612	153.280000
259.701538	152.840000
259.794464	152.780000
259.887390	153.220000
259.980316	152.940000
260.073212	153.120000
260.166138	152.220000
260.259064	152.600000
260.351990	153.260000
260.444916	153.580000
260.537842	153.960000
260.630768	155.200000
260.723694	154.960000
260.816620	154.540000
260.909546	154.340000
261.002472	153.700000
261.095398	152.920000
261.188354	152.960000
261.281281	152.620000
261.374207	152.580000
261.467133	153.680000
261.560089	153.860000
261.653015	153.640000
261.745972	154.380000
261.838867	155.280000
261.931824	154.940000
262.024780	154.560000
262.117706	154.920000
262.210663	154.740000
262.303589	154.000000
262.396515	153.980000
262.489471	155.240000
262.582397	155.000000
262.675354	154.320000
262.768280	154.280000
262.861237	154.220000
262.954163	153.640000
263.047119	153.920000
263.140045	153.900000
263.233002	153.760000
263.325958	153.760000
263.418884	153.220000
263.511841	153.120000
263.604797	153.360000
263.697723	153.680000
263.790680	153.260000
263.883636	153.940000
263.976593	153.600000
264.069550	153.820000
264.162476	153.400000
264.255463	153.740000
264.348419	153.400000
264.441376	153.660000
264.534332	153.040000
264.627289	153.120000
264.720245	153.640000
264.813202	153.020000
264.906158	153.280000
264.999115	154.040000
265.092072	154.200000
265.185028	154.300000
265.277985	154.980000
265.370941	154.660000
265.463898	154.420000
265.556854	154.200000
265.649811	153.000000
265.742798	152.960000
265.835754	153.020000
265.928711	153.480000
266.021667	153.880000
266.114655	154.400000
266.207611	154.820000
266.300568	154.440000
266.393585	153.720000
266.486511	153.780000
266.579498	153.220000
266.672485	152.800000
266.765442	152.580000
266.858429	153.280000
266.951385	152.700000
267.044342	152.980000
267.137329	152.840000
267.230316	153.440000
267.323273	152.840000
267.416260	153.840000
267.509216	153.780000
267.602203	153.860000
267.695160	154.200000
267.788147	154.240000
267.881134	153.280000
267.974091	153.720000
268.067078	153.520000
268.160065	153.100000
268.253052	153.000000
268.346008	153.240000
268.438995	152.960000
268.531982	153.200000
268.624969	152.880000
268.717987	153.380000
268.810944	153.520000
268.903961	153.780000
268.996948	153.700000
269.089905	154.500000
269.182892	154.540000
269.275879	154.620000
269.368866	153.900000
269.461853	154.000000
269.554871	153.940000
269.647858	153.600000
269.740845	153.960000
269.833832	154.800000
269.926819	154.540000
270.019806	154.320000
270.112793	154.000000
270.205811	153.860000
270.298798	153.460000
270.391785	153.860000
270.484772	153.380000
270.577789	153.560000
270.670776	153.020000
270.763763	152.980000
270.856750	152.940000
270.949768	153.060000
271.042786	153.260000
271.135773	153.460000
271.228790	153.720000
271.321808	153.500000
271.414795	153.160000
271.507782	153.100000
271.600800	152.740000
271.693817	152.820000
271.786804	153.280000
271.879822	153.880000
271.972809	153.780000
272.065826	154.460000
272.158844	153.860000
272.251831	154.160000
272.344849	154.020000
272.437866	153.920000
272.530853	153.540000
272.623871	154.260000
272.716888	153.040000
272.809906	153.380000
272.902893	153.440000
272.995911	153.160000
273.088928	152.620000
273.181946	153.400000
273.274963	152.840000
273.367981	152.740000
273.460999	153.160000
273.554047	153.780000
273.647003	154.300000
273.740051	154.660000
273.833069	155.400000
273.926086	155.560000
274.019135	155.120000
274.112152	154.640000
274.205170	154.460000
274.298187	154.020000
274.391205	153.580000
274.484222	153.760000
274.577240	153.520000
274.670258	153.520000
274.763306	153.480000
274.856323	153.820000
274.949341	153.620000
275.042358	153.900000
275.135406	154.000000
275.228424	153.940000
275.321442	153.760000
275.414490	153.680000
275.507507	154.120000
275.600525	154.620000
275.693573	154.620000
275.786591	154.420000
275.879669	154.680000
275.972656	153.900000
276.065735	153.400000
276.158752	153.840000
276.251801	154.700000
276.344818	154.760000
276.437866	154.920000
276.530884	154.700000
276.623932	154.000000
276.716980	153.960000
276.809998	154.040000
276.903046	154.000000
276.996094	154.940000
277.089111	155.480000
277.182159	155.580000
277.275208	155.060000
277.368256	155.200000
277.461304	154.500000
277.554321	153.800000
277.647369	153.400000
277.740417	153.900000
277.833466	153.780000
277.926514	153.700000
278.019562	154.600000
278.112610	154.200000
278.205688	154.040000
278.298706	153.940000
278.391785	153.800000
278.484833	153.060000
278.577881	153.000000
278.670929	153.380000
278.763977	153.640000
278.857025	154.240000
278.950073	154.700000
279.043121	154.500000
279.136169	154.020000
279.229248	153.580000
279.322296	153.340000
279.415344	152.880000
279.508392	153.060000
279.601440	153.120000
279.694519	153.380000
279.787567	152.960000
279.880615	152.880000
279.973694	152.940000
280.066742	152.960000
280.159790	153.120000
280.252869	153.160000
280.345917	153.500000
280.438995	153.300000
280.532074	153.380000
280.625122	153.660000
280.718201	154.580000
280.811279	154.620000
280.904327	154.700000
280.997406	154.700000
281.090454	154.520000
281.183533	153.800000
281.276581	153.700000
281.369659	153.880000
281.462738	154.040000
281.555786	153.880000
281.648865	154.120000
281.741943	154.120000
281.835022	154.640000
281.928070	154.200000
282.021149	154.020000
282.114227	153.480000
282.207306	153.300000
282.300385	153.420000
282.393433	153.780000
282.486511	154.080000
282.579590	154.880000
282.672668	155.480000
282.765747	154.660000
282.858856	154.480000
282.951904	154.380000
283.045013	154.140000
283.138062	153.940000
283.231171	154.500000
283.324249	154.760000
283.417328	154.840000
283.510406	154.420000
283.603485	154.460000
283.696564	154.100000
283.789642	154.100000
283.882751	153.700000
283.975830	154.400000
284.068909	154.180000
284.161987	155.000000
284.255066	154.480000
284.348175	154.780000
284.441254	154.600000
284.534332	154.780000
284.627441	154.080000
284.720520	153.740000
284.813599	153.780000
284.906708	153.540000
284.999786	152.820000
285.092896	152.440000
285.185974	153.760000
285.279053	153.160000
285.372192	153.100000
285.465240	153.820000
285.558380	154.060000
285.651459	153.480000
285.744568	154.460000
285.837677	154.400000
285.930756	154.200000
286.023865	153.980000
286.116943	153.760000
286.210052	153.580000
286.303162	153.480000
286.396240	153.480000
286.489349	153.240000
286.582458	153.520000
286.675568	153.140000
286.768646	153.160000
286.861755	153.500000
286.954865	154.680000
287.047974	153.940000
287.141083	153.940000
287.234161	153.940000
287.327271	153.700000
287.420380	153.740000
287.513519	153.840000
287.606598	154.020000
287.699738	153.960000
287.792816	153.720000
287.885956	153.280000
287.979034	153.400000
288.072174	153.320000
288.165283	153.700000
288.258392	154.080000
288.351501	153.400000
288.444611	153.600000
288.537720	154.100000
288.630859	153.880000
288.723969	153.920000
288.817078	154.580000
288.910187	154.720000
289.003296	153.840000
289.096436	153.480000
289.189545	153.240000
289.282654	152.700000
289.375763	152.840000
289.468903	153.580000
289.562012	154.020000
289.655121	153.960000
289.748260	154.480000
289.841400	154.600000
289.934509	154.200000
290.027649	154.240000
290.120728	154.080000
290.213898	153.980000
290.306976	153.620000
290.400146	153.920000
290.493256	153.400000
290.586395	153.900000
290.679535	153.920000
290.772644	153.760000
290.865784	153.060000
290.958893	153.200000
291.052032	152.640000
291.145172	152.580000
291.238281	152.280000
291.331421	152.440000
291.424561	153.400000
291.517670	153.360000
291.610809	153.520000
291.703949	153.740000
291.797089	154.320000
291.890228	153.320000
291.983337	153.460000
292.076477	153.300000
292.169617	153.700000
292.262756	153.400000
292.355927	153.360000
292.449036	153.520000
292.542206	153.460000
292.635315	153.460000
292.728485	153.820000
292.821625	153.780000
292.914764	154.900000
293.007904	155.080000
293.101044	154.980000
293.194183	154.840000
293.287323	155.080000
293.380463	154.200000
293.473602	153.780000
293.566742	153.920000
293.659882	154.340000
293.753021	154.560000
293.846191	154.500000
293.939331	154.480000
294.032471	154.260000
294.125610	153.580000
294.218781	153.880000
294.311920	154.060000
294.405060	154.480000
294.498230	154.400000
294.591370	154.400000
294.684540	153.760000
294.777679	153.300000
294.870850	153.400000
294.963959	153.460000
295.057159	153.320000
295.150299	153.780000
295.243469	153.700000
295.336609	153.060000
295.429779	153.140000
295.522919	153.840000
295.616089	153.620000
295.709229	154.380000
295.802399	154.540000
295.895569	154.260000
295.988708	153.420000
296.081879	153.860000
296.175018	153.120000
296.268188	153.340000
296.361359	153.900000
296.454529	154.600000
296.547668	153.860000
296.640839	154.140000
296.734009	153.920000
296.827179	153.780000
296.920319	153.680000
297.013519	153.620000
297.106659	153.940000
297.199860	153.720000
297.292999	153.680000
297.386200	153.440000
297.479309	153.740000
297.572510	153.180000
297.665680	153.240000
297.758850	153.020000
297.852020	152.940000
297.945190	152.800000
298.038361	152.920000
298.131531	154.020000
298.224701	153.860000
298.317871	153.760000
298.411072	153.280000
298.504242	153.540000
298.597412	152.820000
298.690582	153.320000
298.783752	153.480000
298.876923	154.080000
298.970093	153.680000
299.063293	153.960000
299.156464	154.000000
299.249634	154.100000
299.342834	154.360000
299.436005	155.000000
299.529205	154.600000
299.622345	154.540000
299.715576	154.000000
299.808716	153.540000
299.901917	153.200000
299.995117	153.500000
300.088287	153.780000
300.181488	153.760000
300.274658	153.540000
300.367828	153.440000
300.461029	153.520000
300.554199	153.140000
300.647400	153.300000
300.740601	153.800000
300.833771	153.540000
300.926971	153.700000
301.020142	153.300000
301.113342	153.180000
301.206512	153.680000
301.299713	154.240000
301.392914	154.080000
301.486084	154.560000
301.579285	154.880000
301.672516	154.880000
301.765686	154.480000
301.858887	154.340000
301.952057	154.260000
302.045288	154.220000
302.138458	153.660000
302.231659	153.520000
302.324860	153.420000
302.418060	153.140000
302.511261	153.160000
302.604462	153.420000
302.697662	153.120000
302.790863	152.900000
302.884064	152.580000
302.977264	152.460000
303.070465	152.520000
303.163666	153.640000
303.256866	154.000000
303.350067	154.440000
303.443268	154.480000
303.536469	154.480000
303.629669	154.060000
303.722870	154.000000
303.816071	153.560000
303.909271	153.720000
304.002472	153.060000
304.095673	152.360000
304.188934	151.940000
304.282104	153.260000
304.375336	152.860000
304.468506	153.060000
304.561768	153.320000
304.654968	153.840000
304.748169	153.000000
304.841370	152.960000
304.934601	153.400000
305.027802	153.000000
305.121002	152.640000
305.214233	152.660000
305.307434	153.120000
305.400665	153.680000
305.493866	153.960000
