Model Number: SPM-002-B   
Serial Number: 70087108
Firmware Version: 004.15.4
Exposure Time: 100000.000000us
Data Taken on: 15-01-2021 16:41:03.910
Wavelength	Amplitude
221.570786	0.000000
221.663406	0.000000
221.756027	0.000000
221.848648	0.000000
221.941269	0.000000
222.033905	0.000000
222.126526	0.000000
222.219162	0.000000
222.311798	0.000000
222.404419	0.000000
222.497055	0.000000
222.589676	0.000000
222.682312	0.000000
222.774933	0.000000
222.867569	0.000000
222.960205	0.000000
223.052841	0.000000
223.145462	0.000000
223.238098	0.000000
223.330734	0.000000
223.423386	0.000000
223.516022	0.000000
223.608658	0.000000
223.701309	0.000000
223.793945	0.000000
223.886581	0.000000
223.979218	0.000000
224.071869	0.000000
224.164505	0.000000
224.257156	0.000000
224.349792	0.000000
224.442444	0.000000
224.535095	0.000000
224.627747	0.000000
224.720398	0.000000
224.813034	0.000000
224.905685	0.000000
224.998337	152.080000
225.090988	152.180000
225.183640	152.180000
225.276291	151.940000
225.368942	152.220000
225.461594	153.120000
225.554245	153.280000
225.646912	153.420000
225.739578	154.020000
225.832230	154.440000
225.924896	153.480000
226.017548	153.960000
226.110199	154.640000
226.202866	153.900000
226.295532	153.420000
226.388184	153.420000
226.480850	152.700000
226.573517	151.660000
226.666168	151.860000
226.758835	152.560000
226.851501	153.440000
226.944183	153.820000
227.036850	153.800000
227.129517	153.820000
227.222183	153.780000
227.314850	153.180000
227.407516	153.100000
227.500198	154.220000
227.592865	154.060000
227.685532	153.480000
227.778214	153.500000
227.870880	153.940000
227.963562	153.880000
228.056229	154.340000
228.148926	154.560000
228.241592	155.400000
228.334274	154.880000
228.426956	154.360000
228.519638	154.260000
228.612305	153.860000
228.704987	153.600000
228.797668	153.640000
228.890350	153.520000
228.983032	152.820000
229.075714	153.600000
229.168396	153.280000
229.261108	152.620000
229.353790	152.800000
229.446472	153.340000
229.539169	153.040000
229.631851	152.540000
229.724533	153.280000
229.817230	153.260000
229.909912	154.560000
230.002609	154.780000
230.095306	155.040000
230.187988	155.240000
230.280685	155.080000
230.373383	153.460000
230.466095	152.960000
230.558792	153.280000
230.651474	153.080000
230.744171	153.120000
230.836868	153.320000
230.929581	153.760000
231.022278	153.620000
231.114975	153.360000
231.207672	152.980000
231.300369	153.360000
231.393082	153.160000
231.485779	153.000000
231.578506	153.100000
231.671204	153.460000
231.763916	153.240000
231.856613	153.500000
231.949326	153.480000
232.042023	153.360000
232.134735	153.360000
232.227448	153.020000
232.320160	153.100000
232.412872	153.260000
232.505585	154.360000
232.598297	154.780000
232.691010	154.820000
232.783722	154.160000
232.876450	154.900000
232.969162	153.820000
233.061874	153.040000
233.154587	153.100000
233.247314	153.720000
233.340027	153.000000
233.432739	153.940000
233.525467	153.860000
233.618179	154.300000
233.710907	153.780000
233.803635	154.060000
233.896347	153.160000
233.989090	153.880000
234.081818	153.400000
234.174545	153.840000
234.267258	153.500000
234.359985	154.220000
234.452713	154.140000
234.545441	154.300000
234.638168	153.940000
234.730896	154.020000
234.823639	153.400000
234.916367	153.520000
235.009094	153.560000
235.101822	153.700000
235.194580	153.740000
235.287308	153.980000
235.380051	153.320000
235.472778	153.760000
235.565521	153.720000
235.658249	153.280000
235.750992	153.260000
235.843719	153.140000
235.936462	152.840000
236.029205	152.700000
236.121948	152.640000
236.214691	153.100000
236.307449	154.140000
236.400192	153.840000
236.492935	153.960000
236.585678	153.980000
236.678421	153.880000
236.771164	153.460000
236.863907	153.880000
236.956665	153.640000
237.049408	155.640000
237.142151	154.720000
237.234909	155.500000
237.327652	155.480000
237.420410	155.680000
237.513153	154.220000
237.605927	154.440000
237.698669	153.500000
237.791428	152.780000
237.884186	153.100000
237.976944	152.780000
238.069702	153.340000
238.162445	152.960000
238.255203	153.260000
238.347961	153.280000
238.440720	153.180000
238.533478	152.720000
238.626266	152.720000
238.719025	152.720000
238.811783	152.440000
238.904541	152.500000
238.997314	152.700000
239.090073	152.600000
239.182831	153.060000
239.275604	153.880000
239.368362	153.900000
239.461136	153.760000
239.553909	153.920000
239.646667	153.500000
239.739441	153.100000
239.832214	153.360000
239.925003	153.540000
240.017761	154.100000
240.110535	154.860000
240.203308	154.400000
240.296082	154.140000
240.388855	153.900000
240.481628	153.920000
240.574417	153.440000
240.667191	153.520000
240.759964	153.540000
240.852737	153.720000
240.945526	153.280000
241.038315	152.860000
241.131088	153.040000
241.223877	153.400000
241.316650	153.160000
241.409439	153.720000
241.502228	153.840000
241.595001	154.220000
241.687790	154.140000
241.780579	154.220000
241.873367	154.100000
241.966141	154.360000
242.058929	153.480000
242.151718	153.500000
242.244507	153.980000
242.337311	153.060000
242.430099	153.940000
242.522903	154.320000
242.615692	154.000000
242.708481	153.880000
242.801270	154.580000
242.894073	153.860000
242.986862	153.780000
243.079651	154.380000
243.172455	153.860000
243.265244	153.900000
243.358063	153.380000
243.450867	153.720000
243.543655	153.460000
243.636459	153.680000
243.729263	154.240000
243.822067	154.540000
243.914856	154.580000
244.007660	154.280000
244.100464	154.320000
244.193268	153.420000
244.286072	153.400000
244.378876	152.840000
244.471680	152.980000
244.564499	153.260000
244.657318	154.080000
244.750122	154.240000
244.842926	153.880000
244.935745	154.080000
245.028549	153.580000
245.121368	153.160000
245.214172	153.000000
245.306992	153.500000
245.399796	153.420000
245.492615	153.740000
245.585434	153.340000
245.678253	153.640000
245.771072	153.700000
245.863892	153.760000
245.956711	153.780000
246.049530	154.040000
246.142349	153.660000
246.235168	153.880000
246.327988	154.280000
246.420807	153.900000
246.513626	154.020000
246.606445	153.920000
246.699280	153.540000
246.792099	153.160000
246.884918	153.040000
246.977753	152.400000
247.070587	152.640000
247.163422	152.640000
247.256241	152.540000
247.349075	152.980000
247.441895	153.500000
247.534729	153.200000
247.627563	153.240000
247.720383	154.040000
247.813217	153.600000
247.906052	153.300000
247.998886	153.660000
248.091736	153.500000
248.184570	152.800000
248.277405	152.940000
248.370239	154.020000
248.463074	154.980000
248.555908	155.540000
248.648743	155.540000
248.741592	156.080000
248.834427	155.200000
248.927261	153.840000
249.020111	154.200000
249.112946	154.940000
249.205795	154.000000
249.298630	154.280000
249.391495	154.500000
249.484344	153.780000
249.577179	153.400000
249.670029	154.140000
249.762878	154.300000
249.855728	154.580000
249.948563	154.740000
250.041412	154.040000
250.134262	154.180000
250.227112	154.080000
250.319962	153.660000
250.412827	153.700000
250.505692	153.200000
250.598541	153.240000
250.691391	153.240000
250.784241	153.360000
250.877106	153.420000
250.969955	153.840000
251.062805	154.040000
251.155670	154.300000
251.248520	154.100000
251.341385	154.320000
251.434235	154.020000
251.527100	153.700000
251.619965	153.220000
251.712814	154.100000
251.805695	153.880000
251.898560	154.700000
251.991425	154.740000
252.084290	155.000000
252.177155	154.220000
252.270020	153.900000
252.362885	153.580000
252.455750	153.640000
252.548615	153.060000
252.641479	153.380000
252.734360	153.280000
252.827240	152.960000
252.920105	153.040000
253.012970	153.000000
253.105850	152.500000
253.198715	152.380000
253.291595	152.780000
253.384460	152.020000
253.477341	152.140000
253.570221	152.600000
253.663086	152.580000
253.755966	153.120000
253.848846	153.280000
253.941727	153.600000
254.034592	153.360000
254.127472	153.020000
254.220367	152.820000
254.313248	153.340000
254.406128	152.920000
254.499008	153.340000
254.591904	154.520000
254.684784	154.800000
254.777664	154.660000
254.870544	154.620000
254.963440	154.300000
255.056335	154.060000
255.149216	153.420000
255.242111	154.100000
255.334991	154.540000
255.427887	154.760000
255.520767	154.700000
255.613663	155.020000
255.706558	154.180000
255.799438	154.060000
255.892334	153.480000
255.985229	153.580000
256.078125	153.440000
256.171021	153.420000
256.263916	153.880000
256.356812	154.460000
256.449707	154.420000
256.542603	154.260000
256.635498	154.860000
256.728394	154.200000
256.821289	153.760000
256.914215	154.000000
257.007080	154.140000
257.100006	154.100000
257.192932	154.400000
257.285828	154.780000
257.378723	154.220000
257.471619	154.020000
257.564545	153.360000
257.657440	153.600000
257.750336	153.900000
257.843262	153.960000
257.936157	155.240000
258.029053	155.660000
258.121979	155.700000
258.214874	155.120000
258.307800	154.900000
258.400696	153.540000
258.493622	153.720000
258.586517	152.640000
258.679443	153.000000
258.772339	152.540000
258.865265	152.500000
258.958160	151.880000
259.051086	153.040000
259.144012	153.100000
259.236938	154.340000
259.329834	154.200000
259.422791	154.240000
259.515717	153.420000
259.608612	152.800000
259.701538	152.540000
259.794464	152.920000
259.887390	153.000000
259.980316	153.320000
260.073212	153.400000
260.166138	152.480000
260.259064	152.860000
260.351990	153.520000
260.444916	153.560000
260.537842	153.920000
260.630768	154.420000
260.723694	154.280000
260.816620	153.860000
260.909546	153.800000
261.002472	153.620000
261.095398	153.340000
261.188354	152.840000
261.281281	152.420000
261.374207	152.400000
261.467133	153.100000
261.560089	153.520000
261.653015	153.240000
261.745972	154.100000
261.838867	154.600000
261.931824	154.680000
262.024780	154.340000
262.117706	155.000000
262.210663	154.620000
262.303589	154.380000
262.396515	154.100000
262.489471	154.960000
262.582397	154.600000
262.675354	154.280000
262.768280	154.140000
262.861237	153.960000
262.954163	153.920000
263.047119	154.240000
263.140045	153.880000
263.233002	153.780000
263.325958	153.640000
263.418884	152.860000
263.511841	152.840000
263.604797	153.140000
263.697723	153.060000
263.790680	153.100000
263.883636	153.880000
263.976593	153.600000
264.069550	153.860000
264.162476	153.940000
264.255463	153.920000
264.348419	153.720000
264.441376	154.260000
264.534332	153.620000
264.627289	153.820000
264.720245	154.520000
264.813202	153.760000
264.906158	153.720000
264.999115	154.820000
265.092072	154.480000
265.185028	154.640000
265.277985	155.280000
265.370941	155.360000
265.463898	154.760000
265.556854	154.620000
265.649811	153.400000
265.742798	153.300000
265.835754	152.920000
265.928711	153.260000
266.021667	153.440000
266.114655	154.000000
266.207611	154.100000
266.300568	153.700000
266.393585	153.120000
266.486511	153.400000
266.579498	152.420000
266.672485	152.120000
266.765442	152.320000
266.858429	152.960000
266.951385	152.680000
267.044342	153.500000
267.137329	153.600000
267.230316	154.180000
267.323273	153.760000
267.416260	154.320000
267.509216	154.040000
267.602203	153.920000
267.695160	154.000000
267.788147	153.960000
267.881134	153.300000
267.974091	153.560000
268.067078	153.240000
268.160065	152.480000
268.253052	152.400000
268.346008	152.600000
268.438995	152.320000
268.531982	152.700000
268.624969	152.860000
268.717987	153.320000
268.810944	153.220000
268.903961	153.140000
268.996948	152.700000
269.089905	153.020000
269.182892	153.060000
269.275879	153.540000
269.368866	153.460000
269.461853	154.100000
269.554871	154.020000
269.647858	154.100000
269.740845	154.100000
269.833832	154.920000
269.926819	154.720000
270.019806	154.820000
270.112793	154.100000
270.205811	154.360000
270.298798	153.800000
270.391785	154.220000
270.484772	153.960000
270.577789	154.300000
270.670776	153.460000
270.763763	153.500000
270.856750	153.340000
270.949768	152.880000
271.042786	152.960000
271.135773	153.360000
271.228790	153.580000
271.321808	153.380000
271.414795	153.320000
271.507782	153.000000
271.600800	152.680000
271.693817	152.700000
271.786804	152.920000
271.879822	153.420000
271.972809	153.380000
272.065826	153.860000
272.158844	153.460000
272.251831	153.900000
272.344849	153.880000
272.437866	153.660000
272.530853	153.840000
272.623871	154.180000
272.716888	153.140000
272.809906	153.520000
272.902893	153.720000
272.995911	153.060000
273.088928	152.820000
273.181946	153.220000
273.274963	152.760000
273.367981	152.660000
273.460999	152.960000
273.554047	153.700000
273.647003	154.420000
273.740051	154.620000
273.833069	155.460000
273.926086	155.380000
274.019135	154.720000
274.112152	154.240000
274.205170	154.260000
274.298187	153.800000
274.391205	153.380000
274.484222	153.320000
274.577240	153.020000
274.670258	152.740000
274.763306	152.840000
274.856323	153.780000
274.949341	154.220000
275.042358	154.660000
275.135406	154.840000
275.228424	154.900000
275.321442	154.340000
275.414490	153.960000
275.507507	154.140000
275.600525	154.640000
275.693573	154.220000
275.786591	154.100000
275.879669	154.320000
275.972656	153.700000
276.065735	153.260000
276.158752	153.960000
276.251801	154.680000
276.344818	154.840000
276.437866	155.280000
276.530884	154.840000
276.623932	153.880000
276.716980	153.540000
276.809998	153.320000
276.903046	153.060000
276.996094	154.100000
277.089111	154.780000
277.182159	155.140000
277.275208	154.880000
277.368256	154.960000
277.461304	154.660000
277.554321	154.260000
277.647369	154.240000
277.740417	154.340000
277.833466	154.200000
277.926514	153.760000
278.019562	154.480000
278.112610	153.580000
278.205688	153.680000
278.298706	153.740000
278.391785	153.640000
278.484833	152.760000
278.577881	152.820000
278.670929	153.280000
278.763977	153.300000
278.857025	153.940000
278.950073	154.180000
279.043121	154.400000
279.136169	153.900000
279.229248	153.800000
279.322296	153.540000
279.415344	153.560000
279.508392	153.440000
279.601440	153.440000
279.694519	153.540000
279.787567	153.160000
279.880615	152.920000
279.973694	152.940000
280.066742	152.920000
280.159790	152.820000
280.252869	152.860000
280.345917	153.180000
280.438995	152.800000
280.532074	152.860000
280.625122	153.400000
280.718201	154.420000
280.811279	154.280000
280.904327	154.640000
280.997406	154.800000
281.090454	154.600000
281.183533	153.500000
281.276581	153.560000
281.369659	153.340000
281.462738	153.440000
281.555786	153.360000
281.648865	153.780000
281.741943	153.740000
281.835022	154.360000
281.928070	153.880000
282.021149	154.020000
282.114227	153.780000
282.207306	153.580000
282.300385	153.600000
282.393433	153.960000
282.486511	153.680000
282.579590	154.180000
282.672668	154.840000
282.765747	154.120000
282.858856	153.960000
282.951904	154.300000
283.045013	154.400000
283.138062	154.480000
283.231171	155.200000
283.324249	155.660000
283.417328	155.700000
283.510406	155.060000
283.603485	154.820000
283.696564	154.760000
283.789642	154.560000
283.882751	154.040000
283.975830	154.860000
284.068909	154.660000
284.161987	155.100000
284.255066	154.520000
284.348175	154.460000
284.441254	153.740000
284.534332	154.260000
284.627441	153.720000
284.720520	153.640000
284.813599	153.960000
284.906708	154.420000
284.999786	153.660000
285.092896	153.200000
285.185974	154.380000
285.279053	153.760000
285.372192	153.480000
285.465240	153.980000
285.558380	154.260000
285.651459	153.540000
285.744568	154.440000
285.837677	154.140000
285.930756	154.020000
286.023865	153.840000
286.116943	153.320000
286.210052	153.100000
286.303162	153.180000
286.396240	153.140000
286.489349	153.060000
286.582458	153.500000
286.675568	153.400000
286.768646	153.600000
286.861755	153.900000
286.954865	154.620000
287.047974	154.200000
287.141083	153.960000
287.234161	153.820000
287.327271	153.140000
287.420380	153.600000
287.513519	153.760000
287.606598	154.060000
287.699738	154.220000
287.792816	154.600000
287.885956	154.020000
287.979034	153.980000
288.072174	153.700000
288.165283	153.440000
288.258392	153.680000
288.351501	152.980000
288.444611	153.320000
288.537720	153.980000
288.630859	153.840000
288.723969	153.760000
288.817078	154.620000
288.910187	154.520000
289.003296	153.720000
289.096436	153.500000
289.189545	153.180000
289.282654	152.480000
289.375763	152.880000
289.468903	153.380000
289.562012	153.680000
289.655121	153.680000
289.748260	154.100000
289.841400	154.040000
289.934509	154.000000
290.027649	154.440000
290.120728	154.240000
290.213898	154.300000
290.306976	153.960000
290.400146	153.980000
290.493256	153.400000
290.586395	153.960000
290.679535	154.020000
290.772644	153.880000
290.865784	153.060000
290.958893	153.180000
291.052032	152.820000
291.145172	152.920000
291.238281	153.040000
291.331421	153.360000
291.424561	154.040000
291.517670	153.820000
291.610809	153.600000
291.703949	153.240000
291.797089	153.540000
291.890228	152.780000
291.983337	152.520000
292.076477	152.160000
292.169617	152.620000
292.262756	152.640000
292.355927	152.600000
292.449036	153.020000
292.542206	153.560000
292.635315	153.820000
292.728485	153.820000
292.821625	153.880000
292.914764	155.000000
293.007904	155.120000
293.101044	155.220000
293.194183	155.320000
293.287323	155.500000
293.380463	154.760000
293.473602	154.320000
293.566742	154.360000
293.659882	154.620000
293.753021	155.000000
293.846191	154.720000
293.939331	154.280000
294.032471	153.680000
294.125610	153.300000
294.218781	153.180000
294.311920	153.620000
294.405060	154.080000
294.498230	154.080000
294.591370	154.080000
294.684540	153.620000
294.777679	153.180000
294.870850	153.480000
294.963959	153.280000
295.057159	153.260000
295.150299	153.700000
295.243469	153.580000
295.336609	152.840000
295.429779	153.240000
295.522919	153.640000
295.616089	153.700000
295.709229	154.220000
295.802399	154.540000
295.895569	154.220000
295.988708	153.980000
296.081879	153.900000
296.175018	153.340000
296.268188	153.240000
296.361359	153.840000
296.454529	153.700000
296.547668	153.260000
296.640839	153.680000
296.734009	153.620000
296.827179	153.460000
296.920319	153.540000
297.013519	153.620000
297.106659	153.640000
297.199860	153.620000
297.292999	153.540000
297.386200	153.520000
297.479309	153.560000
297.572510	153.460000
297.665680	153.380000
297.758850	153.080000
297.852020	153.060000
297.945190	152.820000
298.038361	152.500000
298.131531	153.720000
298.224701	153.860000
298.317871	153.400000
298.411072	153.280000
298.504242	153.260000
298.597412	152.180000
298.690582	152.740000
298.783752	153.080000
298.876923	153.440000
298.970093	153.600000
299.063293	154.080000
299.156464	154.060000
299.249634	154.160000
299.342834	154.280000
299.436005	154.800000
299.529205	154.680000
299.622345	154.380000
299.715576	153.820000
299.808716	153.760000
299.901917	153.400000
299.995117	153.540000
300.088287	153.700000
300.181488	153.800000
300.274658	153.660000
300.367828	153.540000
300.461029	153.580000
300.554199	153.880000
300.647400	154.000000
300.740601	154.520000
300.833771	154.360000
300.926971	154.520000
301.020142	153.760000
301.113342	153.660000
301.206512	153.660000
301.299713	154.080000
301.392914	153.580000
301.486084	154.080000
301.579285	154.460000
301.672516	154.640000
301.765686	154.180000
301.858887	153.980000
301.952057	153.660000
302.045288	153.420000
302.138458	152.980000
302.231659	153.100000
302.324860	153.560000
302.418060	153.460000
302.511261	153.380000
302.604462	153.880000
302.697662	153.740000
302.790863	153.300000
302.884064	153.340000
302.977264	153.360000
303.070465	153.180000
303.163666	154.360000
303.256866	154.620000
303.350067	154.580000
303.443268	154.480000
303.536469	154.440000
303.629669	153.040000
303.722870	153.140000
303.816071	152.880000
303.909271	153.120000
304.002472	152.320000
304.095673	152.440000
304.188934	151.760000
304.282104	152.720000
304.375336	152.560000
304.468506	152.760000
304.561768	152.740000
304.654968	153.380000
304.748169	152.440000
304.841370	152.660000
304.934601	153.120000
305.027802	152.940000
305.121002	152.800000
305.214233	153.320000
305.307434	153.200000
305.400665	153.560000
305.493866	153.700000
