Model Number: SPM-002-B   
Serial Number: 70087108
Firmware Version: 004.15.4
Exposure Time: 100000.000000us
Data Taken on: 15-01-2021 16:41:25.271
Wavelength	Amplitude
221.570786	0.000000
221.663406	0.000000
221.756027	0.000000
221.848648	0.000000
221.941269	0.000000
222.033905	0.000000
222.126526	0.000000
222.219162	0.000000
222.311798	0.000000
222.404419	0.000000
222.497055	0.000000
222.589676	0.000000
222.682312	0.000000
222.774933	0.000000
222.867569	0.000000
222.960205	0.000000
223.052841	0.000000
223.145462	0.000000
223.238098	0.000000
223.330734	0.000000
223.423386	0.000000
223.516022	0.000000
223.608658	0.000000
223.701309	0.000000
223.793945	0.000000
223.886581	0.000000
223.979218	0.000000
224.071869	0.000000
224.164505	0.000000
224.257156	0.000000
224.349792	0.000000
224.442444	0.000000
224.535095	0.000000
224.627747	0.000000
224.720398	0.000000
224.813034	0.000000
224.905685	0.000000
224.998337	153.480000
225.090988	153.320000
225.183640	153.320000
225.276291	153.000000
225.368942	153.200000
225.461594	153.640000
225.554245	153.880000
225.646912	154.060000
225.739578	154.760000
225.832230	155.160000
225.924896	154.360000
226.017548	154.640000
226.110199	155.060000
226.202866	154.300000
226.295532	154.000000
226.388184	154.100000
226.480850	153.520000
226.573517	153.060000
226.666168	153.340000
226.758835	153.740000
226.851501	154.220000
226.944183	154.340000
227.036850	154.160000
227.129517	154.040000
227.222183	154.140000
227.314850	154.020000
227.407516	154.560000
227.500198	155.300000
227.592865	155.040000
227.685532	154.400000
227.778214	154.020000
227.870880	154.140000
227.963562	154.380000
228.056229	155.180000
228.148926	155.200000
228.241592	156.340000
228.334274	155.580000
228.426956	155.060000
228.519638	154.820000
228.612305	154.220000
228.704987	153.740000
228.797668	153.880000
228.890350	153.520000
228.983032	152.700000
229.075714	153.860000
229.168396	153.580000
229.261108	153.380000
229.353790	153.860000
229.446472	154.720000
229.539169	154.480000
229.631851	154.320000
229.724533	154.580000
229.817230	154.660000
229.909912	155.400000
230.002609	155.340000
230.095306	155.380000
230.187988	155.320000
230.280685	155.040000
230.373383	153.740000
230.466095	153.500000
230.558792	153.820000
230.651474	153.780000
230.744171	153.680000
230.836868	153.820000
230.929581	154.300000
231.022278	154.200000
231.114975	154.380000
231.207672	154.320000
231.300369	155.000000
231.393082	154.980000
231.485779	154.660000
231.578506	154.560000
231.671204	154.820000
231.763916	154.380000
231.856613	154.000000
231.949326	154.540000
232.042023	154.340000
232.134735	154.140000
232.227448	153.920000
232.320160	154.520000
232.412872	154.300000
232.505585	155.220000
232.598297	155.400000
232.691010	155.280000
232.783722	154.480000
232.876450	155.020000
232.969162	154.120000
233.061874	153.780000
233.154587	153.480000
233.247314	154.280000
233.340027	153.480000
233.432739	154.080000
233.525467	153.960000
233.618179	154.720000
233.710907	154.040000
233.803635	154.320000
233.896347	154.180000
233.989090	155.140000
234.081818	155.040000
234.174545	155.440000
234.267258	155.260000
234.359985	155.180000
234.452713	154.940000
234.545441	154.840000
234.638168	154.680000
234.730896	154.940000
234.823639	154.800000
234.916367	155.260000
235.009094	155.420000
235.101822	155.060000
235.194580	155.080000
235.287308	154.960000
235.380051	154.000000
235.472778	153.940000
235.565521	154.620000
235.658249	154.280000
235.750992	154.460000
235.843719	154.320000
235.936462	154.660000
236.029205	154.300000
236.121948	154.320000
236.214691	154.640000
236.307449	155.700000
236.400192	154.880000
236.492935	154.940000
236.585678	155.080000
236.678421	155.300000
236.771164	154.540000
236.863907	155.240000
236.956665	155.080000
237.049408	156.780000
237.142151	155.940000
237.234909	156.920000
237.327652	156.840000
237.420410	156.840000
237.513153	155.640000
237.605927	155.520000
237.698669	154.620000
237.791428	153.740000
237.884186	154.260000
237.976944	153.380000
238.069702	153.700000
238.162445	153.500000
238.255203	154.120000
238.347961	154.020000
238.440720	154.380000
238.533478	154.520000
238.626266	154.300000
238.719025	154.420000
238.811783	154.200000
238.904541	154.080000
238.997314	153.900000
239.090073	153.720000
239.182831	154.140000
239.275604	155.040000
239.368362	154.900000
239.461136	155.180000
239.553909	155.380000
239.646667	154.820000
239.739441	154.060000
239.832214	154.240000
239.925003	154.280000
240.017761	155.160000
240.110535	155.520000
240.203308	154.960000
240.296082	155.320000
240.388855	154.900000
240.481628	154.880000
240.574417	154.800000
240.667191	155.040000
240.759964	154.540000
240.852737	154.720000
240.945526	154.060000
241.038315	153.980000
241.131088	154.160000
241.223877	154.340000
241.316650	154.140000
241.409439	154.440000
241.502228	154.100000
241.595001	154.580000
241.687790	154.440000
241.780579	154.420000
241.873367	154.580000
241.966141	154.600000
242.058929	153.640000
242.151718	154.020000
242.244507	154.420000
242.337311	153.720000
242.430099	154.460000
242.522903	154.740000
242.615692	154.160000
242.708481	154.120000
242.801270	154.520000
242.894073	154.240000
242.986862	154.360000
243.079651	155.040000
243.172455	154.580000
243.265244	154.780000
243.358063	154.300000
243.450867	154.900000
243.543655	154.900000
243.636459	155.300000
243.729263	155.200000
243.822067	155.620000
243.914856	155.780000
244.007660	155.540000
244.100464	155.460000
244.193268	155.080000
244.286072	154.860000
244.378876	154.180000
244.471680	153.800000
244.564499	153.960000
244.657318	154.920000
244.750122	155.320000
244.842926	154.720000
244.935745	155.400000
245.028549	155.060000
245.121368	154.220000
245.214172	153.760000
245.306992	154.300000
245.399796	153.900000
245.492615	154.200000
245.585434	154.220000
245.678253	154.360000
245.771072	154.460000
245.863892	154.820000
245.956711	154.780000
246.049530	154.680000
246.142349	154.100000
246.235168	154.080000
246.327988	154.380000
246.420807	154.000000
246.513626	154.280000
246.606445	154.540000
246.699280	154.280000
246.792099	153.620000
246.884918	153.740000
246.977753	153.580000
247.070587	153.820000
247.163422	153.980000
247.256241	154.040000
247.349075	154.200000
247.441895	154.300000
247.534729	154.140000
247.627563	154.280000
247.720383	155.180000
247.813217	155.240000
247.906052	154.860000
247.998886	155.100000
248.091736	154.680000
248.184570	153.780000
248.277405	153.860000
248.370239	155.220000
248.463074	156.120000
248.555908	156.460000
248.648743	156.700000
248.741592	156.880000
248.834427	156.080000
248.927261	154.700000
249.020111	155.240000
249.112946	155.600000
249.205795	154.760000
249.298630	154.860000
249.391495	155.060000
249.484344	154.460000
249.577179	154.400000
249.670029	155.060000
249.762878	155.380000
249.855728	155.840000
249.948563	155.880000
250.041412	155.080000
250.134262	155.140000
250.227112	155.120000
250.319962	154.820000
250.412827	154.880000
250.505692	154.800000
250.598541	154.860000
250.691391	154.480000
250.784241	154.380000
250.877106	154.360000
250.969955	154.300000
251.062805	154.620000
251.155670	154.840000
251.248520	154.720000
251.341385	154.960000
251.434235	155.040000
251.527100	154.540000
251.619965	154.140000
251.712814	155.000000
251.805695	154.920000
251.898560	155.380000
251.991425	155.600000
252.084290	155.800000
252.177155	154.700000
252.270020	154.360000
252.362885	153.900000
252.455750	153.740000
252.548615	153.440000
252.641479	153.900000
252.734360	153.780000
252.827240	153.980000
252.920105	154.220000
253.012970	154.280000
253.105850	154.040000
253.198715	153.860000
253.291595	154.140000
253.384460	153.520000
253.477341	153.560000
253.570221	153.880000
253.663086	153.980000
253.755966	154.540000
253.848846	154.680000
253.941727	154.760000
254.034592	154.520000
254.127472	154.180000
254.220367	153.940000
254.313248	154.160000
254.406128	153.700000
254.499008	154.120000
254.591904	155.120000
254.684784	155.200000
254.777664	155.200000
254.870544	155.140000
254.963440	155.000000
255.056335	154.960000
255.149216	154.420000
255.242111	154.960000
255.334991	155.480000
255.427887	155.440000
255.520767	155.320000
255.613663	155.580000
255.706558	154.680000
255.799438	154.480000
255.892334	154.040000
255.985229	153.620000
256.078125	153.560000
256.171021	153.820000
256.263916	153.960000
256.356812	154.920000
256.449707	155.100000
256.542603	154.620000
256.635498	155.220000
256.728394	155.280000
256.821289	154.660000
256.914215	155.180000
257.007080	155.640000
257.100006	155.440000
257.192932	155.980000
257.285828	155.880000
257.378723	155.320000
257.471619	155.440000
257.564545	155.020000
257.657440	154.720000
257.750336	155.360000
257.843262	155.340000
257.936157	156.160000
258.029053	156.440000
258.121979	156.280000
258.214874	155.700000
258.307800	155.600000
258.400696	154.400000
258.493622	154.160000
258.586517	153.320000
258.679443	153.700000
258.772339	153.240000
258.865265	153.220000
258.958160	152.840000
259.051086	154.020000
259.144012	153.800000
259.236938	155.180000
259.329834	155.300000
259.422791	155.440000
259.515717	154.720000
259.608612	154.680000
259.701538	154.400000
259.794464	154.380000
259.887390	154.280000
259.980316	154.340000
260.073212	154.180000
260.166138	153.060000
260.259064	153.440000
260.351990	154.280000
260.444916	154.380000
260.537842	154.460000
260.630768	155.340000
260.723694	154.900000
260.816620	154.360000
260.909546	154.360000
261.002472	154.220000
261.095398	153.660000
261.188354	153.480000
261.281281	153.220000
261.374207	153.600000
261.467133	154.260000
261.560089	154.860000
261.653015	154.980000
261.745972	155.980000
261.838867	155.840000
261.931824	155.680000
262.024780	155.120000
262.117706	155.340000
262.210663	155.300000
262.303589	155.120000
262.396515	155.100000
262.489471	155.900000
262.582397	155.820000
262.675354	155.020000
262.768280	155.300000
262.861237	155.120000
262.954163	154.860000
263.047119	155.080000
263.140045	155.020000
263.233002	154.820000
263.325958	155.120000
263.418884	154.620000
263.511841	154.180000
263.604797	154.380000
263.697723	154.280000
263.790680	154.080000
263.883636	154.640000
263.976593	154.860000
264.069550	154.840000
264.162476	154.740000
264.255463	154.640000
264.348419	154.040000
264.441376	154.220000
264.534332	153.640000
264.627289	153.740000
264.720245	154.040000
264.813202	154.000000
264.906158	154.120000
264.999115	154.940000
265.092072	154.700000
265.185028	154.980000
265.277985	155.480000
265.370941	155.320000
265.463898	154.920000
265.556854	155.080000
265.649811	154.120000
265.742798	153.900000
265.835754	153.940000
265.928711	154.520000
266.021667	154.820000
266.114655	155.360000
266.207611	155.700000
266.300568	155.320000
266.393585	154.640000
266.486511	154.400000
266.579498	153.600000
266.672485	153.140000
266.765442	152.860000
266.858429	153.580000
266.951385	153.340000
267.044342	153.760000
267.137329	154.160000
267.230316	154.580000
267.323273	153.720000
267.416260	154.400000
267.509216	154.280000
267.602203	153.960000
267.695160	154.260000
267.788147	154.780000
267.881134	153.960000
267.974091	154.220000
268.067078	153.980000
268.160065	153.660000
268.253052	153.360000
268.346008	154.020000
268.438995	153.580000
268.531982	154.100000
268.624969	154.180000
268.717987	154.520000
268.810944	153.980000
268.903961	154.540000
268.996948	154.040000
269.089905	154.660000
269.182892	154.680000
269.275879	155.140000
269.368866	154.820000
269.461853	155.220000
269.554871	154.660000
269.647858	154.680000
269.740845	154.680000
269.833832	155.100000
269.926819	154.660000
270.019806	154.840000
270.112793	154.180000
270.205811	154.060000
270.298798	153.540000
270.391785	154.160000
270.484772	153.820000
270.577789	154.220000
270.670776	153.920000
270.763763	153.920000
270.856750	153.660000
270.949768	153.440000
271.042786	153.300000
271.135773	153.760000
271.228790	154.240000
271.321808	153.860000
271.414795	153.640000
271.507782	153.400000
271.600800	152.880000
271.693817	152.800000
271.786804	153.420000
271.879822	154.000000
271.972809	154.120000
272.065826	154.680000
272.158844	154.120000
272.251831	154.440000
272.344849	154.460000
272.437866	154.100000
272.530853	154.240000
272.623871	154.880000
272.716888	153.520000
272.809906	153.580000
272.902893	153.820000
272.995911	153.020000
273.088928	152.680000
273.181946	153.340000
273.274963	153.200000
273.367981	153.420000
273.460999	154.020000
273.554047	154.540000
273.647003	155.500000
273.740051	155.420000
273.833069	155.780000
273.926086	155.760000
274.019135	155.260000
274.112152	154.440000
274.205170	154.420000
274.298187	154.460000
274.391205	153.840000
274.484222	153.880000
274.577240	153.860000
274.670258	153.940000
274.763306	153.920000
274.856323	154.520000
274.949341	154.420000
275.042358	154.680000
275.135406	154.740000
275.228424	154.400000
275.321442	154.480000
275.414490	154.620000
275.507507	155.260000
275.600525	155.680000
275.693573	155.600000
275.786591	154.980000
275.879669	155.120000
275.972656	154.580000
276.065735	154.280000
276.158752	155.040000
276.251801	155.860000
276.344818	155.900000
276.437866	155.840000
276.530884	155.440000
276.623932	154.580000
276.716980	154.660000
276.809998	154.900000
276.903046	154.900000
276.996094	156.020000
277.089111	156.800000
277.182159	156.980000
277.275208	156.360000
277.368256	156.120000
277.461304	155.580000
277.554321	154.780000
277.647369	154.440000
277.740417	154.600000
277.833466	154.560000
277.926514	154.060000
278.019562	154.920000
278.112610	154.260000
278.205688	154.060000
278.298706	154.280000
278.391785	154.440000
278.484833	153.700000
278.577881	153.720000
278.670929	154.460000
278.763977	154.380000
278.857025	154.540000
278.950073	154.380000
279.043121	154.560000
279.136169	154.080000
279.229248	153.800000
279.322296	153.900000
279.415344	154.000000
279.508392	153.980000
279.601440	153.920000
279.694519	154.060000
279.787567	153.800000
279.880615	153.740000
279.973694	153.640000
280.066742	153.760000
280.159790	153.860000
280.252869	153.420000
280.345917	153.720000
280.438995	153.700000
280.532074	153.580000
280.625122	154.080000
280.718201	155.340000
280.811279	155.140000
280.904327	155.320000
280.997406	155.800000
281.090454	155.420000
281.183533	154.560000
281.276581	154.920000
281.369659	154.700000
281.462738	154.540000
281.555786	154.680000
281.648865	154.980000
281.741943	154.760000
281.835022	155.440000
281.928070	155.120000
282.021149	154.860000
282.114227	154.320000
282.207306	154.100000
282.300385	154.340000
282.393433	154.580000
282.486511	154.680000
282.579590	155.620000
282.672668	156.100000
282.765747	155.540000
282.858856	155.240000
282.951904	155.400000
283.045013	155.100000
283.138062	155.220000
283.231171	155.500000
283.324249	156.100000
283.417328	156.220000
283.510406	155.940000
283.603485	155.560000
283.696564	155.320000
283.789642	155.400000
283.882751	155.160000
283.975830	155.560000
284.068909	155.340000
284.161987	155.780000
284.255066	154.900000
284.348175	154.800000
284.441254	154.520000
284.534332	155.120000
284.627441	154.380000
284.720520	154.500000
284.813599	154.880000
284.906708	155.060000
284.999786	154.100000
285.092896	154.320000
285.185974	155.200000
285.279053	154.460000
285.372192	154.380000
285.465240	155.360000
285.558380	155.420000
285.651459	154.980000
285.744568	155.900000
285.837677	155.600000
285.930756	155.440000
286.023865	155.540000
286.116943	155.300000
286.210052	155.200000
286.303162	155.500000
286.396240	155.160000
286.489349	154.740000
286.582458	155.000000
286.675568	154.340000
286.768646	154.360000
286.861755	154.800000
286.954865	155.580000
287.047974	155.040000
287.141083	155.060000
287.234161	154.580000
287.327271	154.260000
287.420380	154.380000
287.513519	154.580000
287.606598	154.860000
287.699738	154.980000
287.792816	154.980000
287.885956	154.600000
287.979034	154.340000
288.072174	154.180000
288.165283	154.200000
288.258392	154.320000
288.351501	153.560000
288.444611	153.980000
288.537720	154.620000
288.630859	154.760000
288.723969	155.180000
288.817078	156.000000
288.910187	155.760000
289.003296	154.880000
289.096436	154.480000
289.189545	154.160000
289.282654	153.500000
289.375763	153.980000
289.468903	154.440000
289.562012	154.900000
289.655121	154.560000
289.748260	154.740000
289.841400	154.940000
289.934509	155.040000
290.027649	155.100000
290.120728	155.100000
290.213898	155.560000
290.306976	155.040000
290.400146	155.120000
290.493256	154.740000
290.586395	155.100000
290.679535	155.200000
290.772644	155.200000
290.865784	154.000000
290.958893	153.860000
291.052032	153.680000
291.145172	153.580000
291.238281	153.380000
291.331421	154.300000
291.424561	154.880000
291.517670	154.740000
291.610809	154.540000
291.703949	154.660000
291.797089	154.460000
291.890228	153.880000
291.983337	153.740000
292.076477	153.600000
292.169617	153.880000
292.262756	153.960000
292.355927	153.800000
292.449036	153.780000
292.542206	153.720000
292.635315	154.020000
292.728485	154.180000
292.821625	154.280000
292.914764	155.300000
293.007904	155.720000
293.101044	155.180000
293.194183	155.100000
293.287323	155.360000
293.380463	154.680000
293.473602	154.300000
293.566742	154.360000
293.659882	154.600000
293.753021	154.940000
293.846191	154.700000
293.939331	154.380000
294.032471	154.660000
294.125610	154.160000
294.218781	154.100000
294.311920	154.540000
294.405060	154.920000
294.498230	154.500000
294.591370	154.480000
294.684540	154.060000
294.777679	153.820000
294.870850	153.980000
294.963959	154.040000
295.057159	153.940000
295.150299	154.280000
295.243469	153.940000
295.336609	153.440000
295.429779	153.580000
295.522919	154.220000
295.616089	154.100000
295.709229	155.100000
295.802399	155.400000
295.895569	154.920000
295.988708	154.840000
296.081879	154.920000
296.175018	153.920000
296.268188	153.880000
296.361359	154.540000
296.454529	154.540000
296.547668	154.340000
296.640839	155.000000
296.734009	154.620000
296.827179	154.800000
296.920319	155.040000
297.013519	155.060000
297.106659	155.140000
297.199860	155.380000
297.292999	155.260000
297.386200	154.500000
297.479309	154.280000
297.572510	153.800000
297.665680	153.460000
297.758850	153.240000
297.852020	153.340000
297.945190	153.640000
298.038361	153.500000
298.131531	154.920000
298.224701	154.920000
298.317871	154.680000
298.411072	154.020000
298.504242	154.020000
298.597412	153.080000
298.690582	153.100000
298.783752	153.100000
298.876923	154.160000
298.970093	154.300000
299.063293	154.860000
299.156464	155.060000
299.249634	155.600000
299.342834	155.100000
299.436005	155.340000
299.529205	154.900000
299.622345	154.880000
299.715576	154.100000
299.808716	153.900000
299.901917	153.860000
299.995117	153.900000
300.088287	153.900000
300.181488	154.000000
300.274658	153.960000
300.367828	153.880000
300.461029	154.040000
300.554199	154.520000
300.647400	154.960000
300.740601	155.540000
300.833771	155.320000
300.926971	155.500000
301.020142	154.500000
301.113342	154.440000
301.206512	154.120000
301.299713	154.520000
301.392914	154.200000
301.486084	154.740000
301.579285	154.700000
301.672516	155.180000
301.765686	154.860000
301.858887	154.780000
301.952057	154.480000
302.045288	154.400000
302.138458	154.120000
302.231659	153.920000
302.324860	154.080000
302.418060	153.880000
302.511261	153.860000
302.604462	153.720000
302.697662	153.720000
302.790863	153.280000
302.884064	153.160000
302.977264	153.320000
303.070465	153.620000
303.163666	154.580000
303.256866	155.340000
303.350067	155.580000
303.443268	155.540000
303.536469	155.660000
303.629669	154.880000
303.722870	154.540000
303.816071	154.260000
303.909271	154.260000
304.002472	153.340000
304.095673	153.080000
304.188934	152.600000
304.282104	153.920000
304.375336	153.820000
304.468506	154.160000
304.561768	153.960000
304.654968	154.540000
304.748169	153.380000
304.841370	153.340000
304.934601	153.660000
305.027802	153.600000
305.121002	153.200000
305.214233	153.720000
305.307434	153.900000
305.400665	154.660000
305.493866	155.020000
