Model Number: SPM-002-B   
Serial Number: 70087108
Firmware Version: 004.15.4
Exposure Time: 100000.000000us
Data Taken on: 15-01-2021 16:41:30.194
Wavelength	Amplitude
221.570786	0.000000
221.663406	0.000000
221.756027	0.000000
221.848648	0.000000
221.941269	0.000000
222.033905	0.000000
222.126526	0.000000
222.219162	0.000000
222.311798	0.000000
222.404419	0.000000
222.497055	0.000000
222.589676	0.000000
222.682312	0.000000
222.774933	0.000000
222.867569	0.000000
222.960205	0.000000
223.052841	0.000000
223.145462	0.000000
223.238098	0.000000
223.330734	0.000000
223.423386	0.000000
223.516022	0.000000
223.608658	0.000000
223.701309	0.000000
223.793945	0.000000
223.886581	0.000000
223.979218	0.000000
224.071869	0.000000
224.164505	0.000000
224.257156	0.000000
224.349792	0.000000
224.442444	0.000000
224.535095	0.000000
224.627747	0.000000
224.720398	0.000000
224.813034	0.000000
224.905685	0.000000
224.998337	151.980000
225.090988	151.600000
225.183640	152.160000
225.276291	152.060000
225.368942	152.240000
225.461594	152.780000
225.554245	153.100000
225.646912	153.080000
225.739578	153.900000
225.832230	154.540000
225.924896	153.760000
226.017548	154.040000
226.110199	154.320000
226.202866	153.440000
226.295532	153.200000
226.388184	153.160000
226.480850	152.420000
226.573517	152.140000
226.666168	152.480000
226.758835	152.600000
226.851501	153.380000
226.944183	153.660000
227.036850	153.280000
227.129517	153.580000
227.222183	153.900000
227.314850	153.380000
227.407516	153.800000
227.500198	154.840000
227.592865	154.020000
227.685532	153.360000
227.778214	153.380000
227.870880	153.160000
227.963562	153.300000
228.056229	153.940000
228.148926	154.020000
228.241592	154.820000
228.334274	154.520000
228.426956	153.840000
228.519638	153.760000
228.612305	153.580000
228.704987	153.220000
228.797668	153.440000
228.890350	153.280000
228.983032	152.740000
229.075714	153.380000
229.168396	153.200000
229.261108	152.860000
229.353790	153.080000
229.446472	153.240000
229.539169	152.980000
229.631851	152.240000
229.724533	152.560000
229.817230	152.540000
229.909912	153.800000
230.002609	154.160000
230.095306	154.480000
230.187988	154.420000
230.280685	154.240000
230.373383	153.060000
230.466095	152.540000
230.558792	153.160000
230.651474	153.060000
230.744171	152.920000
230.836868	152.980000
230.929581	153.060000
231.022278	152.800000
231.114975	153.000000
231.207672	153.000000
231.300369	153.440000
231.393082	153.640000
231.485779	153.540000
231.578506	153.260000
231.671204	153.640000
231.763916	153.280000
231.856613	153.080000
231.949326	153.280000
232.042023	153.540000
232.134735	153.440000
232.227448	153.140000
232.320160	153.580000
232.412872	153.360000
232.505585	153.900000
232.598297	154.240000
232.691010	154.560000
232.783722	153.780000
232.876450	154.200000
232.969162	153.460000
233.061874	152.780000
233.154587	152.320000
233.247314	152.840000
233.340027	152.100000
233.432739	152.840000
233.525467	152.880000
233.618179	153.200000
233.710907	152.800000
233.803635	153.540000
233.896347	153.080000
233.989090	153.720000
234.081818	153.760000
234.174545	154.360000
234.267258	153.920000
234.359985	154.220000
234.452713	153.700000
234.545441	153.660000
234.638168	153.120000
234.730896	153.580000
234.823639	153.100000
234.916367	153.760000
235.009094	153.860000
235.101822	153.880000
235.194580	153.580000
235.287308	154.100000
235.380051	153.640000
235.472778	153.800000
235.565521	154.160000
235.658249	153.740000
235.750992	153.400000
235.843719	153.140000
235.936462	153.080000
236.029205	152.660000
236.121948	152.640000
236.214691	153.100000
236.307449	153.800000
236.400192	153.080000
236.492935	153.160000
236.585678	153.400000
236.678421	153.260000
236.771164	152.860000
236.863907	154.100000
236.956665	154.240000
237.049408	155.800000
237.142151	155.160000
237.234909	156.220000
237.327652	155.880000
237.420410	155.660000
237.513153	154.700000
237.605927	154.840000
237.698669	153.780000
237.791428	153.260000
237.884186	153.780000
237.976944	153.140000
238.069702	153.520000
238.162445	152.980000
238.255203	153.200000
238.347961	153.240000
238.440720	153.380000
238.533478	153.200000
238.626266	152.860000
238.719025	153.180000
238.811783	153.040000
238.904541	153.040000
238.997314	152.880000
239.090073	153.160000
239.182831	153.280000
239.275604	153.840000
239.368362	153.720000
239.461136	153.960000
239.553909	154.260000
239.646667	153.700000
239.739441	153.100000
239.832214	153.280000
239.925003	153.400000
240.017761	154.040000
240.110535	154.620000
240.203308	154.400000
240.296082	154.580000
240.388855	154.480000
240.481628	154.160000
240.574417	154.220000
240.667191	154.340000
240.759964	154.120000
240.852737	154.120000
240.945526	153.720000
241.038315	153.120000
241.131088	153.060000
241.223877	152.840000
241.316650	152.180000
241.409439	152.680000
241.502228	152.580000
241.595001	153.240000
241.687790	153.220000
241.780579	153.480000
241.873367	153.600000
241.966141	154.060000
242.058929	153.040000
242.151718	153.480000
242.244507	154.180000
242.337311	153.220000
242.430099	153.720000
242.522903	154.280000
242.615692	154.100000
242.708481	153.600000
242.801270	154.420000
242.894073	153.920000
242.986862	153.800000
243.079651	154.180000
243.172455	154.040000
243.265244	153.940000
243.358063	153.280000
243.450867	153.600000
243.543655	153.400000
243.636459	153.600000
243.729263	153.900000
243.822067	154.460000
243.914856	154.800000
244.007660	154.560000
244.100464	154.720000
244.193268	154.140000
244.286072	154.000000
244.378876	153.000000
244.471680	152.860000
244.564499	153.020000
244.657318	153.920000
244.750122	154.020000
244.842926	153.760000
244.935745	154.300000
245.028549	153.520000
245.121368	152.680000
245.214172	152.640000
245.306992	153.220000
245.399796	152.900000
245.492615	153.020000
245.585434	153.200000
245.678253	153.140000
245.771072	153.100000
245.863892	153.380000
245.956711	154.040000
246.049530	153.700000
246.142349	153.600000
246.235168	153.580000
246.327988	153.960000
246.420807	153.600000
246.513626	153.940000
246.606445	153.820000
246.699280	154.160000
246.792099	153.900000
246.884918	153.780000
246.977753	153.500000
247.070587	153.620000
247.163422	153.280000
247.256241	153.160000
247.349075	153.660000
247.441895	153.860000
247.534729	154.040000
247.627563	153.820000
247.720383	154.220000
247.813217	153.800000
247.906052	153.540000
247.998886	153.460000
248.091736	153.560000
248.184570	152.900000
248.277405	152.880000
248.370239	154.020000
248.463074	155.060000
248.555908	155.700000
248.648743	155.860000
248.741592	156.060000
248.834427	155.180000
248.927261	153.800000
249.020111	153.700000
249.112946	154.120000
249.205795	153.480000
249.298630	153.460000
249.391495	153.920000
249.484344	153.320000
249.577179	153.120000
249.670029	153.720000
249.762878	154.320000
249.855728	154.480000
249.948563	154.460000
250.041412	153.840000
250.134262	153.740000
250.227112	153.720000
250.319962	153.640000
250.412827	153.820000
250.505692	153.760000
250.598541	154.160000
250.691391	153.640000
250.784241	153.480000
250.877106	153.940000
250.969955	153.620000
251.062805	153.880000
251.155670	154.740000
251.248520	154.500000
251.341385	154.680000
251.434235	155.080000
251.527100	154.420000
251.619965	153.380000
251.712814	154.220000
251.805695	153.540000
251.898560	153.800000
251.991425	153.760000
252.084290	154.040000
252.177155	153.160000
252.270020	153.180000
252.362885	152.840000
252.455750	152.920000
252.548615	152.740000
252.641479	152.740000
252.734360	152.540000
252.827240	152.840000
252.920105	153.080000
253.012970	152.980000
253.105850	152.840000
253.198715	153.000000
253.291595	153.000000
253.384460	152.360000
253.477341	152.280000
253.570221	152.880000
253.663086	152.480000
253.755966	153.180000
253.848846	153.440000
253.941727	153.920000
254.034592	153.540000
254.127472	153.500000
254.220367	153.160000
254.313248	153.300000
254.406128	152.720000
254.499008	153.000000
254.591904	153.860000
254.684784	154.180000
254.777664	154.200000
254.870544	154.320000
254.963440	154.260000
255.056335	154.200000
255.149216	153.660000
255.242111	154.220000
255.334991	154.500000
255.427887	154.560000
255.520767	154.600000
255.613663	154.960000
255.706558	154.400000
255.799438	154.140000
255.892334	153.760000
255.985229	153.280000
256.078125	152.760000
256.171021	152.640000
256.263916	153.260000
256.356812	153.860000
256.449707	154.420000
256.542603	154.400000
256.635498	154.920000
256.728394	154.580000
256.821289	154.000000
256.914215	153.900000
257.007080	153.840000
257.100006	153.560000
257.192932	153.900000
257.285828	154.140000
257.378723	154.020000
257.471619	154.200000
257.564545	154.040000
257.657440	153.920000
257.750336	154.700000
257.843262	154.400000
257.936157	155.640000
258.029053	156.120000
258.121979	156.180000
258.214874	155.420000
258.307800	155.320000
258.400696	153.960000
258.493622	153.500000
258.586517	152.780000
258.679443	153.220000
258.772339	153.120000
258.865265	153.000000
258.958160	152.580000
259.051086	153.540000
259.144012	153.340000
259.236938	154.100000
259.329834	154.380000
259.422791	154.660000
259.515717	153.700000
259.608612	153.260000
259.701538	153.140000
259.794464	153.180000
259.887390	152.960000
259.980316	152.700000
260.073212	152.460000
260.166138	151.380000
260.259064	151.420000
260.351990	152.200000
260.444916	152.480000
260.537842	153.100000
260.630768	154.020000
260.723694	153.920000
260.816620	153.660000
260.909546	154.000000
261.002472	153.780000
261.095398	153.320000
261.188354	153.100000
261.281281	152.680000
261.374207	152.840000
261.467133	153.580000
261.560089	153.820000
261.653015	153.800000
261.745972	154.640000
261.838867	154.960000
261.931824	154.860000
262.024780	154.640000
262.117706	154.940000
262.210663	154.820000
262.303589	154.400000
262.396515	154.120000
262.489471	154.980000
262.582397	155.020000
262.675354	154.300000
262.768280	154.360000
262.861237	154.300000
262.954163	154.000000
263.047119	153.640000
263.140045	153.680000
263.233002	153.620000
263.325958	153.420000
263.418884	152.680000
263.511841	152.540000
263.604797	152.860000
263.697723	152.540000
263.790680	152.580000
263.883636	153.260000
263.976593	153.700000
264.069550	153.620000
264.162476	153.800000
264.255463	154.040000
264.348419	153.560000
264.441376	153.600000
264.534332	153.060000
264.627289	153.100000
264.720245	153.580000
264.813202	153.480000
264.906158	153.640000
264.999115	154.540000
265.092072	154.280000
265.185028	154.460000
265.277985	154.820000
265.370941	154.600000
265.463898	153.920000
265.556854	153.760000
265.649811	152.640000
265.742798	152.800000
265.835754	152.780000
265.928711	153.540000
266.021667	153.840000
266.114655	154.120000
266.207611	154.400000
266.300568	154.000000
266.393585	153.380000
266.486511	153.800000
266.579498	153.280000
266.672485	152.520000
266.765442	152.420000
266.858429	152.840000
266.951385	152.300000
267.044342	152.360000
267.137329	152.700000
267.230316	153.240000
267.323273	153.080000
267.416260	153.640000
267.509216	153.740000
267.602203	153.580000
267.695160	153.800000
267.788147	153.720000
267.881134	153.240000
267.974091	153.340000
268.067078	153.300000
268.160065	153.160000
268.253052	152.900000
268.346008	153.200000
268.438995	153.180000
268.531982	153.400000
268.624969	152.940000
268.717987	153.520000
268.810944	153.180000
268.903961	153.100000
268.996948	152.780000
269.089905	153.740000
269.182892	153.720000
269.275879	154.360000
269.368866	153.900000
269.461853	154.080000
269.554871	153.680000
269.647858	153.480000
269.740845	153.520000
269.833832	154.400000
269.926819	154.120000
270.019806	153.960000
270.112793	153.500000
270.205811	153.480000
270.298798	153.220000
270.391785	153.940000
270.484772	153.620000
270.577789	153.900000
270.670776	153.380000
270.763763	153.260000
270.856750	152.840000
270.949768	152.820000
271.042786	152.780000
271.135773	153.000000
271.228790	153.400000
271.321808	153.120000
271.414795	152.880000
271.507782	152.820000
271.600800	152.480000
271.693817	152.400000
271.786804	153.180000
271.879822	153.580000
271.972809	153.700000
272.065826	154.160000
272.158844	153.860000
272.251831	153.980000
272.344849	153.940000
272.437866	153.520000
272.530853	153.320000
272.623871	153.580000
272.716888	152.440000
272.809906	152.980000
272.902893	153.320000
272.995911	152.800000
273.088928	152.780000
273.181946	153.620000
273.274963	153.200000
273.367981	153.160000
273.460999	153.860000
273.554047	154.100000
273.647003	154.380000
273.740051	154.320000
273.833069	154.620000
273.926086	154.560000
274.019135	154.140000
274.112152	153.800000
274.205170	153.900000
274.298187	154.200000
274.391205	153.520000
274.484222	153.960000
274.577240	153.840000
274.670258	153.620000
274.763306	153.100000
274.856323	153.820000
274.949341	153.760000
275.042358	154.300000
275.135406	154.440000
275.228424	154.460000
275.321442	154.220000
275.414490	153.740000
275.507507	153.880000
275.600525	154.140000
275.693573	153.880000
275.786591	153.520000
275.879669	153.780000
275.972656	153.120000
276.065735	153.120000
276.158752	153.760000
276.251801	154.920000
276.344818	155.180000
276.437866	155.220000
276.530884	154.760000
276.623932	153.900000
276.716980	153.540000
276.809998	153.280000
276.903046	153.180000
276.996094	154.000000
277.089111	154.760000
277.182159	154.940000
277.275208	154.700000
277.368256	154.880000
277.461304	154.180000
277.554321	153.500000
277.647369	153.300000
277.740417	153.500000
277.833466	153.280000
277.926514	153.360000
278.019562	154.220000
278.112610	153.460000
278.205688	153.420000
278.298706	153.640000
278.391785	153.580000
278.484833	152.820000
278.577881	153.080000
278.670929	153.520000
278.763977	153.380000
278.857025	153.760000
278.950073	153.900000
279.043121	154.120000
279.136169	153.640000
279.229248	153.400000
279.322296	153.060000
279.415344	153.060000
279.508392	152.800000
279.601440	152.860000
279.694519	153.000000
279.787567	153.000000
279.880615	152.840000
279.973694	152.860000
280.066742	152.640000
280.159790	152.560000
280.252869	152.140000
280.345917	152.460000
280.438995	152.420000
280.532074	152.560000
280.625122	153.240000
280.718201	154.500000
280.811279	154.120000
280.904327	154.220000
280.997406	154.740000
281.090454	154.560000
281.183533	153.640000
281.276581	154.020000
281.369659	153.700000
281.462738	153.620000
281.555786	153.640000
281.648865	153.880000
281.741943	153.460000
281.835022	154.360000
281.928070	153.980000
282.021149	153.620000
282.114227	153.180000
282.207306	153.420000
282.300385	153.260000
282.393433	153.260000
282.486511	153.140000
282.579590	153.660000
282.672668	154.120000
282.765747	153.400000
282.858856	153.400000
282.951904	154.060000
283.045013	154.280000
283.138062	154.340000
283.231171	155.160000
283.324249	155.480000
283.417328	155.380000
283.510406	154.940000
283.603485	154.820000
283.696564	154.280000
283.789642	154.000000
283.882751	153.380000
283.975830	154.140000
284.068909	153.340000
284.161987	153.980000
284.255066	153.460000
284.348175	153.880000
284.441254	153.220000
284.534332	154.100000
284.627441	153.620000
284.720520	153.680000
284.813599	153.560000
284.906708	153.620000
284.999786	152.860000
285.092896	152.540000
285.185974	153.960000
285.279053	153.540000
285.372192	153.500000
285.465240	154.540000
285.558380	154.580000
285.651459	153.640000
285.744568	154.760000
285.837677	154.420000
285.930756	154.180000
286.023865	154.700000
286.116943	154.360000
286.210052	154.080000
286.303162	154.060000
286.396240	153.860000
286.489349	153.400000
286.582458	153.780000
286.675568	153.460000
286.768646	153.820000
286.861755	154.080000
286.954865	154.700000
287.047974	154.340000
287.141083	153.960000
287.234161	153.680000
287.327271	153.180000
287.420380	153.380000
287.513519	153.440000
287.606598	153.840000
287.699738	154.020000
287.792816	154.120000
287.885956	153.740000
287.979034	153.840000
288.072174	153.780000
288.165283	153.860000
288.258392	154.300000
288.351501	153.700000
288.444611	153.900000
288.537720	154.220000
288.630859	154.260000
288.723969	154.060000
288.817078	154.620000
288.910187	154.560000
289.003296	153.880000
289.096436	153.480000
289.189545	153.140000
289.282654	152.420000
289.375763	152.880000
289.468903	153.520000
289.562012	153.840000
289.655121	153.940000
289.748260	154.540000
289.841400	154.540000
289.934509	153.980000
290.027649	154.140000
290.120728	153.880000
290.213898	153.960000
290.306976	153.400000
290.400146	154.060000
290.493256	153.660000
290.586395	154.300000
290.679535	154.480000
290.772644	154.480000
290.865784	153.420000
290.958893	153.540000
291.052032	152.940000
291.145172	152.720000
291.238281	152.320000
291.331421	152.780000
291.424561	153.260000
291.517670	153.200000
291.610809	153.240000
291.703949	153.060000
291.797089	153.100000
291.890228	152.620000
291.983337	152.620000
292.076477	152.520000
292.169617	153.080000
292.262756	153.040000
292.355927	152.900000
292.449036	152.820000
292.542206	152.940000
292.635315	153.200000
292.728485	153.500000
292.821625	152.940000
292.914764	154.260000
293.007904	154.100000
293.101044	154.120000
293.194183	153.840000
293.287323	154.200000
293.380463	153.120000
293.473602	153.100000
293.566742	153.280000
293.659882	153.660000
293.753021	154.080000
293.846191	154.040000
293.939331	153.420000
294.032471	152.960000
294.125610	152.740000
294.218781	152.960000
294.311920	153.560000
294.405060	154.080000
294.498230	154.320000
294.591370	154.260000
294.684540	153.800000
294.777679	153.060000
294.870850	153.540000
294.963959	153.540000
295.057159	153.540000
295.150299	153.840000
295.243469	154.060000
295.336609	153.140000
295.429779	152.960000
295.522919	153.260000
295.616089	153.360000
295.709229	154.220000
295.802399	154.760000
295.895569	154.380000
295.988708	154.000000
296.081879	154.120000
296.175018	153.140000
296.268188	153.200000
296.361359	154.080000
296.454529	154.260000
296.547668	153.900000
296.640839	154.360000
296.734009	154.120000
296.827179	153.900000
296.920319	154.360000
297.013519	154.340000
297.106659	154.220000
297.199860	154.160000
297.292999	154.080000
297.386200	153.580000
297.479309	153.360000
297.572510	153.240000
297.665680	153.040000
297.758850	153.140000
297.852020	152.960000
297.945190	153.040000
298.038361	152.660000
298.131531	153.760000
298.224701	153.300000
298.317871	153.300000
298.411072	152.740000
298.504242	152.960000
298.597412	152.240000
298.690582	152.580000
298.783752	152.600000
298.876923	153.500000
298.970093	153.700000
299.063293	154.380000
299.156464	154.860000
299.249634	155.040000
299.342834	155.140000
299.436005	155.480000
299.529205	154.840000
299.622345	154.480000
299.715576	154.080000
299.808716	153.640000
299.901917	153.220000
299.995117	153.800000
300.088287	153.840000
300.181488	153.760000
300.274658	153.560000
300.367828	153.320000
300.461029	152.860000
300.554199	153.240000
300.647400	153.480000
300.740601	154.220000
300.833771	154.520000
300.926971	154.700000
301.020142	153.700000
301.113342	153.800000
301.206512	153.620000
301.299713	153.820000
301.392914	153.760000
301.486084	154.520000
301.579285	154.360000
301.672516	154.900000
301.765686	154.480000
301.858887	154.100000
301.952057	153.940000
302.045288	153.900000
302.138458	153.360000
302.231659	153.280000
302.324860	153.320000
302.418060	153.020000
302.511261	153.040000
302.604462	153.200000
302.697662	153.200000
302.790863	153.200000
302.884064	152.940000
302.977264	153.000000
303.070465	152.920000
303.163666	153.680000
303.256866	153.760000
303.350067	154.060000
303.443268	154.280000
303.536469	154.460000
303.629669	153.940000
303.722870	154.140000
303.816071	153.900000
303.909271	153.800000
304.002472	152.780000
304.095673	152.520000
304.188934	151.720000
304.282104	152.780000
304.375336	152.780000
304.468506	153.360000
304.561768	153.020000
304.654968	153.920000
304.748169	153.180000
304.841370	152.820000
304.934601	153.160000
305.027802	153.160000
305.121002	152.640000
305.214233	152.980000
305.307434	153.440000
305.400665	153.840000
305.493866	153.980000
