Model Number: SPM-001-M   
Serial Number: 10090201
Firmware Version: 004.17.6
Exposure Time: 300000.000000us
Data Taken on: 21-01-2021 14:28:42.477
Wavelength	Amplitude
733.770752	0.000000
733.808716	0.000000
733.846619	0.000000
733.884583	0.000000
733.922546	0.000000
733.960449	0.000000
733.998413	0.000000
734.036377	0.000000
734.074219	0.000000
734.112183	0.000000
734.150085	0.000000
734.188049	0.000000
734.226013	0.000000
734.263916	0.000000
734.301819	0.000000
734.339783	0.000000
734.377686	0.000000
734.415588	0.000000
734.453552	0.000000
734.491455	0.000000
734.529419	0.000000
734.567322	0.000000
734.605225	0.000000
734.643127	0.000000
734.681091	0.000000
734.718994	0.000000
734.756897	0.000000
734.794800	0.000000
734.832703	0.000000
734.870667	0.000000
734.908508	0.000000
734.946472	0.000000
734.984375	0.000000
735.022278	0.000000
735.060181	0.000000
735.098083	0.000000
735.135986	0.000000
735.173889	0.000000
735.211792	0.000000
735.249695	0.000000
735.287598	0.000000
735.325439	0.000000
735.363403	0.000000
735.401306	0.000000
735.439148	0.000000
735.477051	0.000000
735.515015	0.000000
735.552856	0.000000
735.590759	0.000000
735.628662	0.000000
735.666504	0.000000
735.704407	0.000000
735.742310	0.000000
735.780212	0.000000
735.818115	0.000000
735.856018	0.000000
735.893860	0.000000
735.931763	0.000000
735.969604	0.000000
736.007507	0.000000
736.045410	0.000000
736.083252	0.000000
736.121094	0.000000
736.158997	0.000000
736.196838	0.000000
736.234741	0.000000
736.272644	0.000000
736.310486	0.000000
736.348389	0.000000
736.386230	0.000000
736.424072	0.000000
736.461975	0.000000
736.499878	0.000000
736.537720	0.000000
736.575562	0.000000
736.613403	0.000000
736.651306	0.000000
736.689148	0.000000
736.726990	0.000000
736.764893	0.000000
736.802734	0.000000
736.840576	0.000000
736.878418	0.000000
736.916321	0.000000
736.954102	0.000000
736.992004	0.000000
737.029846	0.000000
737.067688	0.000000
737.105530	0.000000
737.143372	0.000000
737.181213	0.000000
737.219116	0.000000
737.256897	0.000000
737.294739	0.000000
737.332642	0.000000
737.370422	0.000000
737.408325	0.000000
737.446167	0.000000
737.483948	0.000000
737.521790	0.000000
737.559692	0.000000
737.597473	0.000000
737.635315	0.000000
737.673157	0.000000
737.710999	0.000000
737.748840	0.000000
737.786621	0.000000
737.824463	0.000000
737.862305	0.000000
737.900085	0.000000
737.937927	0.000000
737.975769	0.000000
738.013550	0.000000
738.051392	0.000000
738.089233	0.000000
738.127014	0.000000
738.164856	0.000000
738.202698	0.000000
738.240479	0.000000
738.278320	0.000000
738.316162	0.000000
738.353943	0.000000
738.391785	0.000000
738.429565	0.000000
738.467407	0.000000
738.505188	0.000000
738.542969	0.000000
738.580811	0.000000
738.618652	0.000000
738.656372	0.000000
738.694214	0.000000
738.732056	0.000000
738.769836	0.000000
738.807617	0.000000
738.845459	0.000000
738.883240	0.000000
738.921021	0.000000
738.958862	0.000000
738.996582	0.000000
739.034424	0.000000
739.072205	0.000000
739.109985	0.000000
739.147827	0.000000
739.185547	0.000000
739.223389	0.000000
739.261169	0.000000
739.298889	0.000000
739.336731	0.000000
739.374512	0.000000
739.412292	0.000000
739.450073	0.000000
739.487854	0.000000
739.525635	0.000000
739.563416	0.000000
739.601135	0.000000
739.638977	0.000000
739.676758	0.000000
739.714478	0.000000
739.752258	0.000000
739.790100	0.000000
739.827820	0.000000
739.865601	0.000000
739.903381	0.000000
739.941101	0.000000
739.978882	194.300000
740.016724	190.000000
740.054443	194.800000
740.092224	189.500000
740.130005	188.100000
740.167725	189.200000
740.205505	189.500000
740.243225	196.600000
740.281006	192.100000
740.318787	187.100000
740.356506	196.700000
740.394287	194.900000
740.432068	189.300000
740.469727	188.000000
740.507507	194.100000
740.545288	193.100000
740.583008	193.900000
740.620789	191.800000
740.658569	186.500000
740.696228	191.200000
740.734009	194.200000
740.771790	184.200000
740.809509	196.200000
740.847229	187.800000
740.884949	190.600000
740.922729	187.300000
740.960449	190.000000
740.998169	188.600000
741.035950	190.100000
741.073669	192.600000
741.111389	193.000000
741.149170	198.800000
741.186890	198.600000
741.224609	194.800000
741.262329	192.900000
741.300110	199.900000
741.337769	187.900000
741.375549	187.400000
741.413208	192.600000
741.450989	189.300000
741.488708	188.600000
741.526367	190.500000
741.564148	194.800000
741.601868	194.300000
741.639526	190.700000
741.677307	192.300000
741.715027	193.600000
741.752686	188.800000
741.790466	198.000000
741.828186	193.400000
741.865845	187.300000
741.903564	186.300000
741.941345	192.500000
741.979004	188.800000
742.016724	195.200000
742.054382	191.800000
742.092102	194.200000
742.129822	185.700000
742.167480	190.000000
742.205200	190.500000
742.242920	194.400000
742.280640	194.600000
742.318359	188.300000
742.356079	189.600000
742.393738	193.800000
742.431396	190.200000
742.469116	195.600000
742.506775	185.700000
742.544495	193.000000
742.582214	195.700000
742.619873	191.400000
742.657593	195.300000
742.695251	194.600000
742.732971	192.100000
742.770630	192.100000
742.808289	192.000000
742.846008	191.400000
742.883728	191.500000
742.921326	191.800000
742.959045	190.500000
742.996765	191.200000
743.034424	191.900000
743.072083	189.800000
743.109802	192.300000
743.147400	188.100000
743.185120	193.400000
743.222839	189.500000
743.260437	197.800000
743.298157	192.500000
743.335754	186.200000
743.373474	189.900000
743.411133	186.700000
743.448792	191.400000
743.486450	193.400000
743.524170	186.200000
743.561768	192.300000
743.599487	195.900000
743.637146	199.500000
743.674744	189.600000
743.712463	190.400000
743.750122	192.000000
743.787720	193.300000
743.825439	189.200000
743.863037	190.100000
743.900696	190.400000
743.938416	217.200000
743.976013	192.500000
744.013672	197.800000
744.051331	194.800000
744.088928	198.600000
744.126587	195.000000
744.164307	193.200000
744.201904	189.300000
744.239563	194.200000
744.277222	193.500000
744.314819	192.400000
744.352478	197.100000
744.390137	192.700000
744.427734	194.300000
744.465393	189.700000
744.502991	188.800000
744.540649	193.900000
744.578308	191.200000
744.615906	187.900000
744.653564	184.100000
744.691223	194.000000
744.728821	186.900000
744.766418	190.200000
744.804077	193.900000
744.841675	190.000000
744.879333	188.000000
744.916992	191.200000
744.954529	191.100000
744.992187	195.500000
745.029785	192.600000
745.067444	189.600000
745.105042	192.800000
745.142639	192.900000
745.180298	199.600000
745.217896	191.000000
745.255493	190.600000
745.293152	195.500000
745.330750	195.700000
745.368347	196.700000
745.405945	195.300000
745.443604	192.400000
745.481140	193.800000
745.518799	191.700000
745.556396	194.600000
745.593994	192.800000
745.631592	193.600000
745.669189	188.200000
745.706787	192.200000
745.744385	189.800000
745.781982	194.300000
745.819580	190.000000
745.857178	192.500000
745.894775	191.900000
745.932373	192.900000
745.969971	193.400000
746.007568	184.100000
746.045166	199.100000
746.082764	196.500000
746.120300	193.900000
746.157898	194.200000
746.195557	191.200000
746.233093	186.800000
746.270691	194.200000
746.308228	194.300000
746.345825	195.500000
746.383423	193.900000
746.420959	188.900000
746.458557	190.400000
746.496155	188.400000
746.533691	192.400000
746.571289	188.400000
746.608887	190.700000
746.646423	192.800000
746.684021	192.300000
746.721619	189.000000
746.759155	194.100000
746.796753	186.000000
746.834351	186.900000
746.871826	189.500000
746.909424	197.100000
746.946960	192.700000
746.984558	191.400000
747.022156	189.900000
747.059631	197.900000
747.097229	195.100000
747.134827	189.800000
747.172363	196.700000
747.209900	193.900000
747.247498	189.700000
747.285034	197.000000
747.322571	197.600000
747.360168	190.700000
747.397644	187.200000
747.435242	195.200000
747.472778	195.900000
747.510315	190.900000
747.547913	191.400000
747.585388	196.800000
747.622925	191.100000
747.660522	185.600000
747.697998	189.800000
747.735596	190.200000
747.773132	189.600000
747.810669	193.200000
747.848206	194.500000
747.885742	187.900000
747.923279	187.300000
747.960815	193.000000
747.998352	192.700000
748.035889	195.600000
748.073425	194.200000
748.110901	189.300000
748.148437	187.700000
748.185974	192.100000
748.223511	199.100000
748.261047	194.800000
748.298584	191.800000
748.336060	191.300000
748.373596	193.900000
748.411133	217.900000
748.448608	189.600000
748.486145	194.700000
748.523682	196.700000
748.561218	199.500000
748.598755	193.400000
748.636292	194.600000
748.673706	190.800000
748.711243	199.400000
748.748718	194.000000
748.786255	193.300000
748.823792	191.300000
748.861267	189.300000
748.898804	195.000000
748.936340	193.400000
748.973816	190.500000
749.011292	198.200000
749.048828	193.500000
749.086304	194.200000
749.123840	200.200000
749.161316	188.500000
749.198792	197.800000
749.236328	195.600000
749.273743	191.000000
749.311279	190.700000
749.348816	194.500000
749.386230	192.100000
749.423767	182.500000
749.461304	194.500000
749.498718	193.600000
749.536255	196.100000
749.573730	200.900000
749.611206	197.600000
749.648682	191.400000
749.686218	192.100000
749.723633	194.700000
749.761169	192.200000
749.798645	190.300000
749.836060	190.000000
749.873596	189.300000
749.911011	194.000000
749.948547	196.700000
749.986023	191.900000
750.023437	192.000000
750.060913	187.000000
750.098450	186.200000
750.135864	191.100000
750.173340	192.800000
750.210815	196.200000
750.248291	189.400000
750.285767	191.700000
750.323242	195.700000
750.360657	194.600000
750.398132	189.500000
750.435608	194.400000
750.473022	189.200000
750.510498	188.700000
750.547974	187.400000
750.585449	190.300000
750.622925	184.100000
750.660339	203.000000
750.697815	194.000000
750.735291	191.900000
750.772644	191.600000
750.810120	191.500000
750.847595	193.200000
750.885010	190.100000
750.922485	198.700000
750.959961	191.600000
750.997375	199.400000
751.034851	195.900000
751.072266	194.600000
751.109680	186.700000
751.147156	196.700000
751.184570	193.200000
751.221985	192.000000
751.259460	186.700000
751.296875	192.600000
751.334290	192.700000
751.371765	195.100000
751.409180	194.900000
751.446594	197.500000
751.484070	194.000000
751.521423	193.400000
751.558899	193.100000
751.596375	200.000000
751.633728	197.300000
751.671204	200.500000
751.708618	189.600000
751.746033	193.700000
751.783447	188.300000
751.820801	190.100000
751.858276	195.000000
751.895691	190.700000
751.933105	190.300000
751.970520	188.200000
752.007935	191.800000
752.045349	196.100000
752.082764	191.400000
752.120178	190.000000
752.157532	190.400000
752.195007	191.300000
752.232422	193.800000
752.269775	195.600000
752.307190	194.100000
752.344543	187.900000
752.382019	191.500000
752.419434	189.700000
752.456787	194.100000
752.494202	195.400000
752.531616	192.400000
752.568970	192.800000
752.606384	193.600000
752.643799	193.900000
752.681152	198.700000
752.718567	195.400000
752.755981	186.100000
752.793335	194.800000
752.830750	186.100000
752.868164	196.800000
752.905518	187.500000
752.942932	195.800000
752.980225	188.100000
753.017639	194.800000
753.055054	195.100000
753.092407	193.100000
753.129822	195.000000
753.167175	199.200000
753.204529	191.600000
753.241943	188.300000
753.279358	189.200000
753.316650	193.800000
753.354065	193.200000
753.391479	195.900000
753.428772	198.200000
753.466187	193.100000
753.503479	189.000000
753.540894	192.000000
753.578308	187.800000
753.615601	187.100000
753.653015	191.200000
753.690369	190.800000
753.727722	189.500000
753.765076	187.300000
753.802490	188.400000
753.839783	185.600000
753.877136	189.800000
753.914551	201.800000
753.951843	188.800000
753.989258	193.500000
754.026611	192.900000
754.063904	194.600000
754.101257	189.900000
754.138611	186.500000
754.175964	192.800000
754.213318	200.100000
754.250610	186.300000
754.288025	189.300000
754.325378	187.100000
754.362671	195.500000
754.400024	192.200000
754.437378	200.500000
754.474670	197.800000
754.512085	188.500000
754.549438	191.500000
754.586731	188.600000
754.624084	192.300000
754.661438	189.500000
754.698730	198.700000
754.736084	191.800000
754.773376	191.300000
754.810730	192.600000
754.848083	191.600000
754.885315	194.900000
754.922668	186.100000
754.960022	189.200000
754.997314	195.500000
755.034668	191.700000
755.072021	192.400000
755.109253	189.700000
755.146606	196.800000
755.183960	190.600000
755.221252	196.800000
755.258545	195.400000
755.295898	198.000000
755.333191	198.200000
755.370544	194.800000
755.407776	191.000000
755.445129	193.100000
755.482422	195.400000
755.519714	190.700000
755.557068	187.900000
755.594360	186.700000
755.631653	196.200000
755.668945	198.400000
755.706299	193.800000
755.743530	201.000000
755.780884	199.300000
755.818176	197.300000
755.855408	196.800000
755.892761	194.500000
755.930054	193.900000
755.967346	194.900000
756.004639	193.200000
756.041870	193.300000
756.079224	197.800000
756.116516	191.500000
756.153748	197.000000
756.191040	201.700000
756.228394	195.700000
756.265625	191.300000
756.302917	193.400000
756.340210	192.300000
756.377441	197.800000
756.414795	201.100000
756.452087	194.100000
756.489319	188.500000
756.526611	196.400000
756.563843	194.400000
756.601135	201.000000
756.638428	201.700000
756.675659	193.600000
756.712952	197.700000
756.750244	196.800000
756.787476	196.000000
756.824768	199.800000
756.862061	194.100000
756.899292	241.800000
756.936584	198.700000
756.973816	203.200000
757.011047	202.900000
757.048340	195.700000
757.085632	196.700000
757.122864	210.000000
757.160156	194.500000
757.197327	196.900000
757.234619	198.900000
757.271912	193.900000
757.309082	199.600000
757.346375	193.300000
757.383667	201.000000
757.420837	196.300000
757.458130	197.800000
757.495422	194.400000
757.532593	197.700000
757.569885	192.500000
757.607117	193.600000
757.644348	198.100000
757.681580	207.900000
757.718811	187.000000
757.756042	196.700000
757.793335	194.800000
757.830505	199.100000
757.867798	194.200000
757.905029	194.400000
757.942200	197.000000
757.979492	195.600000
758.016724	195.400000
758.053894	196.000000
758.091187	209.700000
758.128418	197.300000
758.165588	196.000000
758.202820	208.000000
758.240112	198.900000
758.277283	205.000000
758.314514	200.100000
758.351685	195.600000
758.388916	204.000000
758.426147	203.500000
758.463379	206.000000
758.500610	200.400000
758.537842	198.900000
758.575012	203.700000
758.612244	195.800000
758.649475	208.300000
758.686646	193.800000
758.723877	205.900000
758.761108	205.700000
758.798279	200.100000
758.835510	201.300000
758.872742	205.500000
758.909851	201.500000
758.947083	201.400000
758.984253	201.000000
759.021484	204.100000
759.058716	202.800000
759.095886	204.800000
759.133057	199.900000
759.170288	202.300000
759.207458	198.800000
759.244690	209.000000
759.281860	207.100000
759.319031	201.300000
759.356262	199.000000
759.393433	199.600000
759.430603	202.100000
759.467773	200.300000
759.505005	206.100000
759.542175	206.100000
759.579346	200.500000
759.616516	201.400000
759.653687	205.900000
759.690918	200.300000
759.728027	204.300000
759.765259	204.600000
759.802429	206.300000
759.839539	204.200000
759.876770	207.800000
759.913940	210.800000
759.951111	205.400000
759.988281	204.700000
760.025452	202.100000
760.062561	202.000000
760.099792	211.600000
760.136963	207.800000
760.174072	203.100000
760.211243	202.200000
760.248413	201.500000
760.285583	202.300000
760.322754	214.700000
760.359863	211.100000
760.397034	211.100000
760.434204	205.000000
760.471375	206.300000
760.508545	204.000000
760.545715	205.700000
760.582825	202.000000
760.619995	208.700000
760.657166	201.800000
760.694275	210.600000
760.731445	206.500000
760.768555	207.700000
760.805664	209.700000
760.842834	207.600000
760.879944	210.000000
760.917114	208.000000
760.954285	208.700000
760.991394	201.600000
761.028564	212.100000
761.065674	208.600000
761.102783	205.500000
761.139954	211.400000
761.177124	210.900000
761.214172	214.200000
761.251343	207.000000
761.288452	209.800000
761.325562	211.600000
761.362732	207.100000
761.399841	207.900000
761.436951	209.000000
761.474121	205.500000
761.511169	209.600000
761.548340	212.900000
761.585449	212.800000
761.622559	212.200000
761.659668	210.800000
761.696838	214.500000
761.733887	213.100000
761.771057	210.000000
761.808167	209.700000
761.845276	213.300000
761.882385	220.600000
761.919434	212.600000
761.956604	224.600000
761.993713	208.400000
762.030762	216.600000
762.067871	212.800000
762.105042	212.100000
762.142090	217.800000
762.179199	213.300000
762.216309	216.200000
762.253418	224.400000
762.290527	220.600000
762.327637	218.100000
762.364685	208.600000
762.401794	217.300000
762.438904	216.900000
762.475952	212.200000
762.513062	211.000000
762.550110	211.600000
762.587219	223.200000
762.624329	222.400000
762.661377	217.700000
762.698486	217.500000
762.735596	217.100000
762.772644	211.600000
762.809753	210.100000
762.846863	214.900000
762.883911	219.200000
762.921021	219.000000
762.958069	216.700000
762.995117	221.400000
763.032227	222.600000
763.069336	216.700000
763.106323	214.800000
763.143433	213.700000
763.180481	219.800000
763.217590	220.100000
763.254639	216.500000
763.291687	217.300000
763.328735	225.100000
763.365845	218.000000
763.402893	217.500000
763.439941	221.400000
763.477051	222.800000
763.514038	223.500000
763.551147	219.500000
763.588196	221.700000
763.625244	219.700000
763.662292	224.900000
763.699402	226.800000
763.736389	223.300000
763.773499	230.500000
763.810486	226.900000
763.847534	224.000000
763.884644	225.300000
763.921631	223.300000
763.958679	230.100000
763.995728	225.100000
764.032776	230.700000
764.069824	220.900000
764.106873	229.000000
764.143860	233.200000
764.180969	225.300000
764.218018	232.800000
764.255005	225.400000
764.292053	228.900000
764.329102	234.000000
764.366089	234.700000
764.403137	232.500000
764.440125	228.000000
764.477173	229.200000
764.514221	232.200000
764.551208	230.300000
764.588257	226.300000
764.625305	234.200000
764.662292	238.800000
764.699341	240.200000
764.736389	234.800000
764.773376	245.700000
764.810425	235.900000
764.847473	241.400000
764.884399	239.400000
764.921448	243.600000
764.958435	242.100000
764.995483	236.300000
765.032532	248.200000
765.069458	239.300000
765.106506	239.600000
765.143555	235.600000
765.180481	240.000000
765.217529	248.800000
765.254578	235.100000
765.291504	242.600000
765.328552	241.700000
765.365540	238.900000
765.402527	250.900000
765.439575	239.100000
765.476501	237.700000
765.513550	236.600000
765.550537	241.700000
765.587463	247.600000
765.624512	241.000000
765.661499	235.800000
765.698486	248.700000
765.735474	241.200000
765.772461	241.200000
765.809448	250.900000
765.846436	247.500000
765.883423	252.200000
765.920410	245.500000
765.957397	243.900000
765.994385	248.400000
766.031311	254.700000
766.068359	248.400000
766.105286	250.100000
766.142273	254.800000
766.179260	250.300000
766.216187	246.600000
766.253174	243.100000
766.290161	249.900000
766.327148	252.600000
766.364136	253.700000
766.401123	263.100000
766.438049	250.200000
766.475037	258.800000
766.512024	255.400000
766.548950	267.900000
766.585937	261.800000
766.622864	258.400000
766.659790	257.500000
766.696777	250.300000
766.733704	260.900000
766.770691	252.300000
766.807678	263.000000
766.844604	257.700000
766.881531	261.000000
766.918518	262.600000
766.955444	264.700000
766.992432	260.000000
767.029358	262.900000
767.066284	262.800000
767.103271	262.800000
767.140198	295.900000
767.177124	273.400000
767.214050	266.600000
767.251038	266.900000
767.287964	264.600000
767.324890	264.400000
767.361816	266.600000
767.398743	270.100000
767.435730	265.400000
767.472595	268.900000
767.509583	271.800000
767.546509	262.400000
767.583374	269.100000
767.620361	264.100000
767.657288	269.000000
767.694214	267.000000
767.731140	269.100000
767.768066	268.100000
767.804993	270.900000
767.841919	264.400000
767.878845	269.300000
767.915710	275.800000
767.952698	271.600000
767.989563	274.300000
768.026489	273.600000
