Model Number: SPM-001-M   
Serial Number: 10090201
Firmware Version: 004.17.6
Exposure Time: 300000.000000us
Data Taken on: 21-01-2021 14:45:47.567
Wavelength	Amplitude
733.770752	0.000000
733.808716	0.000000
733.846619	0.000000
733.884583	0.000000
733.922546	0.000000
733.960449	0.000000
733.998413	0.000000
734.036377	0.000000
734.074219	0.000000
734.112183	0.000000
734.150085	0.000000
734.188049	0.000000
734.226013	0.000000
734.263916	0.000000
734.301819	0.000000
734.339783	0.000000
734.377686	0.000000
734.415588	0.000000
734.453552	0.000000
734.491455	0.000000
734.529419	0.000000
734.567322	0.000000
734.605225	0.000000
734.643127	0.000000
734.681091	0.000000
734.718994	0.000000
734.756897	0.000000
734.794800	0.000000
734.832703	0.000000
734.870667	0.000000
734.908508	0.000000
734.946472	0.000000
734.984375	0.000000
735.022278	0.000000
735.060181	0.000000
735.098083	0.000000
735.135986	0.000000
735.173889	0.000000
735.211792	0.000000
735.249695	0.000000
735.287598	0.000000
735.325439	0.000000
735.363403	0.000000
735.401306	0.000000
735.439148	0.000000
735.477051	0.000000
735.515015	0.000000
735.552856	0.000000
735.590759	0.000000
735.628662	0.000000
735.666504	0.000000
735.704407	0.000000
735.742310	0.000000
735.780212	0.000000
735.818115	0.000000
735.856018	0.000000
735.893860	0.000000
735.931763	0.000000
735.969604	0.000000
736.007507	0.000000
736.045410	0.000000
736.083252	0.000000
736.121094	0.000000
736.158997	0.000000
736.196838	0.000000
736.234741	0.000000
736.272644	0.000000
736.310486	0.000000
736.348389	0.000000
736.386230	0.000000
736.424072	0.000000
736.461975	0.000000
736.499878	0.000000
736.537720	0.000000
736.575562	0.000000
736.613403	0.000000
736.651306	0.000000
736.689148	0.000000
736.726990	0.000000
736.764893	0.000000
736.802734	0.000000
736.840576	0.000000
736.878418	0.000000
736.916321	0.000000
736.954102	0.000000
736.992004	0.000000
737.029846	0.000000
737.067688	0.000000
737.105530	0.000000
737.143372	0.000000
737.181213	0.000000
737.219116	0.000000
737.256897	0.000000
737.294739	0.000000
737.332642	0.000000
737.370422	0.000000
737.408325	0.000000
737.446167	0.000000
737.483948	0.000000
737.521790	0.000000
737.559692	0.000000
737.597473	0.000000
737.635315	0.000000
737.673157	0.000000
737.710999	0.000000
737.748840	0.000000
737.786621	0.000000
737.824463	0.000000
737.862305	0.000000
737.900085	0.000000
737.937927	0.000000
737.975769	0.000000
738.013550	0.000000
738.051392	0.000000
738.089233	0.000000
738.127014	0.000000
738.164856	0.000000
738.202698	0.000000
738.240479	0.000000
738.278320	0.000000
738.316162	0.000000
738.353943	0.000000
738.391785	0.000000
738.429565	0.000000
738.467407	0.000000
738.505188	0.000000
738.542969	0.000000
738.580811	0.000000
738.618652	0.000000
738.656372	0.000000
738.694214	0.000000
738.732056	0.000000
738.769836	0.000000
738.807617	0.000000
738.845459	0.000000
738.883240	0.000000
738.921021	0.000000
738.958862	0.000000
738.996582	0.000000
739.034424	0.000000
739.072205	0.000000
739.109985	0.000000
739.147827	0.000000
739.185547	0.000000
739.223389	0.000000
739.261169	0.000000
739.298889	0.000000
739.336731	0.000000
739.374512	0.000000
739.412292	0.000000
739.450073	0.000000
739.487854	0.000000
739.525635	0.000000
739.563416	0.000000
739.601135	0.000000
739.638977	0.000000
739.676758	0.000000
739.714478	0.000000
739.752258	0.000000
739.790100	0.000000
739.827820	0.000000
739.865601	0.000000
739.903381	0.000000
739.941101	0.000000
739.978882	194.200000
740.016724	191.500000
740.054443	194.300000
740.092224	189.600000
740.130005	190.200000
740.167725	190.100000
740.205505	191.500000
740.243225	197.000000
740.281006	191.300000
740.318787	187.800000
740.356506	197.800000
740.394287	195.500000
740.432068	190.100000
740.469727	186.600000
740.507507	194.300000
740.545288	192.100000
740.583008	193.300000
740.620789	193.800000
740.658569	186.500000
740.696228	191.800000
740.734009	195.000000
740.771790	184.300000
740.809509	195.500000
740.847229	190.000000
740.884949	189.800000
740.922729	188.000000
740.960449	189.500000
740.998169	189.300000
741.035950	188.400000
741.073669	193.100000
741.111389	192.300000
741.149170	200.800000
741.186890	198.900000
741.224609	195.600000
741.262329	194.400000
741.300110	198.100000
741.337769	189.300000
741.375549	187.200000
741.413208	192.900000
741.450989	189.700000
741.488708	190.800000
741.526367	189.800000
741.564148	194.900000
741.601868	193.700000
741.639526	191.700000
741.677307	193.300000
741.715027	194.600000
741.752686	189.100000
741.790466	197.700000
741.828186	193.900000
741.865845	188.400000
741.903564	187.500000
741.941345	192.200000
741.979004	189.000000
742.016724	195.400000
742.054382	191.000000
742.092102	196.300000
742.129822	186.300000
742.167480	190.100000
742.205200	190.500000
742.242920	193.400000
742.280640	195.300000
742.318359	190.500000
742.356079	191.800000
742.393738	196.400000
742.431396	189.700000
742.469116	194.500000
742.506775	184.800000
742.544495	194.400000
742.582214	194.500000
742.619873	191.500000
742.657593	195.700000
742.695251	196.200000
742.732971	190.500000
742.770630	192.400000
742.808289	192.500000
742.846008	192.400000
742.883728	193.100000
742.921326	193.000000
742.959045	190.400000
742.996765	192.000000
743.034424	191.400000
743.072083	188.900000
743.109802	191.500000
743.147400	187.500000
743.185120	192.500000
743.222839	191.500000
743.260437	198.300000
743.298157	192.500000
743.335754	186.400000
743.373474	191.200000
743.411133	187.900000
743.448792	191.500000
743.486450	190.900000
743.524170	185.200000
743.561768	192.400000
743.599487	195.300000
743.637146	200.100000
743.674744	191.600000
743.712463	190.900000
743.750122	192.500000
743.787720	193.400000
743.825439	190.100000
743.863037	190.700000
743.900696	191.100000
743.938416	218.500000
743.976013	190.900000
744.013672	198.900000
744.051331	196.600000
744.088928	200.000000
744.126587	196.900000
744.164307	193.800000
744.201904	189.300000
744.239563	194.600000
744.277222	195.100000
744.314819	192.900000
744.352478	196.800000
744.390137	194.300000
744.427734	193.600000
744.465393	190.400000
744.502991	189.100000
744.540649	195.000000
744.578308	193.100000
744.615906	188.600000
744.653564	185.300000
744.691223	192.800000
744.728821	187.800000
744.766418	190.900000
744.804077	194.100000
744.841675	190.900000
744.879333	188.100000
744.916992	190.400000
744.954529	190.500000
744.992187	195.100000
745.029785	191.700000
745.067444	189.000000
745.105042	192.500000
745.142639	193.000000
745.180298	201.800000
745.217896	190.600000
745.255493	191.500000
745.293152	194.700000
745.330750	195.900000
745.368347	197.300000
745.405945	194.800000
745.443604	192.900000
745.481140	196.100000
745.518799	192.100000
745.556396	195.400000
745.593994	194.700000
745.631592	193.300000
745.669189	189.200000
745.706787	194.500000
745.744385	189.800000
745.781982	195.400000
745.819580	189.700000
745.857178	192.600000
745.894775	192.800000
745.932373	192.700000
745.969971	194.200000
746.007568	186.200000
746.045166	197.800000
746.082764	198.900000
746.120300	195.800000
746.157898	193.100000
746.195557	193.000000
746.233093	188.300000
746.270691	194.100000
746.308228	194.100000
746.345825	196.000000
746.383423	193.700000
746.420959	189.900000
746.458557	189.500000
746.496155	190.000000
746.533691	192.700000
746.571289	189.300000
746.608887	190.400000
746.646423	194.100000
746.684021	193.100000
746.721619	191.100000
746.759155	194.900000
746.796753	187.600000
746.834351	188.600000
746.871826	190.900000
746.909424	197.500000
746.946960	192.300000
746.984558	191.700000
747.022156	189.400000
747.059631	199.400000
747.097229	193.500000
747.134827	189.800000
747.172363	197.400000
747.209900	195.200000
747.247498	189.000000
747.285034	195.300000
747.322571	197.700000
747.360168	192.700000
747.397644	187.700000
747.435242	195.200000
747.472778	196.300000
747.510315	191.100000
747.547913	191.200000
747.585388	197.700000
747.622925	191.600000
747.660522	186.800000
747.697998	190.300000
747.735596	190.700000
747.773132	190.700000
747.810669	193.200000
747.848206	194.200000
747.885742	190.000000
747.923279	188.400000
747.960815	192.300000
747.998352	192.700000
748.035889	195.000000
748.073425	194.000000
748.110901	190.900000
748.148437	187.900000
748.185974	192.900000
748.223511	199.100000
748.261047	195.000000
748.298584	193.300000
748.336060	192.600000
748.373596	192.900000
748.411133	217.900000
748.448608	190.600000
748.486145	194.800000
748.523682	196.000000
748.561218	199.800000
748.598755	192.800000
748.636292	195.300000
748.673706	191.200000
748.711243	198.300000
748.748718	192.300000
748.786255	193.000000
748.823792	192.100000
748.861267	188.200000
748.898804	194.800000
748.936340	194.500000
748.973816	190.200000
749.011292	197.300000
749.048828	193.900000
749.086304	193.300000
749.123840	200.300000
749.161316	189.600000
749.198792	200.000000
749.236328	197.100000
749.273743	191.500000
749.311279	191.700000
749.348816	194.600000
749.386230	191.500000
749.423767	182.500000
749.461304	194.400000
749.498718	192.700000
749.536255	196.100000
749.573730	201.300000
749.611206	198.100000
749.648682	192.100000
749.686218	192.700000
749.723633	194.900000
749.761169	190.600000
749.798645	190.800000
749.836060	191.300000
749.873596	189.900000
749.911011	193.700000
749.948547	197.300000
749.986023	192.300000
750.023437	192.700000
750.060913	189.800000
750.098450	187.400000
750.135864	192.000000
750.173340	194.200000
750.210815	196.700000
750.248291	189.100000
750.285767	193.000000
750.323242	196.900000
750.360657	194.700000
750.398132	189.400000
750.435608	193.700000
750.473022	190.800000
750.510498	189.300000
750.547974	188.900000
750.585449	193.200000
750.622925	185.600000
750.660339	202.100000
750.697815	194.100000
750.735291	191.500000
750.772644	191.900000
750.810120	194.900000
750.847595	195.200000
750.885010	188.000000
750.922485	198.100000
750.959961	193.900000
750.997375	197.700000
751.034851	195.800000
751.072266	194.900000
751.109680	188.300000
751.147156	198.100000
751.184570	194.900000
751.221985	192.800000
751.259460	187.200000
751.296875	192.700000
751.334290	192.800000
751.371765	195.300000
751.409180	194.900000
751.446594	198.100000
751.484070	196.000000
751.521423	192.800000
751.558899	194.300000
751.596375	200.100000
751.633728	198.200000
751.671204	199.400000
751.708618	190.600000
751.746033	194.000000
751.783447	188.500000
751.820801	189.800000
751.858276	195.600000
751.895691	192.000000
751.933105	191.600000
751.970520	188.600000
752.007935	191.400000
752.045349	197.300000
752.082764	193.000000
752.120178	191.200000
752.157532	191.300000
752.195007	189.500000
752.232422	193.600000
752.269775	196.300000
752.307190	196.300000
752.344543	188.400000
752.382019	193.600000
752.419434	190.200000
752.456787	193.500000
752.494202	196.400000
752.531616	193.300000
752.568970	195.500000
752.606384	193.800000
752.643799	194.900000
752.681152	198.700000
752.718567	195.500000
752.755981	187.800000
752.793335	195.500000
752.830750	187.500000
752.868164	197.700000
752.905518	189.200000
752.942932	196.500000
752.980225	187.900000
753.017639	196.500000
753.055054	195.800000
753.092407	194.000000
753.129822	195.700000
753.167175	199.100000
753.204529	192.200000
753.241943	190.200000
753.279358	189.400000
753.316650	195.100000
753.354065	194.200000
753.391479	195.800000
753.428772	197.700000
753.466187	195.100000
753.503479	189.700000
753.540894	191.900000
753.578308	188.400000
753.615601	188.700000
753.653015	192.400000
753.690369	191.200000
753.727722	189.200000
753.765076	187.800000
753.802490	188.700000
753.839783	187.500000
753.877136	189.300000
753.914551	202.100000
753.951843	189.200000
753.989258	194.300000
754.026611	193.000000
754.063904	194.300000
754.101257	187.500000
754.138611	186.400000
754.175964	194.200000
754.213318	200.300000
754.250610	187.400000
754.288025	190.900000
754.325378	189.400000
754.362671	195.700000
754.400024	192.100000
754.437378	199.000000
754.474670	200.800000
754.512085	190.200000
754.549438	193.600000
754.586731	190.100000
754.624084	192.400000
754.661438	189.200000
754.698730	200.300000
754.736084	191.200000
754.773376	191.300000
754.810730	193.800000
754.848083	191.500000
754.885315	196.600000
754.922668	187.300000
754.960022	188.600000
754.997314	196.900000
755.034668	192.000000
755.072021	194.000000
755.109253	191.100000
755.146606	198.600000
755.183960	191.300000
755.221252	198.700000
755.258545	194.800000
755.295898	197.200000
755.333191	196.800000
755.370544	195.100000
755.407776	193.800000
755.445129	193.000000
755.482422	196.500000
755.519714	191.200000
755.557068	188.000000
755.594360	185.200000
755.631653	197.300000
755.668945	199.400000
755.706299	194.600000
755.743530	203.000000
755.780884	198.900000
755.818176	197.200000
755.855408	197.300000
755.892761	196.100000
755.930054	193.500000
755.967346	196.400000
756.004639	194.800000
756.041870	192.800000
756.079224	197.400000
756.116516	190.000000
756.153748	196.700000
756.191040	201.100000
756.228394	196.100000
756.265625	190.600000
756.302917	195.700000
756.340210	191.100000
756.377441	198.600000
756.414795	199.800000
756.452087	193.700000
756.489319	189.400000
756.526611	198.400000
756.563843	195.000000
756.601135	201.900000
756.638428	203.000000
756.675659	195.400000
756.712952	196.300000
756.750244	196.800000
756.787476	196.600000
756.824768	198.800000
756.862061	194.500000
756.899292	241.800000
756.936584	199.100000
756.973816	204.100000
757.011047	204.800000
757.048340	195.200000
757.085632	196.400000
757.122864	208.500000
757.160156	194.200000
757.197327	196.700000
757.234619	200.900000
757.271912	195.500000
757.309082	200.500000
757.346375	192.600000
757.383667	202.300000
757.420837	196.200000
757.458130	196.600000
757.495422	195.600000
757.532593	199.800000
757.569885	191.500000
757.607117	195.400000
757.644348	197.500000
757.681580	208.200000
757.718811	187.000000
757.756042	196.900000
757.793335	195.400000
757.830505	199.400000
757.867798	195.000000
757.905029	195.600000
757.942200	197.300000
757.979492	195.100000
758.016724	197.300000
758.053894	197.000000
758.091187	210.600000
758.128418	199.200000
758.165588	196.400000
758.202820	205.900000
758.240112	198.600000
758.277283	207.100000
758.314514	198.900000
758.351685	196.400000
758.388916	204.600000
758.426147	204.000000
758.463379	205.600000
758.500610	200.400000
758.537842	199.200000
758.575012	203.800000
758.612244	196.400000
758.649475	207.700000
758.686646	193.500000
758.723877	203.300000
758.761108	206.200000
758.798279	198.800000
758.835510	201.900000
758.872742	205.000000
758.909851	201.700000
758.947083	202.200000
758.984253	203.200000
759.021484	204.100000
759.058716	204.100000
759.095886	204.100000
759.133057	202.200000
759.170288	202.000000
759.207458	200.300000
759.244690	210.500000
759.281860	208.500000
759.319031	202.800000
759.356262	200.600000
759.393433	200.600000
759.430603	202.100000
759.467773	202.300000
759.505005	206.200000
759.542175	206.600000
759.579346	203.400000
759.616516	203.000000
759.653687	206.000000
759.690918	201.700000
759.728027	203.600000
759.765259	205.700000
759.802429	206.300000
759.839539	205.400000
759.876770	209.200000
759.913940	211.900000
759.951111	206.100000
759.988281	205.900000
760.025452	201.600000
760.062561	202.200000
760.099792	214.100000
760.136963	207.100000
760.174072	203.600000
760.211243	200.700000
760.248413	201.300000
760.285583	201.800000
760.322754	213.500000
760.359863	209.900000
760.397034	212.800000
760.434204	206.500000
760.471375	206.000000
760.508545	206.000000
760.545715	207.500000
760.582825	204.200000
760.619995	210.900000
760.657166	203.200000
760.694275	211.500000
760.731445	210.000000
760.768555	208.200000
760.805664	210.700000
760.842834	208.400000
760.879944	211.200000
760.917114	208.000000
760.954285	207.600000
760.991394	202.400000
761.028564	211.400000
761.065674	210.000000
761.102783	205.200000
761.139954	212.900000
761.177124	212.000000
761.214172	212.200000
761.251343	208.500000
761.288452	208.300000
761.325562	212.000000
761.362732	207.000000
761.399841	208.800000
761.436951	211.900000
761.474121	206.700000
761.511169	210.100000
761.548340	212.800000
761.585449	212.100000
761.622559	214.900000
761.659668	211.200000
761.696838	214.200000
761.733887	213.600000
761.771057	210.100000
761.808167	211.700000
761.845276	214.300000
761.882385	222.500000
761.919434	212.200000
761.956604	227.500000
761.993713	210.000000
762.030762	216.400000
762.067871	212.000000
762.105042	213.700000
762.142090	218.600000
762.179199	215.300000
762.216309	216.400000
762.253418	225.700000
762.290527	222.700000
762.327637	219.500000
762.364685	211.800000
762.401794	218.400000
762.438904	217.500000
762.475952	215.100000
762.513062	212.800000
762.550110	213.100000
762.587219	222.600000
762.624329	222.000000
762.661377	219.400000
762.698486	217.500000
762.735596	217.200000
762.772644	213.200000
762.809753	210.900000
762.846863	216.600000
762.883911	220.700000
762.921021	219.900000
762.958069	216.700000
762.995117	224.700000
763.032227	223.600000
763.069336	216.600000
763.106323	215.800000
763.143433	214.000000
763.180481	219.300000
763.217590	219.100000
763.254639	218.400000
763.291687	218.200000
763.328735	226.300000
763.365845	219.200000
763.402893	218.100000
763.439941	220.600000
763.477051	224.400000
763.514038	222.400000
763.551147	220.900000
763.588196	222.100000
763.625244	221.000000
763.662292	227.900000
763.699402	228.900000
763.736389	224.600000
763.773499	232.600000
763.810486	227.200000
763.847534	225.400000
763.884644	225.200000
763.921631	224.200000
763.958679	230.800000
763.995728	225.300000
764.032776	231.400000
764.069824	223.000000
764.106873	229.000000
764.143860	233.800000
764.180969	227.000000
764.218018	232.900000
764.255005	227.600000
764.292053	227.700000
764.329102	235.700000
764.366089	235.400000
764.403137	232.300000
764.440125	229.200000
764.477173	231.600000
764.514221	233.200000
764.551208	232.500000
764.588257	228.500000
764.625305	234.800000
764.662292	239.000000
764.699341	242.100000
764.736389	235.900000
764.773376	248.100000
764.810425	236.700000
764.847473	244.500000
764.884399	239.700000
764.921448	245.000000
764.958435	243.800000
764.995483	237.600000
765.032532	249.200000
765.069458	238.700000
765.106506	240.700000
765.143555	238.200000
765.180481	240.800000
765.217529	249.400000
765.254578	236.200000
765.291504	243.800000
765.328552	243.200000
765.365540	239.200000
765.402527	251.700000
765.439575	242.600000
765.476501	238.600000
765.513550	238.800000
765.550537	244.200000
765.587463	248.000000
765.624512	241.100000
765.661499	237.200000
765.698486	248.900000
765.735474	242.100000
765.772461	245.500000
765.809448	250.200000
765.846436	248.600000
765.883423	252.500000
765.920410	249.700000
765.957397	244.800000
765.994385	249.100000
766.031311	254.600000
766.068359	249.600000
766.105286	250.200000
766.142273	255.300000
766.179260	251.800000
766.216187	247.600000
766.253174	243.400000
766.290161	251.000000
766.327148	253.900000
766.364136	256.000000
766.401123	266.100000
766.438049	251.500000
766.475037	258.600000
766.512024	257.800000
766.548950	269.200000
766.585937	263.700000
766.622864	258.500000
766.659790	260.100000
766.696777	251.500000
766.733704	262.700000
766.770691	255.600000
766.807678	267.400000
766.844604	260.900000
766.881531	261.400000
766.918518	264.300000
766.955444	266.400000
766.992432	259.300000
767.029358	264.100000
767.066284	266.400000
767.103271	264.800000
767.140198	296.000000
767.177124	275.400000
767.214050	266.100000
767.251038	268.100000
767.287964	263.800000
767.324890	264.200000
767.361816	266.300000
767.398743	271.600000
767.435730	267.900000
767.472595	269.800000
767.509583	274.400000
767.546509	266.300000
767.583374	270.900000
767.620361	264.400000
767.657288	269.800000
767.694214	270.100000
767.731140	270.300000
767.768066	269.900000
767.804993	274.000000
767.841919	266.100000
767.878845	270.500000
767.915710	277.300000
767.952698	272.800000
767.989563	274.200000
768.026489	273.800000
