Model Number: SPM-001-M   
Serial Number: 10090201
Firmware Version: 004.17.6
Exposure Time: 300000.000000us
Data Taken on: 21-01-2021 15:01:16.959
Wavelength	Amplitude
733.770752	0.000000
733.808716	0.000000
733.846619	0.000000
733.884583	0.000000
733.922546	0.000000
733.960449	0.000000
733.998413	0.000000
734.036377	0.000000
734.074219	0.000000
734.112183	0.000000
734.150085	0.000000
734.188049	0.000000
734.226013	0.000000
734.263916	0.000000
734.301819	0.000000
734.339783	0.000000
734.377686	0.000000
734.415588	0.000000
734.453552	0.000000
734.491455	0.000000
734.529419	0.000000
734.567322	0.000000
734.605225	0.000000
734.643127	0.000000
734.681091	0.000000
734.718994	0.000000
734.756897	0.000000
734.794800	0.000000
734.832703	0.000000
734.870667	0.000000
734.908508	0.000000
734.946472	0.000000
734.984375	0.000000
735.022278	0.000000
735.060181	0.000000
735.098083	0.000000
735.135986	0.000000
735.173889	0.000000
735.211792	0.000000
735.249695	0.000000
735.287598	0.000000
735.325439	0.000000
735.363403	0.000000
735.401306	0.000000
735.439148	0.000000
735.477051	0.000000
735.515015	0.000000
735.552856	0.000000
735.590759	0.000000
735.628662	0.000000
735.666504	0.000000
735.704407	0.000000
735.742310	0.000000
735.780212	0.000000
735.818115	0.000000
735.856018	0.000000
735.893860	0.000000
735.931763	0.000000
735.969604	0.000000
736.007507	0.000000
736.045410	0.000000
736.083252	0.000000
736.121094	0.000000
736.158997	0.000000
736.196838	0.000000
736.234741	0.000000
736.272644	0.000000
736.310486	0.000000
736.348389	0.000000
736.386230	0.000000
736.424072	0.000000
736.461975	0.000000
736.499878	0.000000
736.537720	0.000000
736.575562	0.000000
736.613403	0.000000
736.651306	0.000000
736.689148	0.000000
736.726990	0.000000
736.764893	0.000000
736.802734	0.000000
736.840576	0.000000
736.878418	0.000000
736.916321	0.000000
736.954102	0.000000
736.992004	0.000000
737.029846	0.000000
737.067688	0.000000
737.105530	0.000000
737.143372	0.000000
737.181213	0.000000
737.219116	0.000000
737.256897	0.000000
737.294739	0.000000
737.332642	0.000000
737.370422	0.000000
737.408325	0.000000
737.446167	0.000000
737.483948	0.000000
737.521790	0.000000
737.559692	0.000000
737.597473	0.000000
737.635315	0.000000
737.673157	0.000000
737.710999	0.000000
737.748840	0.000000
737.786621	0.000000
737.824463	0.000000
737.862305	0.000000
737.900085	0.000000
737.937927	0.000000
737.975769	0.000000
738.013550	0.000000
738.051392	0.000000
738.089233	0.000000
738.127014	0.000000
738.164856	0.000000
738.202698	0.000000
738.240479	0.000000
738.278320	0.000000
738.316162	0.000000
738.353943	0.000000
738.391785	0.000000
738.429565	0.000000
738.467407	0.000000
738.505188	0.000000
738.542969	0.000000
738.580811	0.000000
738.618652	0.000000
738.656372	0.000000
738.694214	0.000000
738.732056	0.000000
738.769836	0.000000
738.807617	0.000000
738.845459	0.000000
738.883240	0.000000
738.921021	0.000000
738.958862	0.000000
738.996582	0.000000
739.034424	0.000000
739.072205	0.000000
739.109985	0.000000
739.147827	0.000000
739.185547	0.000000
739.223389	0.000000
739.261169	0.000000
739.298889	0.000000
739.336731	0.000000
739.374512	0.000000
739.412292	0.000000
739.450073	0.000000
739.487854	0.000000
739.525635	0.000000
739.563416	0.000000
739.601135	0.000000
739.638977	0.000000
739.676758	0.000000
739.714478	0.000000
739.752258	0.000000
739.790100	0.000000
739.827820	0.000000
739.865601	0.000000
739.903381	0.000000
739.941101	0.000000
739.978882	195.300000
740.016724	190.500000
740.054443	193.500000
740.092224	190.500000
740.130005	189.400000
740.167725	189.500000
740.205505	188.900000
740.243225	197.100000
740.281006	191.700000
740.318787	188.200000
740.356506	196.400000
740.394287	195.900000
740.432068	187.800000
740.469727	187.800000
740.507507	193.300000
740.545288	192.800000
740.583008	193.500000
740.620789	191.700000
740.658569	186.500000
740.696228	192.200000
740.734009	194.600000
740.771790	184.600000
740.809509	193.600000
740.847229	190.000000
740.884949	189.500000
740.922729	187.300000
740.960449	189.800000
740.998169	189.200000
741.035950	189.200000
741.073669	193.100000
741.111389	192.300000
741.149170	200.300000
741.186890	199.600000
741.224609	196.000000
741.262329	193.500000
741.300110	200.200000
741.337769	188.700000
741.375549	189.100000
741.413208	193.000000
741.450989	189.100000
741.488708	189.500000
741.526367	190.100000
741.564148	195.800000
741.601868	193.500000
741.639526	191.400000
741.677307	191.500000
741.715027	194.200000
741.752686	187.000000
741.790466	197.400000
741.828186	192.900000
741.865845	189.200000
741.903564	187.500000
741.941345	193.400000
741.979004	187.400000
742.016724	195.200000
742.054382	192.100000
742.092102	195.800000
742.129822	187.100000
742.167480	191.900000
742.205200	190.500000
742.242920	195.300000
742.280640	194.200000
742.318359	188.900000
742.356079	189.800000
742.393738	196.400000
742.431396	191.200000
742.469116	196.100000
742.506775	184.900000
742.544495	193.600000
742.582214	195.300000
742.619873	192.600000
742.657593	196.800000
742.695251	196.300000
742.732971	191.300000
742.770630	192.900000
742.808289	191.900000
742.846008	191.700000
742.883728	193.100000
742.921326	192.500000
742.959045	190.300000
742.996765	190.800000
743.034424	190.700000
743.072083	189.200000
743.109802	191.400000
743.147400	187.400000
743.185120	192.900000
743.222839	191.200000
743.260437	195.700000
743.298157	191.900000
743.335754	186.100000
743.373474	189.700000
743.411133	186.800000
743.448792	191.800000
743.486450	192.400000
743.524170	186.500000
743.561768	191.100000
743.599487	198.100000
743.637146	199.500000
743.674744	190.700000
743.712463	191.400000
743.750122	191.400000
743.787720	194.200000
743.825439	190.000000
743.863037	192.700000
743.900696	191.500000
743.938416	216.800000
743.976013	190.700000
744.013672	199.200000
744.051331	194.500000
744.088928	201.200000
744.126587	196.400000
744.164307	193.600000
744.201904	189.900000
744.239563	194.600000
744.277222	194.100000
744.314819	192.900000
744.352478	197.700000
744.390137	193.600000
744.427734	193.500000
744.465393	190.900000
744.502991	188.200000
744.540649	195.000000
744.578308	193.100000
744.615906	189.200000
744.653564	183.600000
744.691223	194.300000
744.728821	186.600000
744.766418	191.700000
744.804077	194.300000
744.841675	189.800000
744.879333	187.700000
744.916992	191.200000
744.954529	189.400000
744.992187	195.500000
745.029785	191.100000
745.067444	189.200000
745.105042	192.400000
745.142639	191.700000
745.180298	201.400000
745.217896	191.300000
745.255493	191.000000
745.293152	193.800000
745.330750	197.200000
745.368347	196.600000
745.405945	194.700000
745.443604	190.200000
745.481140	194.800000
745.518799	190.600000
745.556396	196.000000
745.593994	195.300000
745.631592	193.000000
745.669189	187.900000
745.706787	194.300000
745.744385	188.400000
745.781982	196.600000
745.819580	189.400000
745.857178	192.600000
745.894775	191.100000
745.932373	194.400000
745.969971	194.000000
746.007568	185.300000
746.045166	198.700000
746.082764	197.300000
746.120300	193.700000
746.157898	194.000000
746.195557	192.000000
746.233093	187.400000
746.270691	194.000000
746.308228	193.100000
746.345825	196.200000
746.383423	194.200000
746.420959	188.000000
746.458557	188.500000
746.496155	190.000000
746.533691	191.000000
746.571289	188.900000
746.608887	191.500000
746.646423	194.100000
746.684021	192.300000
746.721619	189.800000
746.759155	193.600000
746.796753	188.000000
746.834351	188.100000
746.871826	189.700000
746.909424	196.600000
746.946960	193.200000
746.984558	191.800000
747.022156	191.300000
747.059631	198.800000
747.097229	195.800000
747.134827	189.800000
747.172363	197.000000
747.209900	194.600000
747.247498	188.600000
747.285034	197.100000
747.322571	196.700000
747.360168	191.400000
747.397644	187.100000
747.435242	194.500000
747.472778	196.400000
747.510315	190.800000
747.547913	191.400000
747.585388	196.400000
747.622925	191.100000
747.660522	187.100000
747.697998	189.500000
747.735596	191.000000
747.773132	190.200000
747.810669	191.900000
747.848206	194.100000
747.885742	189.900000
747.923279	187.800000
747.960815	193.700000
747.998352	193.200000
748.035889	196.400000
748.073425	194.900000
748.110901	190.200000
748.148437	188.900000
748.185974	192.000000
748.223511	197.800000
748.261047	195.000000
748.298584	191.900000
748.336060	192.900000
748.373596	193.400000
748.411133	217.000000
748.448608	189.300000
748.486145	194.700000
748.523682	195.900000
748.561218	199.900000
748.598755	191.500000
748.636292	194.600000
748.673706	190.000000
748.711243	197.300000
748.748718	191.500000
748.786255	193.600000
748.823792	191.900000
748.861267	189.200000
748.898804	194.300000
748.936340	193.500000
748.973816	189.400000
749.011292	197.000000
749.048828	192.900000
749.086304	194.200000
749.123840	198.500000
749.161316	189.100000
749.198792	199.800000
749.236328	196.600000
749.273743	192.300000
749.311279	191.400000
749.348816	196.800000
749.386230	192.000000
749.423767	183.600000
749.461304	194.500000
749.498718	192.700000
749.536255	196.500000
749.573730	200.800000
749.611206	197.100000
749.648682	192.400000
749.686218	192.100000
749.723633	195.900000
749.761169	191.800000
749.798645	190.100000
749.836060	190.100000
749.873596	190.700000
749.911011	193.600000
749.948547	197.900000
749.986023	190.900000
750.023437	193.500000
750.060913	186.800000
750.098450	188.800000
750.135864	191.100000
750.173340	192.400000
750.210815	196.700000
750.248291	190.400000
750.285767	190.900000
750.323242	197.200000
750.360657	195.200000
750.398132	190.100000
750.435608	194.300000
750.473022	190.500000
750.510498	188.700000
750.547974	189.500000
750.585449	190.700000
750.622925	185.800000
750.660339	202.500000
750.697815	193.400000
750.735291	192.400000
750.772644	192.100000
750.810120	192.400000
750.847595	193.800000
750.885010	188.800000
750.922485	198.600000
750.959961	192.000000
750.997375	196.900000
751.034851	195.300000
751.072266	195.800000
751.109680	187.000000
751.147156	197.000000
751.184570	194.900000
751.221985	192.500000
751.259460	187.100000
751.296875	191.800000
751.334290	192.300000
751.371765	193.600000
751.409180	196.400000
751.446594	194.900000
751.484070	194.600000
751.521423	192.100000
751.558899	193.300000
751.596375	199.900000
751.633728	198.600000
751.671204	200.600000
751.708618	190.400000
751.746033	192.800000
751.783447	189.100000
751.820801	188.600000
751.858276	195.100000
751.895691	191.100000
751.933105	190.100000
751.970520	187.500000
752.007935	190.700000
752.045349	195.400000
752.082764	193.400000
752.120178	190.100000
752.157532	190.100000
752.195007	190.200000
752.232422	192.900000
752.269775	195.800000
752.307190	195.500000
752.344543	188.600000
752.382019	191.400000
752.419434	191.000000
752.456787	193.900000
752.494202	196.900000
752.531616	193.200000
752.568970	195.000000
752.606384	193.800000
752.643799	193.800000
752.681152	197.600000
752.718567	195.000000
752.755981	186.400000
752.793335	194.500000
752.830750	186.000000
752.868164	196.300000
752.905518	188.200000
752.942932	197.300000
752.980225	187.700000
753.017639	194.900000
753.055054	195.000000
753.092407	194.800000
753.129822	195.600000
753.167175	200.300000
753.204529	191.600000
753.241943	190.900000
753.279358	188.100000
753.316650	194.900000
753.354065	194.200000
753.391479	198.800000
753.428772	198.800000
753.466187	195.100000
753.503479	188.300000
753.540894	192.600000
753.578308	188.400000
753.615601	189.200000
753.653015	193.000000
753.690369	191.600000
753.727722	189.300000
753.765076	187.000000
753.802490	188.300000
753.839783	185.800000
753.877136	189.700000
753.914551	201.900000
753.951843	190.700000
753.989258	194.700000
754.026611	191.900000
754.063904	194.100000
754.101257	189.200000
754.138611	184.700000
754.175964	192.900000
754.213318	199.100000
754.250610	187.600000
754.288025	190.100000
754.325378	188.400000
754.362671	194.600000
754.400024	192.700000
754.437378	198.200000
754.474670	199.300000
754.512085	190.800000
754.549438	194.700000
754.586731	190.600000
754.624084	191.300000
754.661438	188.100000
754.698730	198.900000
754.736084	190.700000
754.773376	191.900000
754.810730	193.100000
754.848083	190.600000
754.885315	193.500000
754.922668	185.000000
754.960022	184.500000
754.997314	193.800000
755.034668	189.500000
755.072021	191.100000
755.109253	186.700000
755.146606	194.900000
755.183960	188.600000
755.221252	194.500000
755.258545	191.900000
755.295898	193.900000
755.333191	192.800000
755.370544	188.000000
755.407776	188.600000
755.445129	189.100000
755.482422	193.200000
755.519714	187.200000
755.557068	184.500000
755.594360	181.800000
755.631653	192.000000
755.668945	193.800000
755.706299	190.500000
755.743530	197.900000
755.780884	195.400000
755.818176	192.600000
755.855408	193.300000
755.892761	190.000000
755.930054	188.600000
755.967346	190.300000
756.004639	190.500000
756.041870	187.600000
756.079224	194.400000
756.116516	184.700000
756.153748	191.900000
756.191040	194.800000
756.228394	192.600000
756.265625	185.500000
756.302917	190.700000
756.340210	185.400000
756.377441	193.600000
756.414795	194.500000
756.452087	189.000000
756.489319	183.200000
756.526611	193.000000
756.563843	190.000000
756.601135	196.500000
756.638428	196.200000
756.675659	189.400000
756.712952	192.100000
756.750244	191.500000
756.787476	189.500000
756.824768	193.800000
756.862061	189.100000
756.899292	235.600000
756.936584	191.900000
756.973816	196.400000
757.011047	197.100000
757.048340	188.900000
757.085632	189.600000
757.122864	203.000000
757.160156	187.800000
757.197327	190.200000
757.234619	193.100000
757.271912	187.400000
757.309082	194.400000
757.346375	187.000000
757.383667	195.100000
757.420837	190.300000
757.458130	191.100000
757.495422	187.200000
757.532593	192.700000
757.569885	183.400000
757.607117	188.100000
757.644348	190.100000
757.681580	201.200000
757.718811	180.800000
757.756042	190.100000
757.793335	187.400000
757.830505	192.700000
757.867798	185.900000
757.905029	188.300000
757.942200	190.200000
757.979492	188.200000
758.016724	187.700000
758.053894	188.300000
758.091187	202.300000
758.128418	190.800000
758.165588	188.200000
758.202820	197.900000
758.240112	188.500000
758.277283	197.200000
758.314514	190.800000
758.351685	186.200000
758.388916	195.200000
758.426147	195.700000
758.463379	197.100000
758.500610	190.200000
758.537842	190.600000
758.575012	192.800000
758.612244	185.400000
758.649475	198.700000
758.686646	185.200000
758.723877	194.200000
758.761108	194.800000
758.798279	188.900000
758.835510	191.000000
758.872742	193.200000
758.909851	191.300000
758.947083	189.800000
758.984253	191.600000
759.021484	191.900000
759.058716	193.500000
759.095886	193.100000
759.133057	189.600000
759.170288	192.900000
759.207458	186.800000
759.244690	196.700000
759.281860	195.100000
759.319031	187.500000
759.356262	189.100000
759.393433	187.300000
759.430603	188.800000
759.467773	188.800000
759.505005	193.800000
759.542175	194.600000
759.579346	189.800000
759.616516	189.600000
759.653687	194.000000
759.690918	187.200000
759.728027	189.700000
759.765259	190.200000
759.802429	193.300000
759.839539	191.000000
759.876770	194.600000
759.913940	197.800000
759.951111	190.300000
759.988281	191.300000
760.025452	188.800000
760.062561	188.900000
760.099792	197.400000
760.136963	193.500000
760.174072	187.600000
760.211243	185.900000
760.248413	187.200000
760.285583	186.400000
760.322754	197.300000
760.359863	194.700000
760.397034	195.200000
760.434204	191.300000
760.471375	190.200000
760.508545	188.700000
760.545715	189.200000
760.582825	187.000000
760.619995	192.900000
760.657166	187.300000
760.694275	195.000000
760.731445	193.300000
760.768555	192.400000
760.805664	195.000000
760.842834	192.300000
760.879944	194.700000
760.917114	190.800000
760.954285	190.400000
760.991394	185.600000
761.028564	194.300000
761.065674	192.600000
761.102783	187.600000
761.139954	192.600000
761.177124	193.800000
761.214172	193.800000
761.251343	189.400000
761.288452	190.300000
761.325562	192.600000
761.362732	185.900000
761.399841	188.600000
761.436951	190.000000
761.474121	185.200000
761.511169	189.300000
761.548340	192.700000
761.585449	191.600000
761.622559	191.700000
761.659668	189.600000
761.696838	193.600000
761.733887	189.500000
761.771057	186.400000
761.808167	189.100000
761.845276	191.600000
761.882385	197.600000
761.919434	188.500000
761.956604	203.000000
761.993713	186.300000
762.030762	194.900000
762.067871	188.300000
762.105042	189.400000
762.142090	194.400000
762.179199	189.800000
762.216309	192.400000
762.253418	202.300000
762.290527	196.500000
762.327637	196.900000
762.364685	186.400000
762.401794	194.600000
762.438904	191.800000
762.475952	190.100000
762.513062	187.300000
762.550110	188.300000
762.587219	198.900000
762.624329	196.400000
762.661377	192.600000
762.698486	191.100000
762.735596	191.200000
762.772644	188.400000
762.809753	185.200000
762.846863	190.100000
762.883911	194.200000
762.921021	191.600000
762.958069	191.500000
762.995117	195.400000
763.032227	195.700000
763.069336	187.100000
763.106323	186.400000
763.143433	186.200000
763.180481	192.500000
763.217590	193.000000
763.254639	191.200000
763.291687	190.300000
763.328735	196.300000
763.365845	189.000000
763.402893	189.300000
763.439941	189.600000
763.477051	194.200000
763.514038	191.800000
763.551147	190.300000
763.588196	191.100000
763.625244	191.400000
763.662292	195.600000
763.699402	198.700000
763.736389	193.700000
763.773499	199.200000
763.810486	190.600000
763.847534	190.900000
763.884644	190.900000
763.921631	189.400000
763.958679	196.500000
763.995728	190.900000
764.032776	196.500000
764.069824	188.500000
764.106873	193.600000
764.143860	197.200000
764.180969	187.500000
764.218018	193.500000
764.255005	187.000000
764.292053	188.500000
764.329102	193.700000
764.366089	193.400000
764.403137	192.900000
764.440125	186.500000
764.477173	188.600000
764.514221	192.700000
764.551208	190.000000
764.588257	186.300000
764.625305	191.200000
764.662292	193.600000
764.699341	196.000000
764.736389	188.800000
764.773376	199.200000
764.810425	189.500000
764.847473	194.500000
764.884399	191.500000
764.921448	199.900000
764.958435	196.400000
764.995483	192.000000
765.032532	201.300000
765.069458	191.300000
765.106506	190.600000
765.143555	189.300000
765.180481	191.200000
765.217529	197.700000
765.254578	184.800000
765.291504	193.300000
765.328552	188.300000
765.365540	189.300000
765.402527	200.600000
765.439575	190.700000
765.476501	186.300000
765.513550	188.500000
765.550537	191.800000
765.587463	197.300000
765.624512	188.300000
765.661499	182.600000
765.698486	194.000000
765.735474	188.200000
765.772461	190.300000
765.809448	195.700000
765.846436	191.900000
765.883423	195.900000
765.920410	191.700000
765.957397	187.800000
765.994385	193.100000
766.031311	199.100000
766.068359	194.000000
766.105286	192.200000
766.142273	198.400000
766.179260	192.200000
766.216187	188.900000
766.253174	184.700000
766.290161	192.100000
766.327148	193.300000
766.364136	192.000000
766.401123	202.100000
766.438049	187.100000
766.475037	195.300000
766.512024	193.400000
766.548950	204.100000
766.585937	200.000000
766.622864	193.200000
766.659790	195.000000
766.696777	184.400000
766.733704	196.300000
766.770691	187.000000
766.807678	198.600000
766.844604	192.100000
766.881531	192.400000
766.918518	194.800000
766.955444	196.900000
766.992432	189.800000
767.029358	194.500000
767.066284	194.500000
767.103271	192.700000
767.140198	223.500000
767.177124	203.600000
767.214050	194.900000
767.251038	195.300000
767.287964	190.500000
767.324890	188.700000
767.361816	190.000000
767.398743	195.100000
767.435730	188.700000
767.472595	192.800000
767.509583	195.900000
767.546509	186.800000
767.583374	191.800000
767.620361	186.000000
767.657288	190.200000
767.694214	188.900000
767.731140	190.200000
767.768066	190.000000
767.804993	193.800000
767.841919	185.300000
767.878845	191.800000
767.915710	195.100000
767.952698	190.000000
767.989563	192.700000
768.026489	195.000000
