Model Number: SPM-001-M   
Serial Number: 10090201
Firmware Version: 004.17.6
Exposure Time: 300000.000000us
Data Taken on: 21-01-2021 14:00:36.795
Wavelength	Amplitude
733.770752	0.000000
733.808716	0.000000
733.846619	0.000000
733.884583	0.000000
733.922546	0.000000
733.960449	0.000000
733.998413	0.000000
734.036377	0.000000
734.074219	0.000000
734.112183	0.000000
734.150085	0.000000
734.188049	0.000000
734.226013	0.000000
734.263916	0.000000
734.301819	0.000000
734.339783	0.000000
734.377686	0.000000
734.415588	0.000000
734.453552	0.000000
734.491455	0.000000
734.529419	0.000000
734.567322	0.000000
734.605225	0.000000
734.643127	0.000000
734.681091	0.000000
734.718994	0.000000
734.756897	0.000000
734.794800	0.000000
734.832703	0.000000
734.870667	0.000000
734.908508	0.000000
734.946472	0.000000
734.984375	0.000000
735.022278	0.000000
735.060181	0.000000
735.098083	0.000000
735.135986	0.000000
735.173889	0.000000
735.211792	0.000000
735.249695	0.000000
735.287598	0.000000
735.325439	0.000000
735.363403	0.000000
735.401306	0.000000
735.439148	0.000000
735.477051	0.000000
735.515015	0.000000
735.552856	0.000000
735.590759	0.000000
735.628662	0.000000
735.666504	0.000000
735.704407	0.000000
735.742310	0.000000
735.780212	0.000000
735.818115	0.000000
735.856018	0.000000
735.893860	0.000000
735.931763	0.000000
735.969604	0.000000
736.007507	0.000000
736.045410	0.000000
736.083252	0.000000
736.121094	0.000000
736.158997	0.000000
736.196838	0.000000
736.234741	0.000000
736.272644	0.000000
736.310486	0.000000
736.348389	0.000000
736.386230	0.000000
736.424072	0.000000
736.461975	0.000000
736.499878	0.000000
736.537720	0.000000
736.575562	0.000000
736.613403	0.000000
736.651306	0.000000
736.689148	0.000000
736.726990	0.000000
736.764893	0.000000
736.802734	0.000000
736.840576	0.000000
736.878418	0.000000
736.916321	0.000000
736.954102	0.000000
736.992004	0.000000
737.029846	0.000000
737.067688	0.000000
737.105530	0.000000
737.143372	0.000000
737.181213	0.000000
737.219116	0.000000
737.256897	0.000000
737.294739	0.000000
737.332642	0.000000
737.370422	0.000000
737.408325	0.000000
737.446167	0.000000
737.483948	0.000000
737.521790	0.000000
737.559692	0.000000
737.597473	0.000000
737.635315	0.000000
737.673157	0.000000
737.710999	0.000000
737.748840	0.000000
737.786621	0.000000
737.824463	0.000000
737.862305	0.000000
737.900085	0.000000
737.937927	0.000000
737.975769	0.000000
738.013550	0.000000
738.051392	0.000000
738.089233	0.000000
738.127014	0.000000
738.164856	0.000000
738.202698	0.000000
738.240479	0.000000
738.278320	0.000000
738.316162	0.000000
738.353943	0.000000
738.391785	0.000000
738.429565	0.000000
738.467407	0.000000
738.505188	0.000000
738.542969	0.000000
738.580811	0.000000
738.618652	0.000000
738.656372	0.000000
738.694214	0.000000
738.732056	0.000000
738.769836	0.000000
738.807617	0.000000
738.845459	0.000000
738.883240	0.000000
738.921021	0.000000
738.958862	0.000000
738.996582	0.000000
739.034424	0.000000
739.072205	0.000000
739.109985	0.000000
739.147827	0.000000
739.185547	0.000000
739.223389	0.000000
739.261169	0.000000
739.298889	0.000000
739.336731	0.000000
739.374512	0.000000
739.412292	0.000000
739.450073	0.000000
739.487854	0.000000
739.525635	0.000000
739.563416	0.000000
739.601135	0.000000
739.638977	0.000000
739.676758	0.000000
739.714478	0.000000
739.752258	0.000000
739.790100	0.000000
739.827820	0.000000
739.865601	0.000000
739.903381	0.000000
739.941101	0.000000
739.978882	193.600000
740.016724	190.400000
740.054443	194.600000
740.092224	189.200000
740.130005	189.300000
740.167725	187.400000
740.205505	188.700000
740.243225	195.700000
740.281006	190.500000
740.318787	187.300000
740.356506	195.000000
740.394287	195.000000
740.432068	187.200000
740.469727	185.300000
740.507507	192.900000
740.545288	191.200000
740.583008	192.400000
740.620789	190.500000
740.658569	185.000000
740.696228	190.800000
740.734009	193.900000
740.771790	181.800000
740.809509	193.200000
740.847229	187.700000
740.884949	187.200000
740.922729	185.900000
740.960449	187.600000
740.998169	188.300000
741.035950	188.000000
741.073669	191.900000
741.111389	191.000000
741.149170	198.600000
741.186890	197.400000
741.224609	194.600000
741.262329	192.200000
741.300110	198.300000
741.337769	188.200000
741.375549	186.100000
741.413208	192.000000
741.450989	188.900000
741.488708	189.800000
741.526367	189.100000
741.564148	193.700000
741.601868	193.400000
741.639526	191.200000
741.677307	192.900000
741.715027	192.400000
741.752686	187.900000
741.790466	195.200000
741.828186	193.300000
741.865845	187.400000
741.903564	184.800000
741.941345	190.200000
741.979004	187.900000
742.016724	194.700000
742.054382	189.900000
742.092102	193.400000
742.129822	185.000000
742.167480	187.700000
742.205200	188.200000
742.242920	192.400000
742.280640	192.400000
742.318359	186.700000
742.356079	188.900000
742.393738	193.800000
742.431396	188.900000
742.469116	194.100000
742.506775	182.600000
742.544495	191.900000
742.582214	193.800000
742.619873	189.400000
742.657593	195.600000
742.695251	195.800000
742.732971	189.600000
742.770630	191.300000
742.808289	190.400000
742.846008	190.200000
742.883728	192.900000
742.921326	192.800000
742.959045	189.200000
742.996765	189.700000
743.034424	190.900000
743.072083	188.600000
743.109802	191.800000
743.147400	187.300000
743.185120	191.900000
743.222839	191.400000
743.260437	196.200000
743.298157	192.000000
743.335754	185.600000
743.373474	190.500000
743.411133	186.100000
743.448792	191.500000
743.486450	191.800000
743.524170	185.300000
743.561768	191.800000
743.599487	194.900000
743.637146	198.900000
743.674744	190.000000
743.712463	188.500000
743.750122	190.400000
743.787720	190.100000
743.825439	187.800000
743.863037	189.900000
743.900696	189.100000
743.938416	216.400000
743.976013	190.900000
744.013672	197.500000
744.051331	194.700000
744.088928	196.800000
744.126587	194.500000
744.164307	193.200000
744.201904	187.100000
744.239563	192.000000
744.277222	193.300000
744.314819	189.800000
744.352478	195.200000
744.390137	193.900000
744.427734	192.800000
744.465393	189.500000
744.502991	187.900000
744.540649	193.200000
744.578308	191.400000
744.615906	187.300000
744.653564	184.600000
744.691223	193.200000
744.728821	185.400000
744.766418	191.400000
744.804077	192.300000
744.841675	189.900000
744.879333	186.500000
744.916992	190.600000
744.954529	189.800000
744.992187	194.300000
745.029785	190.500000
745.067444	187.900000
745.105042	191.800000
745.142639	191.300000
745.180298	200.200000
745.217896	190.000000
745.255493	190.300000
745.293152	192.900000
745.330750	195.200000
745.368347	194.900000
745.405945	194.200000
745.443604	191.800000
745.481140	193.600000
745.518799	189.700000
745.556396	193.800000
745.593994	192.600000
745.631592	191.100000
745.669189	185.900000
745.706787	190.900000
745.744385	187.800000
745.781982	193.700000
745.819580	188.600000
745.857178	190.200000
745.894775	190.500000
745.932373	191.900000
745.969971	192.400000
746.007568	185.500000
746.045166	196.900000
746.082764	197.300000
746.120300	192.200000
746.157898	193.100000
746.195557	191.900000
746.233093	188.000000
746.270691	193.700000
746.308228	193.700000
746.345825	195.800000
746.383423	193.900000
746.420959	188.600000
746.458557	189.300000
746.496155	189.600000
746.533691	192.300000
746.571289	186.700000
746.608887	191.500000
746.646423	192.500000
746.684021	192.200000
746.721619	188.800000
746.759155	193.400000
746.796753	184.500000
746.834351	185.800000
746.871826	189.400000
746.909424	194.700000
746.946960	190.400000
746.984558	189.100000
747.022156	187.400000
747.059631	196.200000
747.097229	193.900000
747.134827	188.300000
747.172363	195.100000
747.209900	192.300000
747.247498	186.000000
747.285034	195.300000
747.322571	197.800000
747.360168	188.500000
747.397644	185.200000
747.435242	193.000000
747.472778	195.200000
747.510315	188.400000
747.547913	189.800000
747.585388	193.800000
747.622925	190.100000
747.660522	185.100000
747.697998	189.100000
747.735596	191.100000
747.773132	190.100000
747.810669	191.800000
747.848206	194.100000
747.885742	188.000000
747.923279	187.700000
747.960815	192.200000
747.998352	192.300000
748.035889	196.200000
748.073425	193.200000
748.110901	189.900000
748.148437	187.600000
748.185974	192.400000
748.223511	197.700000
748.261047	193.600000
748.298584	192.200000
748.336060	191.600000
748.373596	192.000000
748.411133	216.500000
748.448608	188.500000
748.486145	192.600000
748.523682	194.200000
748.561218	197.100000
748.598755	190.400000
748.636292	193.100000
748.673706	188.600000
748.711243	196.100000
748.748718	191.800000
748.786255	191.000000
748.823792	190.300000
748.861267	188.000000
748.898804	192.700000
748.936340	192.700000
748.973816	187.400000
749.011292	196.600000
749.048828	191.300000
749.086304	191.700000
749.123840	198.500000
749.161316	189.000000
749.198792	197.800000
749.236328	194.300000
749.273743	190.000000
749.311279	190.800000
749.348816	193.100000
749.386230	190.300000
749.423767	183.100000
749.461304	195.000000
749.498718	192.000000
749.536255	196.300000
749.573730	200.300000
749.611206	197.400000
749.648682	190.300000
749.686218	190.200000
749.723633	193.500000
749.761169	189.700000
749.798645	189.200000
749.836060	188.700000
749.873596	188.100000
749.911011	191.800000
749.948547	195.000000
749.986023	191.000000
750.023437	190.300000
750.060913	186.800000
750.098450	186.100000
750.135864	189.700000
750.173340	190.800000
750.210815	195.400000
750.248291	187.400000
750.285767	190.300000
750.323242	195.000000
750.360657	192.300000
750.398132	187.300000
750.435608	192.800000
750.473022	188.100000
750.510498	187.300000
750.547974	186.700000
750.585449	188.900000
750.622925	183.400000
750.660339	200.200000
750.697815	191.800000
750.735291	190.500000
750.772644	190.200000
750.810120	192.200000
750.847595	194.100000
750.885010	187.200000
750.922485	197.300000
750.959961	190.600000
750.997375	196.600000
751.034851	195.100000
751.072266	195.300000
751.109680	186.600000
751.147156	197.400000
751.184570	193.000000
751.221985	190.700000
751.259460	186.600000
751.296875	192.300000
751.334290	189.900000
751.371765	193.400000
751.409180	193.100000
751.446594	194.500000
751.484070	192.600000
751.521423	190.700000
751.558899	191.000000
751.596375	198.400000
751.633728	195.700000
751.671204	198.100000
751.708618	188.600000
751.746033	191.600000
751.783447	186.300000
751.820801	189.100000
751.858276	192.800000
751.895691	188.500000
751.933105	190.500000
751.970520	186.000000
752.007935	189.800000
752.045349	194.000000
752.082764	190.900000
752.120178	189.100000
752.157532	188.500000
752.195007	189.800000
752.232422	192.200000
752.269775	194.200000
752.307190	194.500000
752.344543	187.400000
752.382019	191.200000
752.419434	189.500000
752.456787	192.700000
752.494202	194.900000
752.531616	192.800000
752.568970	193.700000
752.606384	193.400000
752.643799	192.800000
752.681152	197.100000
752.718567	193.800000
752.755981	185.700000
752.793335	193.300000
752.830750	185.200000
752.868164	194.500000
752.905518	187.000000
752.942932	195.000000
752.980225	186.700000
753.017639	193.700000
753.055054	194.600000
753.092407	192.700000
753.129822	194.900000
753.167175	198.300000
753.204529	190.300000
753.241943	189.400000
753.279358	186.600000
753.316650	191.800000
753.354065	193.100000
753.391479	195.700000
753.428772	196.500000
753.466187	192.000000
753.503479	187.200000
753.540894	190.500000
753.578308	185.600000
753.615601	186.700000
753.653015	190.700000
753.690369	190.000000
753.727722	187.400000
753.765076	185.700000
753.802490	187.600000
753.839783	186.300000
753.877136	188.900000
753.914551	200.500000
753.951843	189.100000
753.989258	194.300000
754.026611	191.100000
754.063904	193.400000
754.101257	189.200000
754.138611	186.500000
754.175964	192.500000
754.213318	199.900000
754.250610	185.900000
754.288025	189.900000
754.325378	186.600000
754.362671	193.700000
754.400024	192.000000
754.437378	198.700000
754.474670	197.600000
754.512085	188.600000
754.549438	191.400000
754.586731	187.600000
754.624084	190.600000
754.661438	186.000000
754.698730	196.200000
754.736084	189.400000
754.773376	189.500000
754.810730	191.400000
754.848083	190.400000
754.885315	194.300000
754.922668	186.000000
754.960022	188.200000
754.997314	194.400000
755.034668	191.100000
755.072021	192.300000
755.109253	188.900000
755.146606	194.900000
755.183960	189.600000
755.221252	197.500000
755.258545	193.900000
755.295898	196.100000
755.333191	194.900000
755.370544	193.500000
755.407776	191.900000
755.445129	193.400000
755.482422	194.700000
755.519714	190.300000
755.557068	186.600000
755.594360	185.200000
755.631653	194.800000
755.668945	196.900000
755.706299	193.700000
755.743530	201.300000
755.780884	199.100000
755.818176	195.500000
755.855408	195.600000
755.892761	194.700000
755.930054	192.700000
755.967346	193.800000
756.004639	193.500000
756.041870	191.700000
756.079224	195.600000
756.116516	189.600000
756.153748	195.300000
756.191040	199.700000
756.228394	193.900000
756.265625	188.800000
756.302917	194.000000
756.340210	188.400000
756.377441	196.800000
756.414795	196.000000
756.452087	192.500000
756.489319	187.500000
756.526611	195.900000
756.563843	192.500000
756.601135	199.800000
756.638428	200.500000
756.675659	191.700000
756.712952	195.500000
756.750244	196.600000
756.787476	194.800000
756.824768	198.500000
756.862061	192.900000
756.899292	240.100000
756.936584	196.000000
756.973816	203.300000
757.011047	204.000000
757.048340	194.600000
757.085632	194.800000
757.122864	208.300000
757.160156	193.000000
757.197327	196.800000
757.234619	199.300000
757.271912	194.500000
757.309082	198.200000
757.346375	192.100000
757.383667	198.900000
757.420837	195.900000
757.458130	195.800000
757.495422	193.700000
757.532593	197.100000
757.569885	190.800000
757.607117	191.900000
757.644348	196.400000
757.681580	206.600000
757.718811	187.200000
757.756042	196.100000
757.793335	192.700000
757.830505	200.300000
757.867798	193.500000
757.905029	193.000000
757.942200	195.400000
757.979492	193.900000
758.016724	194.600000
758.053894	195.100000
758.091187	209.500000
758.128418	195.900000
758.165588	193.900000
758.202820	205.700000
758.240112	196.900000
758.277283	204.100000
758.314514	197.500000
758.351685	194.900000
758.388916	202.600000
758.426147	202.600000
758.463379	204.300000
758.500610	200.400000
758.537842	197.500000
758.575012	202.900000
758.612244	194.800000
758.649475	209.600000
758.686646	193.400000
758.723877	203.600000
758.761108	205.000000
758.798279	197.400000
758.835510	199.800000
758.872742	203.800000
758.909851	199.900000
758.947083	201.900000
758.984253	200.900000
759.021484	202.300000
759.058716	201.200000
759.095886	202.400000
759.133057	198.300000
759.170288	202.000000
759.207458	198.500000
759.244690	208.600000
759.281860	205.100000
759.319031	200.500000
759.356262	198.000000
759.393433	197.600000
759.430603	200.500000
759.467773	198.600000
759.505005	204.600000
759.542175	205.700000
759.579346	200.500000
759.616516	200.200000
759.653687	204.300000
759.690918	200.000000
759.728027	200.900000
759.765259	202.600000
759.802429	204.600000
759.839539	203.300000
759.876770	207.200000
759.913940	210.500000
759.951111	202.500000
759.988281	203.800000
760.025452	201.300000
760.062561	200.200000
760.099792	212.000000
760.136963	205.000000
760.174072	202.800000
760.211243	199.700000
760.248413	201.000000
760.285583	200.500000
760.322754	213.400000
760.359863	208.400000
760.397034	211.000000
760.434204	205.600000
760.471375	205.300000
760.508545	202.800000
760.545715	204.400000
760.582825	200.900000
760.619995	207.700000
760.657166	201.000000
760.694275	210.000000
760.731445	205.800000
760.768555	206.800000
760.805664	208.600000
760.842834	207.100000
760.879944	208.300000
760.917114	207.100000
760.954285	204.900000
760.991394	201.500000
761.028564	210.100000
761.065674	206.600000
761.102783	203.800000
761.139954	211.000000
761.177124	209.800000
761.214172	210.600000
761.251343	205.100000
761.288452	206.400000
761.325562	211.500000
761.362732	203.800000
761.399841	207.500000
761.436951	207.900000
761.474121	203.900000
761.511169	206.900000
761.548340	212.300000
761.585449	210.900000
761.622559	212.600000
761.659668	210.600000
761.696838	214.300000
761.733887	211.800000
761.771057	209.400000
761.808167	209.200000
761.845276	214.500000
761.882385	219.600000
761.919434	211.500000
761.956604	225.300000
761.993713	208.500000
762.030762	216.500000
762.067871	209.600000
762.105042	211.100000
762.142090	217.400000
762.179199	212.100000
762.216309	214.900000
762.253418	222.000000
762.290527	219.000000
762.327637	217.500000
762.364685	209.000000
762.401794	216.400000
762.438904	214.700000
762.475952	209.500000
762.513062	210.600000
762.550110	210.100000
762.587219	220.700000
762.624329	219.500000
762.661377	216.400000
762.698486	214.900000
762.735596	213.900000
762.772644	211.200000
762.809753	209.200000
762.846863	213.700000
762.883911	217.600000
762.921021	217.300000
762.958069	214.400000
762.995117	221.100000
763.032227	218.600000
763.069336	215.400000
763.106323	213.200000
763.143433	214.000000
763.180481	218.300000
763.217590	218.600000
763.254639	215.000000
763.291687	215.800000
763.328735	225.000000
763.365845	218.800000
763.402893	216.800000
763.439941	218.700000
763.477051	222.000000
763.514038	222.900000
763.551147	218.600000
763.588196	219.800000
763.625244	219.400000
763.662292	226.500000
763.699402	227.700000
763.736389	222.100000
763.773499	229.500000
763.810486	224.600000
763.847534	221.700000
763.884644	223.100000
763.921631	222.100000
763.958679	229.500000
763.995728	223.800000
764.032776	228.300000
764.069824	219.700000
764.106873	227.500000
764.143860	232.400000
764.180969	222.800000
764.218018	231.600000
764.255005	223.400000
764.292053	226.400000
764.329102	233.400000
764.366089	233.200000
764.403137	230.400000
764.440125	227.000000
764.477173	228.400000
764.514221	230.700000
764.551208	229.800000
764.588257	225.200000
764.625305	232.500000
764.662292	237.400000
764.699341	238.100000
764.736389	232.500000
764.773376	243.100000
764.810425	235.600000
764.847473	239.700000
764.884399	237.500000
764.921448	243.900000
764.958435	242.900000
764.995483	234.100000
765.032532	245.800000
765.069458	234.800000
765.106506	238.000000
765.143555	235.800000
765.180481	238.100000
765.217529	246.500000
765.254578	235.400000
765.291504	242.200000
765.328552	240.100000
765.365540	237.200000
765.402527	247.400000
765.439575	238.500000
765.476501	235.800000
765.513550	237.100000
765.550537	240.400000
765.587463	246.600000
765.624512	238.000000
765.661499	234.300000
765.698486	245.900000
765.735474	239.100000
765.772461	242.200000
765.809448	247.600000
765.846436	245.700000
765.883423	250.100000
765.920410	244.700000
765.957397	240.600000
765.994385	245.700000
766.031311	252.800000
766.068359	247.100000
766.105286	247.700000
766.142273	253.400000
766.179260	249.900000
766.216187	246.300000
766.253174	242.600000
766.290161	247.000000
766.327148	253.100000
766.364136	251.800000
766.401123	263.500000
766.438049	247.500000
766.475037	257.600000
766.512024	255.600000
766.548950	266.500000
766.585937	260.700000
766.622864	256.400000
766.659790	256.200000
766.696777	248.200000
766.733704	260.300000
766.770691	253.500000
766.807678	263.300000
766.844604	258.800000
766.881531	259.000000
766.918518	261.700000
766.955444	262.900000
766.992432	258.900000
767.029358	262.600000
767.066284	263.800000
767.103271	262.400000
767.140198	293.500000
767.177124	272.400000
767.214050	264.800000
767.251038	265.600000
767.287964	261.300000
767.324890	260.800000
767.361816	265.600000
767.398743	268.200000
767.435730	263.600000
767.472595	266.600000
767.509583	269.500000
767.546509	263.900000
767.583374	265.500000
767.620361	261.600000
767.657288	266.400000
767.694214	266.800000
767.731140	265.200000
767.768066	268.300000
767.804993	270.300000
767.841919	262.400000
767.878845	268.100000
767.915710	273.800000
767.952698	268.600000
767.989563	270.800000
768.026489	273.000000
