Model Number: SPM-002-B   
Serial Number: 70087108
Firmware Version: 004.15.4
Exposure Time: 100000.000000us
Data Taken on: 15-01-2021 16:18:10.778
Wavelength	Amplitude
221.570786	0.000000
221.663406	0.000000
221.756027	0.000000
221.848648	0.000000
221.941269	0.000000
222.033905	0.000000
222.126526	0.000000
222.219162	0.000000
222.311798	0.000000
222.404419	0.000000
222.497055	0.000000
222.589676	0.000000
222.682312	0.000000
222.774933	0.000000
222.867569	0.000000
222.960205	0.000000
223.052841	0.000000
223.145462	0.000000
223.238098	0.000000
223.330734	0.000000
223.423386	0.000000
223.516022	0.000000
223.608658	0.000000
223.701309	0.000000
223.793945	0.000000
223.886581	0.000000
223.979218	0.000000
224.071869	0.000000
224.164505	0.000000
224.257156	0.000000
224.349792	0.000000
224.442444	0.000000
224.535095	0.000000
224.627747	0.000000
224.720398	0.000000
224.813034	0.000000
224.905685	0.000000
224.998337	152.380000
225.090988	152.120000
225.183640	152.100000
225.276291	151.920000
225.368942	151.920000
225.461594	152.220000
225.554245	152.680000
225.646912	152.560000
225.739578	152.940000
225.832230	153.380000
225.924896	152.420000
226.017548	152.460000
226.110199	153.260000
226.202866	152.860000
226.295532	152.660000
226.388184	152.620000
226.480850	152.000000
226.573517	151.140000
226.666168	151.440000
226.758835	151.700000
226.851501	152.260000
226.944183	152.620000
227.036850	152.580000
227.129517	152.320000
227.222183	152.420000
227.314850	152.380000
227.407516	152.840000
227.500198	153.820000
227.592865	153.580000
227.685532	153.300000
227.778214	153.160000
227.870880	153.260000
227.963562	153.020000
228.056229	153.560000
228.148926	153.400000
228.241592	154.080000
228.334274	153.600000
228.426956	153.520000
228.519638	153.500000
228.612305	152.940000
228.704987	152.580000
228.797668	152.500000
228.890350	152.120000
228.983032	151.400000
229.075714	152.340000
229.168396	152.280000
229.261108	152.020000
229.353790	151.960000
229.446472	152.440000
229.539169	152.060000
229.631851	151.820000
229.724533	152.340000
229.817230	152.720000
229.909912	153.940000
230.002609	153.960000
230.095306	153.900000
230.187988	153.860000
230.280685	153.680000
230.373383	151.700000
230.466095	151.760000
230.558792	152.120000
230.651474	151.720000
230.744171	151.400000
230.836868	151.980000
230.929581	152.040000
231.022278	152.140000
231.114975	152.540000
231.207672	152.560000
231.300369	153.000000
231.393082	153.300000
231.485779	152.980000
231.578506	153.000000
231.671204	153.120000
231.763916	152.880000
231.856613	152.680000
231.949326	153.080000
232.042023	152.780000
232.134735	152.780000
232.227448	152.560000
232.320160	152.620000
232.412872	152.360000
232.505585	153.260000
232.598297	153.640000
232.691010	153.860000
232.783722	153.560000
232.876450	154.220000
232.969162	153.560000
233.061874	152.980000
233.154587	152.520000
233.247314	152.740000
233.340027	151.940000
233.432739	152.160000
233.525467	152.240000
233.618179	152.800000
233.710907	152.560000
233.803635	153.000000
233.896347	152.680000
233.989090	153.300000
234.081818	152.880000
234.174545	153.220000
234.267258	152.600000
234.359985	152.740000
234.452713	152.320000
234.545441	152.360000
234.638168	151.820000
234.730896	152.500000
234.823639	152.280000
234.916367	152.800000
235.009094	152.920000
235.101822	153.180000
235.194580	152.880000
235.287308	152.980000
235.380051	152.400000
235.472778	152.900000
235.565521	152.920000
235.658249	152.620000
235.750992	152.880000
235.843719	152.940000
235.936462	152.700000
236.029205	152.560000
236.121948	152.320000
236.214691	152.620000
236.307449	153.200000
236.400192	152.600000
236.492935	152.240000
236.585678	152.800000
236.678421	152.620000
236.771164	152.160000
236.863907	153.040000
236.956665	153.540000
237.049408	155.120000
237.142151	154.560000
237.234909	155.500000
237.327652	155.280000
237.420410	155.120000
237.513153	153.940000
237.605927	154.020000
237.698669	153.220000
237.791428	152.440000
237.884186	152.900000
237.976944	152.160000
238.069702	152.480000
238.162445	152.020000
238.255203	152.340000
238.347961	152.640000
238.440720	152.800000
238.533478	152.400000
238.626266	152.200000
238.719025	152.640000
238.811783	151.800000
238.904541	152.180000
238.997314	152.200000
239.090073	152.060000
239.182831	152.040000
239.275604	153.120000
239.368362	152.500000
239.461136	152.880000
239.553909	153.140000
239.646667	152.720000
239.739441	152.200000
239.832214	152.500000
239.925003	152.160000
240.017761	152.840000
240.110535	153.520000
240.203308	152.980000
240.296082	153.160000
240.388855	153.380000
240.481628	153.400000
240.574417	153.360000
240.667191	153.520000
240.759964	152.900000
240.852737	152.960000
240.945526	152.340000
241.038315	152.020000
241.131088	152.260000
241.223877	152.860000
241.316650	152.380000
241.409439	152.760000
241.502228	152.280000
241.595001	152.800000
241.687790	152.380000
241.780579	152.400000
241.873367	152.520000
241.966141	153.060000
242.058929	152.120000
242.151718	152.400000
242.244507	153.000000
242.337311	152.140000
242.430099	152.480000
242.522903	152.980000
242.615692	152.480000
242.708481	152.300000
242.801270	153.380000
242.894073	153.060000
242.986862	152.880000
243.079651	153.660000
243.172455	153.300000
243.265244	153.100000
243.358063	152.620000
243.450867	152.580000
243.543655	152.680000
243.636459	152.920000
243.729263	152.900000
243.822067	153.240000
243.914856	153.600000
244.007660	153.280000
244.100464	153.080000
244.193268	152.540000
244.286072	152.580000
244.378876	152.160000
244.471680	151.920000
244.564499	152.080000
244.657318	152.780000
244.750122	153.020000
244.842926	152.540000
244.935745	152.940000
245.028549	152.420000
245.121368	151.860000
245.214172	151.500000
245.306992	152.120000
245.399796	151.960000
245.492615	152.600000
245.585434	152.760000
245.678253	152.960000
245.771072	152.980000
245.863892	153.080000
245.956711	153.160000
246.049530	153.100000
246.142349	152.740000
246.235168	152.400000
246.327988	152.900000
246.420807	152.640000
246.513626	152.600000
246.606445	152.540000
246.699280	152.820000
246.792099	152.020000
246.884918	151.520000
246.977753	151.120000
247.070587	151.200000
247.163422	151.040000
247.256241	151.380000
247.349075	151.940000
247.441895	152.300000
247.534729	152.440000
247.627563	152.560000
247.720383	152.900000
247.813217	152.700000
247.906052	152.640000
247.998886	152.700000
248.091736	152.500000
248.184570	152.080000
248.277405	152.240000
248.370239	153.200000
248.463074	154.220000
248.555908	154.600000
248.648743	154.580000
248.741592	154.860000
248.834427	153.840000
248.927261	152.480000
249.020111	152.440000
249.112946	153.020000
249.205795	152.420000
249.298630	152.960000
249.391495	153.180000
249.484344	152.900000
249.577179	152.380000
249.670029	152.940000
249.762878	153.140000
249.855728	153.480000
249.948563	153.540000
250.041412	153.240000
250.134262	153.140000
250.227112	153.040000
250.319962	152.720000
250.412827	152.840000
250.505692	152.400000
250.598541	152.660000
250.691391	152.080000
250.784241	152.340000
250.877106	152.440000
250.969955	152.440000
251.062805	152.460000
251.155670	153.380000
251.248520	153.020000
251.341385	153.140000
251.434235	153.020000
251.527100	152.460000
251.619965	151.420000
251.712814	152.160000
251.805695	151.940000
251.898560	152.740000
251.991425	153.180000
252.084290	153.540000
252.177155	152.620000
252.270020	152.560000
252.362885	152.440000
252.455750	152.460000
252.548615	152.600000
252.641479	152.920000
252.734360	152.700000
252.827240	152.200000
252.920105	152.100000
253.012970	151.500000
253.105850	151.360000
253.198715	151.200000
253.291595	151.780000
253.384460	151.280000
253.477341	151.320000
253.570221	151.540000
253.663086	151.520000
253.755966	151.780000
253.848846	152.160000
253.941727	152.940000
254.034592	152.800000
254.127472	152.900000
254.220367	152.800000
254.313248	152.880000
254.406128	152.160000
254.499008	152.400000
254.591904	152.840000
254.684784	153.460000
254.777664	153.180000
254.870544	153.000000
254.963440	152.880000
255.056335	152.800000
255.149216	152.000000
255.242111	152.440000
255.334991	152.840000
255.427887	152.900000
255.520767	153.160000
255.613663	153.540000
255.706558	152.940000
255.799438	152.680000
255.892334	152.500000
255.985229	152.080000
256.078125	151.600000
256.171021	151.860000
256.263916	152.660000
256.356812	152.880000
256.449707	153.100000
256.542603	152.960000
256.635498	153.320000
256.728394	153.120000
256.821289	152.820000
256.914215	153.080000
257.007080	153.280000
257.100006	153.200000
257.192932	153.420000
257.285828	153.540000
257.378723	153.080000
257.471619	152.920000
257.564545	152.660000
257.657440	152.540000
257.750336	153.180000
257.843262	153.060000
257.936157	154.240000
258.029053	154.480000
258.121979	154.420000
258.214874	153.500000
258.307800	153.440000
258.400696	152.380000
258.493622	152.260000
258.586517	151.340000
258.679443	152.080000
258.772339	151.920000
258.865265	151.920000
258.958160	151.600000
259.051086	152.820000
259.144012	152.380000
259.236938	153.260000
259.329834	153.380000
259.422791	153.500000
259.515717	152.800000
259.608612	152.760000
259.701538	152.700000
259.794464	152.560000
259.887390	152.560000
259.980316	152.580000
260.073212	152.440000
260.166138	151.460000
260.259064	151.920000
260.351990	152.340000
260.444916	152.140000
260.537842	152.520000
260.630768	153.160000
260.723694	152.880000
260.816620	152.760000
260.909546	152.900000
261.002472	152.480000
261.095398	152.180000
261.188354	152.040000
261.281281	151.660000
261.374207	151.900000
261.467133	152.700000
261.560089	152.700000
261.653015	152.520000
261.745972	153.200000
261.838867	153.580000
261.931824	153.620000
262.024780	153.480000
262.117706	153.840000
262.210663	153.960000
262.303589	153.540000
262.396515	152.980000
262.489471	153.840000
262.582397	153.660000
262.675354	152.800000
262.768280	152.840000
262.861237	153.060000
262.954163	152.840000
263.047119	153.180000
263.140045	153.300000
263.233002	153.280000
263.325958	153.380000
263.418884	152.880000
263.511841	152.380000
263.604797	152.560000
263.697723	152.660000
263.790680	152.640000
263.883636	153.140000
263.976593	153.180000
264.069550	153.020000
264.162476	152.700000
264.255463	152.580000
264.348419	152.200000
264.441376	152.760000
264.534332	152.420000
264.627289	152.640000
264.720245	153.120000
264.813202	152.840000
264.906158	152.440000
264.999115	153.180000
265.092072	152.960000
265.185028	152.920000
265.277985	153.460000
265.370941	153.360000
265.463898	152.860000
265.556854	152.620000
265.649811	151.740000
265.742798	151.800000
265.835754	152.100000
265.928711	152.540000
266.021667	152.680000
266.114655	153.100000
266.207611	152.900000
266.300568	152.180000
266.393585	151.760000
266.486511	152.200000
266.579498	151.480000
266.672485	151.240000
266.765442	151.620000
266.858429	151.940000
266.951385	151.460000
267.044342	151.960000
267.137329	152.000000
267.230316	152.120000
267.323273	151.740000
267.416260	152.480000
267.509216	152.280000
267.602203	152.500000
267.695160	153.060000
267.788147	153.380000
267.881134	152.880000
267.974091	153.160000
268.067078	152.800000
268.160065	152.260000
268.253052	151.940000
268.346008	152.200000
268.438995	151.980000
268.531982	152.460000
268.624969	152.380000
268.717987	153.040000
268.810944	152.700000
268.903961	152.900000
268.996948	152.640000
269.089905	152.960000
269.182892	152.560000
269.275879	152.760000
269.368866	152.320000
269.461853	152.400000
269.554871	152.400000
269.647858	152.540000
269.740845	152.800000
269.833832	153.420000
269.926819	153.160000
270.019806	152.940000
270.112793	152.360000
270.205811	152.440000
270.298798	152.340000
270.391785	152.920000
270.484772	152.600000
270.577789	153.020000
270.670776	152.460000
270.763763	152.060000
270.856750	151.600000
270.949768	151.720000
271.042786	151.680000
271.135773	151.940000
271.228790	152.500000
271.321808	152.180000
271.414795	152.000000
271.507782	151.760000
271.600800	151.140000
271.693817	151.160000
271.786804	151.700000
271.879822	151.960000
271.972809	151.820000
272.065826	152.360000
272.158844	151.880000
272.251831	152.620000
272.344849	152.500000
272.437866	152.660000
272.530853	152.500000
272.623871	152.860000
272.716888	151.380000
272.809906	151.760000
272.902893	151.680000
272.995911	151.420000
273.088928	151.180000
273.181946	151.680000
273.274963	151.080000
273.367981	151.340000
273.460999	151.740000
273.554047	152.380000
273.647003	153.320000
273.740051	153.640000
273.833069	153.780000
273.926086	153.580000
274.019135	152.640000
274.112152	151.980000
274.205170	152.220000
274.298187	152.280000
274.391205	151.860000
274.484222	152.140000
274.577240	152.200000
274.670258	151.900000
274.763306	151.740000
274.856323	152.480000
274.949341	152.660000
275.042358	152.940000
275.135406	152.820000
275.228424	152.580000
275.321442	152.580000
275.414490	152.520000
275.507507	152.420000
275.600525	152.920000
275.693573	152.720000
275.786591	152.200000
275.879669	152.300000
275.972656	151.700000
276.065735	151.300000
276.158752	152.200000
276.251801	153.200000
276.344818	153.220000
276.437866	153.680000
276.530884	153.420000
276.623932	152.460000
276.716980	152.320000
276.809998	152.300000
276.903046	152.360000
276.996094	153.260000
277.089111	154.280000
277.182159	154.560000
277.275208	154.200000
277.368256	153.960000
277.461304	153.740000
277.554321	152.900000
277.647369	152.580000
277.740417	152.900000
277.833466	152.900000
277.926514	152.580000
278.019562	153.180000
278.112610	152.640000
278.205688	152.700000
278.298706	152.820000
278.391785	152.580000
278.484833	152.000000
278.577881	151.640000
278.670929	151.680000
278.763977	151.780000
278.857025	152.180000
278.950073	152.380000
279.043121	152.600000
279.136169	152.300000
279.229248	151.940000
279.322296	152.260000
279.415344	151.980000
279.508392	151.880000
279.601440	151.960000
279.694519	151.760000
279.787567	151.160000
279.880615	151.160000
279.973694	151.320000
280.066742	151.340000
280.159790	151.400000
280.252869	151.420000
280.345917	151.660000
280.438995	151.320000
280.532074	151.200000
280.625122	152.000000
280.718201	153.000000
280.811279	152.960000
280.904327	153.380000
280.997406	153.320000
281.090454	152.760000
281.183533	151.860000
281.276581	151.920000
281.369659	151.700000
281.462738	151.940000
281.555786	152.120000
281.648865	152.440000
281.741943	152.400000
281.835022	152.800000
281.928070	153.000000
282.021149	152.860000
282.114227	152.580000
282.207306	152.440000
282.300385	152.700000
282.393433	152.760000
282.486511	152.800000
282.579590	153.260000
282.672668	153.780000
282.765747	153.020000
282.858856	152.680000
282.951904	152.940000
283.045013	153.040000
283.138062	153.000000
283.231171	153.560000
283.324249	153.820000
283.417328	153.780000
283.510406	153.320000
283.603485	153.080000
283.696564	152.720000
283.789642	152.760000
283.882751	152.180000
283.975830	152.540000
284.068909	152.160000
284.161987	153.040000
284.255066	152.160000
284.348175	152.740000
284.441254	152.260000
284.534332	152.960000
284.627441	152.460000
284.720520	152.620000
284.813599	152.580000
284.906708	152.940000
284.999786	151.960000
285.092896	151.360000
285.185974	152.580000
285.279053	152.100000
285.372192	152.180000
285.465240	153.260000
285.558380	153.420000
285.651459	152.920000
285.744568	154.020000
285.837677	153.600000
285.930756	153.380000
286.023865	153.620000
286.116943	152.940000
286.210052	152.680000
286.303162	152.640000
286.396240	152.600000
286.489349	152.200000
286.582458	152.940000
286.675568	152.560000
286.768646	152.720000
286.861755	152.880000
286.954865	153.760000
287.047974	153.240000
287.141083	152.840000
287.234161	152.540000
287.327271	152.200000
287.420380	152.400000
287.513519	152.240000
287.606598	152.560000
287.699738	152.760000
287.792816	152.800000
287.885956	152.360000
287.979034	152.440000
288.072174	152.400000
288.165283	152.300000
288.258392	152.740000
288.351501	152.300000
288.444611	152.840000
288.537720	153.100000
288.630859	152.820000
288.723969	152.740000
288.817078	153.220000
288.910187	153.040000
289.003296	152.680000
289.096436	152.780000
289.189545	152.440000
289.282654	151.820000
289.375763	151.880000
289.468903	152.060000
289.562012	152.440000
289.655121	152.320000
289.748260	152.860000
289.841400	153.160000
289.934509	153.360000
290.027649	153.540000
290.120728	153.660000
290.213898	153.520000
290.306976	152.800000
290.400146	152.660000
290.493256	151.960000
290.586395	152.060000
290.679535	152.180000
290.772644	152.300000
290.865784	151.420000
290.958893	151.840000
291.052032	151.580000
291.145172	151.600000
291.238281	151.220000
291.331421	151.820000
291.424561	152.360000
291.517670	152.220000
291.610809	152.320000
291.703949	152.660000
291.797089	152.680000
291.890228	152.000000
291.983337	151.860000
292.076477	151.640000
292.169617	152.060000
292.262756	151.960000
292.355927	151.800000
292.449036	152.100000
292.542206	151.980000
292.635315	152.040000
292.728485	152.620000
292.821625	152.320000
292.914764	153.500000
293.007904	153.900000
293.101044	153.780000
293.194183	153.580000
293.287323	153.860000
293.380463	152.780000
293.473602	152.360000
293.566742	152.240000
293.659882	152.380000
293.753021	152.860000
293.846191	152.980000
293.939331	152.760000
294.032471	152.600000
294.125610	152.440000
294.218781	152.500000
294.311920	152.980000
294.405060	153.580000
294.498230	153.620000
294.591370	153.440000
294.684540	152.780000
294.777679	151.960000
294.870850	151.880000
294.963959	151.780000
295.057159	151.600000
295.150299	152.180000
295.243469	152.220000
295.336609	151.620000
295.429779	151.920000
295.522919	152.380000
295.616089	152.260000
295.709229	152.980000
295.802399	153.320000
295.895569	152.840000
295.988708	152.340000
296.081879	152.520000
296.175018	151.760000
296.268188	151.680000
296.361359	152.300000
296.454529	152.640000
296.547668	152.440000
296.640839	152.980000
296.734009	152.700000
296.827179	152.800000
296.920319	153.220000
297.013519	152.760000
297.106659	152.640000
297.199860	152.720000
297.292999	152.160000
297.386200	151.700000
297.479309	152.060000
297.572510	151.900000
297.665680	151.720000
297.758850	152.100000
297.852020	151.980000
297.945190	151.860000
298.038361	151.520000
298.131531	152.520000
298.224701	152.260000
298.317871	152.100000
298.411072	151.540000
298.504242	151.440000
298.597412	150.940000
298.690582	151.160000
298.783752	151.460000
298.876923	152.200000
298.970093	152.500000
299.063293	152.660000
299.156464	153.080000
299.249634	153.120000
299.342834	153.080000
299.436005	153.440000
299.529205	153.200000
299.622345	152.720000
299.715576	152.080000
299.808716	151.940000
299.901917	151.760000
299.995117	152.060000
300.088287	152.380000
300.181488	152.280000
300.274658	152.200000
300.367828	152.060000
300.461029	151.980000
300.554199	151.860000
300.647400	152.300000
300.740601	152.800000
300.833771	152.740000
300.926971	152.980000
301.020142	152.600000
301.113342	152.420000
301.206512	152.180000
301.299713	152.480000
301.392914	152.340000
301.486084	152.900000
301.579285	152.940000
301.672516	153.380000
301.765686	153.080000
301.858887	152.700000
301.952057	152.460000
302.045288	152.380000
302.138458	151.840000
302.231659	151.520000
302.324860	151.640000
302.418060	151.280000
302.511261	151.440000
302.604462	151.740000
302.697662	151.720000
302.790863	151.500000
302.884064	151.520000
302.977264	151.520000
303.070465	151.680000
303.163666	152.660000
303.256866	153.140000
303.350067	153.220000
303.443268	153.420000
303.536469	153.380000
303.629669	152.600000
303.722870	152.580000
303.816071	152.520000
303.909271	152.460000
304.002472	151.520000
304.095673	151.460000
304.188934	150.500000
304.282104	151.280000
304.375336	151.160000
304.468506	151.560000
304.561768	151.820000
304.654968	152.800000
304.748169	152.040000
304.841370	151.860000
304.934601	152.380000
305.027802	152.080000
305.121002	151.640000
305.214233	151.880000
305.307434	152.320000
305.400665	152.440000
305.493866	152.580000
