Model Number: SPM-002-B   
Serial Number: 70087108
Firmware Version: 004.15.4
Exposure Time: 100000.000000us
Data Taken on: 11-12-2020 19:36:29.752
Wavelength	Amplitude
221.570786	0.000000
221.663406	0.000000
221.756027	0.000000
221.848648	0.000000
221.941269	0.000000
222.033905	0.000000
222.126526	0.000000
222.219162	0.000000
222.311798	0.000000
222.404419	0.000000
222.497055	0.000000
222.589676	0.000000
222.682312	0.000000
222.774933	0.000000
222.867569	0.000000
222.960205	0.000000
223.052841	0.000000
223.145462	0.000000
223.238098	0.000000
223.330734	0.000000
223.423386	0.000000
223.516022	0.000000
223.608658	0.000000
223.701309	0.000000
223.793945	0.000000
223.886581	0.000000
223.979218	0.000000
224.071869	0.000000
224.164505	0.000000
224.257156	0.000000
224.349792	0.000000
224.442444	0.000000
224.535095	0.000000
224.627747	0.000000
224.720398	0.000000
224.813034	0.000000
224.905685	0.000000
224.998337	145.640000
225.090988	145.460000
225.183640	145.420000
225.276291	145.380000
225.368942	145.740000
225.461594	146.180000
225.554245	146.180000
225.646912	146.160000
225.739578	146.760000
225.832230	147.420000
225.924896	146.340000
226.017548	146.980000
226.110199	147.460000
226.202866	146.620000
226.295532	146.140000
226.388184	146.440000
226.480850	145.660000
226.573517	145.180000
226.666168	145.840000
226.758835	146.420000
226.851501	147.060000
226.944183	147.340000
227.036850	146.940000
227.129517	146.520000
227.222183	146.100000
227.314850	145.720000
227.407516	146.020000
227.500198	146.980000
227.592865	146.780000
227.685532	146.540000
227.778214	146.520000
227.870880	146.720000
227.963562	146.660000
228.056229	147.100000
228.148926	146.840000
228.241592	147.480000
228.334274	146.980000
228.426956	146.800000
228.519638	146.480000
228.612305	146.600000
228.704987	146.080000
228.797668	146.400000
228.890350	146.000000
228.983032	145.920000
229.075714	146.700000
229.168396	146.640000
229.261108	146.160000
229.353790	146.580000
229.446472	146.700000
229.539169	146.100000
229.631851	145.760000
229.724533	145.980000
229.817230	146.000000
229.909912	146.800000
230.002609	146.880000
230.095306	147.100000
230.187988	147.280000
230.280685	147.160000
230.373383	146.040000
230.466095	146.060000
230.558792	146.480000
230.651474	146.480000
230.744171	146.520000
230.836868	146.880000
230.929581	147.140000
231.022278	147.180000
231.114975	147.320000
231.207672	146.780000
231.300369	146.800000
231.393082	146.840000
231.485779	146.620000
231.578506	146.340000
231.671204	146.700000
231.763916	146.680000
231.856613	146.540000
231.949326	146.420000
232.042023	146.360000
232.134735	146.300000
232.227448	146.060000
232.320160	145.840000
232.412872	145.840000
232.505585	146.680000
232.598297	146.820000
232.691010	146.980000
232.783722	146.800000
232.876450	147.480000
232.969162	146.600000
233.061874	146.260000
233.154587	145.960000
233.247314	146.440000
233.340027	145.700000
233.432739	146.340000
233.525467	146.740000
233.618179	147.200000
233.710907	146.800000
233.803635	147.320000
233.896347	146.840000
233.989090	147.260000
234.081818	147.080000
234.174545	147.480000
234.267258	146.980000
234.359985	146.980000
234.452713	146.700000
234.545441	146.800000
234.638168	146.420000
234.730896	146.940000
234.823639	147.160000
234.916367	147.200000
235.009094	147.280000
235.101822	147.620000
235.194580	147.560000
235.287308	147.300000
235.380051	146.800000
235.472778	146.960000
235.565521	147.100000
235.658249	146.360000
235.750992	146.660000
235.843719	146.760000
235.936462	146.620000
236.029205	145.940000
236.121948	146.160000
236.214691	146.300000
236.307449	147.060000
236.400192	146.480000
236.492935	146.580000
236.585678	146.720000
236.678421	146.620000
236.771164	146.200000
236.863907	147.240000
236.956665	147.720000
237.049408	149.180000
237.142151	148.420000
237.234909	148.960000
237.327652	148.460000
237.420410	148.140000
237.513153	147.000000
237.605927	147.440000
237.698669	146.760000
237.791428	146.260000
237.884186	146.680000
237.976944	146.060000
238.069702	146.540000
238.162445	146.480000
238.255203	146.760000
238.347961	146.820000
238.440720	146.920000
238.533478	146.500000
238.626266	146.160000
238.719025	146.380000
238.811783	146.360000
238.904541	146.480000
238.997314	146.380000
239.090073	146.360000
239.182831	146.360000
239.275604	147.140000
239.368362	146.820000
239.461136	146.700000
239.553909	146.540000
239.646667	145.980000
239.739441	145.040000
239.832214	145.800000
239.925003	146.140000
240.017761	147.140000
240.110535	148.140000
240.203308	147.860000
240.296082	147.940000
240.388855	148.140000
240.481628	148.100000
240.574417	147.880000
240.667191	148.000000
240.759964	147.120000
240.852737	146.780000
240.945526	145.980000
241.038315	145.780000
241.131088	145.800000
241.223877	146.320000
241.316650	145.920000
241.409439	146.440000
241.502228	145.980000
241.595001	146.360000
241.687790	146.200000
241.780579	146.300000
241.873367	146.460000
241.966141	146.920000
242.058929	146.300000
242.151718	146.420000
242.244507	146.980000
242.337311	146.300000
242.430099	146.740000
242.522903	146.940000
242.615692	146.640000
242.708481	146.440000
242.801270	147.080000
242.894073	146.720000
242.986862	147.160000
243.079651	147.680000
243.172455	147.560000
243.265244	147.460000
243.358063	146.840000
243.450867	146.740000
243.543655	146.620000
243.636459	146.720000
243.729263	146.940000
243.822067	147.840000
243.914856	147.900000
244.007660	147.820000
244.100464	147.740000
244.193268	147.060000
244.286072	146.580000
244.378876	146.140000
244.471680	145.860000
244.564499	146.180000
244.657318	147.080000
244.750122	146.980000
244.842926	146.560000
244.935745	146.940000
245.028549	146.660000
245.121368	146.260000
245.214172	146.560000
245.306992	147.080000
245.399796	146.940000
245.492615	147.000000
245.585434	146.880000
245.678253	146.860000
245.771072	146.660000
245.863892	147.120000
245.956711	147.360000
246.049530	147.040000
246.142349	146.960000
246.235168	147.280000
246.327988	147.480000
246.420807	147.120000
246.513626	147.320000
246.606445	147.140000
246.699280	147.100000
246.792099	146.740000
246.884918	146.500000
246.977753	146.380000
247.070587	146.600000
247.163422	146.540000
247.256241	146.600000
247.349075	147.160000
247.441895	147.360000
247.534729	147.200000
247.627563	147.180000
247.720383	147.660000
247.813217	147.220000
247.906052	147.160000
247.998886	147.140000
248.091736	147.140000
248.184570	146.360000
248.277405	146.380000
248.370239	146.960000
248.463074	147.860000
248.555908	147.700000
248.648743	147.560000
248.741592	147.760000
248.834427	147.240000
248.927261	145.840000
249.020111	146.260000
249.112946	147.020000
249.205795	146.700000
249.298630	146.760000
249.391495	147.080000
249.484344	146.800000
249.577179	146.320000
249.670029	146.740000
249.762878	147.400000
249.855728	147.640000
249.948563	147.560000
250.041412	147.100000
250.134262	147.180000
250.227112	146.880000
250.319962	146.940000
250.412827	147.000000
250.505692	147.180000
250.598541	147.040000
250.691391	146.680000
250.784241	146.880000
250.877106	146.860000
250.969955	146.680000
251.062805	147.320000
251.155670	147.600000
251.248520	147.260000
251.341385	147.520000
251.434235	147.500000
251.527100	146.820000
251.619965	146.540000
251.712814	147.220000
251.805695	147.160000
251.898560	147.420000
251.991425	147.720000
252.084290	147.640000
252.177155	146.580000
252.270020	146.300000
252.362885	146.400000
252.455750	146.160000
252.548615	145.980000
252.641479	146.240000
252.734360	146.280000
252.827240	145.860000
252.920105	145.980000
253.012970	145.840000
253.105850	145.940000
253.198715	145.800000
253.291595	146.220000
253.384460	145.700000
253.477341	145.800000
253.570221	146.140000
253.663086	146.140000
253.755966	146.560000
253.848846	146.620000
253.941727	146.900000
254.034592	146.620000
254.127472	146.200000
254.220367	146.160000
254.313248	146.420000
254.406128	146.300000
254.499008	146.400000
254.591904	147.400000
254.684784	147.640000
254.777664	147.700000
254.870544	147.060000
254.963440	147.160000
255.056335	146.900000
255.149216	146.020000
255.242111	146.420000
255.334991	147.260000
255.427887	147.180000
255.520767	147.220000
255.613663	147.620000
255.706558	147.000000
255.799438	146.560000
255.892334	146.280000
255.985229	146.120000
256.078125	146.180000
256.171021	146.280000
256.263916	146.660000
256.356812	147.240000
256.449707	147.480000
256.542603	146.760000
256.635498	147.240000
256.728394	147.160000
256.821289	146.460000
256.914215	146.560000
257.007080	147.000000
257.100006	146.780000
257.192932	147.000000
257.285828	147.360000
257.378723	146.860000
257.471619	146.840000
257.564545	146.340000
257.657440	146.280000
257.750336	146.680000
257.843262	146.780000
257.936157	147.860000
258.029053	148.180000
258.121979	147.980000
258.214874	147.400000
258.307800	147.280000
258.400696	145.980000
258.493622	146.180000
258.586517	145.740000
258.679443	146.300000
258.772339	145.960000
258.865265	146.180000
258.958160	145.540000
259.051086	146.400000
259.144012	146.120000
259.236938	147.060000
259.329834	147.500000
259.422791	147.300000
259.515717	146.540000
259.608612	146.320000
259.701538	146.120000
259.794464	145.420000
259.887390	145.540000
259.980316	145.600000
260.073212	145.360000
260.166138	144.500000
260.259064	144.980000
260.351990	145.900000
260.444916	146.200000
260.537842	146.700000
260.630768	147.540000
260.723694	147.360000
260.816620	146.920000
260.909546	146.680000
261.002472	146.080000
261.095398	145.600000
261.188354	145.560000
261.281281	145.140000
261.374207	145.220000
261.467133	146.100000
261.560089	146.400000
261.653015	146.280000
261.745972	147.440000
261.838867	147.940000
261.931824	147.900000
262.024780	147.420000
262.117706	147.580000
262.210663	147.180000
262.303589	146.940000
262.396515	146.780000
262.489471	147.940000
262.582397	147.840000
262.675354	147.200000
262.768280	147.080000
262.861237	146.720000
262.954163	146.220000
263.047119	146.500000
263.140045	146.500000
263.233002	146.620000
263.325958	146.880000
263.418884	146.360000
263.511841	146.140000
263.604797	146.320000
263.697723	146.240000
263.790680	145.940000
263.883636	146.600000
263.976593	146.380000
264.069550	146.440000
264.162476	145.940000
264.255463	146.080000
264.348419	145.540000
264.441376	146.180000
264.534332	145.800000
264.627289	146.180000
264.720245	146.820000
264.813202	146.480000
264.906158	146.360000
264.999115	147.160000
265.092072	146.920000
265.185028	146.980000
265.277985	147.420000
265.370941	147.240000
265.463898	146.600000
265.556854	146.340000
265.649811	144.940000
265.742798	145.020000
265.835754	145.000000
265.928711	145.640000
266.021667	146.240000
266.114655	147.080000
266.207611	147.280000
266.300568	146.620000
266.393585	145.880000
266.486511	145.900000
266.579498	145.320000
266.672485	144.840000
266.765442	145.060000
266.858429	145.960000
266.951385	145.560000
267.044342	145.940000
267.137329	146.320000
267.230316	146.700000
267.323273	145.740000
267.416260	146.540000
267.509216	146.460000
267.602203	146.220000
267.695160	146.780000
267.788147	147.160000
267.881134	146.280000
267.974091	146.540000
268.067078	146.420000
268.160065	145.880000
268.253052	145.640000
268.346008	146.140000
268.438995	145.840000
268.531982	145.960000
268.624969	146.080000
268.717987	146.480000
268.810944	146.460000
268.903961	146.520000
268.996948	146.360000
269.089905	146.840000
269.182892	146.800000
269.275879	146.920000
269.368866	146.740000
269.461853	147.080000
269.554871	146.460000
269.647858	146.280000
269.740845	146.380000
269.833832	146.820000
269.926819	146.600000
270.019806	146.840000
270.112793	146.420000
270.205811	146.500000
270.298798	146.200000
270.391785	146.680000
270.484772	146.300000
270.577789	146.640000
270.670776	146.060000
270.763763	146.060000
270.856750	145.800000
270.949768	145.580000
271.042786	145.520000
271.135773	145.840000
271.228790	146.200000
271.321808	145.780000
271.414795	145.740000
271.507782	145.500000
271.600800	145.000000
271.693817	144.860000
271.786804	145.440000
271.879822	145.800000
271.972809	146.080000
272.065826	146.720000
272.158844	146.440000
272.251831	146.740000
272.344849	146.640000
272.437866	146.420000
272.530853	146.280000
272.623871	146.480000
272.716888	145.580000
272.809906	145.900000
272.902893	146.100000
272.995911	145.640000
273.088928	145.720000
273.181946	146.240000
273.274963	145.840000
273.367981	145.880000
273.460999	146.120000
273.554047	146.540000
273.647003	146.860000
273.740051	146.960000
273.833069	147.300000
273.926086	147.620000
274.019135	147.200000
274.112152	146.660000
274.205170	146.760000
274.298187	146.620000
274.391205	145.920000
274.484222	146.080000
274.577240	146.180000
274.670258	146.120000
274.763306	145.960000
274.856323	146.780000
274.949341	146.820000
275.042358	147.060000
275.135406	146.860000
275.228424	147.140000
275.321442	146.920000
275.414490	146.620000
275.507507	146.860000
275.600525	147.380000
275.693573	146.960000
275.786591	146.520000
275.879669	146.660000
275.972656	146.040000
276.065735	145.940000
276.158752	146.540000
276.251801	147.380000
276.344818	147.220000
276.437866	147.480000
276.530884	147.180000
276.623932	146.260000
276.716980	146.340000
276.809998	146.400000
276.903046	146.360000
276.996094	147.080000
277.089111	147.840000
277.182159	147.900000
277.275208	147.400000
277.368256	147.320000
277.461304	146.580000
277.554321	145.980000
277.647369	145.920000
277.740417	146.420000
277.833466	146.480000
277.926514	146.720000
278.019562	147.540000
278.112610	146.740000
278.205688	146.860000
278.298706	146.860000
278.391785	146.780000
278.484833	146.080000
278.577881	146.400000
278.670929	146.320000
278.763977	146.360000
278.857025	146.920000
278.950073	147.140000
279.043121	146.760000
279.136169	146.640000
279.229248	146.560000
279.322296	146.320000
279.415344	146.260000
279.508392	146.340000
279.601440	146.460000
279.694519	146.100000
279.787567	145.760000
279.880615	145.620000
279.973694	145.320000
280.066742	145.200000
280.159790	145.580000
280.252869	145.220000
280.345917	145.640000
280.438995	146.100000
280.532074	146.200000
280.625122	146.440000
280.718201	147.400000
280.811279	147.120000
280.904327	147.160000
280.997406	147.340000
281.090454	147.100000
281.183533	146.620000
281.276581	146.480000
281.369659	146.160000
281.462738	146.180000
281.555786	146.420000
281.648865	146.480000
281.741943	146.380000
281.835022	147.080000
281.928070	146.620000
282.021149	146.280000
282.114227	145.980000
282.207306	146.120000
282.300385	146.280000
282.393433	146.560000
282.486511	146.580000
282.579590	147.160000
282.672668	147.620000
282.765747	146.900000
282.858856	146.640000
282.951904	146.780000
283.045013	146.520000
283.138062	146.740000
283.231171	147.060000
283.324249	147.620000
283.417328	147.600000
283.510406	147.380000
283.603485	146.960000
283.696564	147.020000
283.789642	147.020000
283.882751	147.000000
283.975830	147.520000
284.068909	147.020000
284.161987	147.040000
284.255066	146.400000
284.348175	146.600000
284.441254	146.420000
284.534332	147.240000
284.627441	146.960000
284.720520	146.760000
284.813599	146.880000
284.906708	146.920000
284.999786	146.020000
285.092896	145.820000
285.185974	147.240000
285.279053	146.420000
285.372192	146.440000
285.465240	147.540000
285.558380	147.780000
285.651459	146.820000
285.744568	147.880000
285.837677	147.380000
285.930756	147.100000
286.023865	147.100000
286.116943	146.900000
286.210052	146.800000
286.303162	146.980000
286.396240	146.660000
286.489349	146.400000
286.582458	146.820000
286.675568	146.380000
286.768646	146.280000
286.861755	146.540000
286.954865	147.220000
287.047974	146.640000
287.141083	146.480000
287.234161	146.280000
287.327271	145.880000
287.420380	146.000000
287.513519	146.240000
287.606598	146.420000
287.699738	147.120000
287.792816	147.180000
287.885956	146.980000
287.979034	146.920000
288.072174	146.980000
288.165283	146.860000
288.258392	147.380000
288.351501	146.840000
288.444611	147.360000
288.537720	147.580000
288.630859	147.360000
288.723969	147.060000
288.817078	147.380000
288.910187	147.160000
289.003296	146.720000
289.096436	146.360000
289.189545	146.280000
289.282654	146.180000
289.375763	146.240000
289.468903	146.580000
289.562012	146.820000
289.655121	146.640000
289.748260	146.680000
289.841400	147.160000
289.934509	147.100000
290.027649	147.180000
290.120728	147.300000
290.213898	147.240000
290.306976	146.680000
290.400146	146.760000
290.493256	146.240000
290.586395	146.460000
290.679535	146.880000
290.772644	146.600000
290.865784	145.820000
290.958893	146.200000
291.052032	145.940000
291.145172	145.560000
291.238281	145.620000
291.331421	146.160000
291.424561	146.580000
291.517670	146.420000
291.610809	146.500000
291.703949	146.320000
291.797089	146.320000
291.890228	145.840000
291.983337	145.940000
292.076477	145.800000
292.169617	146.160000
292.262756	146.240000
292.355927	146.240000
292.449036	145.980000
292.542206	146.180000
292.635315	146.400000
292.728485	146.440000
292.821625	146.240000
292.914764	147.660000
293.007904	147.580000
293.101044	147.300000
293.194183	147.140000
293.287323	147.340000
293.380463	146.360000
293.473602	146.400000
293.566742	146.760000
293.659882	147.100000
293.753021	147.400000
293.846191	147.180000
293.939331	146.640000
294.032471	146.200000
294.125610	145.980000
294.218781	146.300000
294.311920	146.920000
294.405060	147.300000
294.498230	147.340000
294.591370	147.420000
294.684540	146.400000
294.777679	145.880000
294.870850	146.140000
294.963959	146.060000
295.057159	145.420000
295.150299	146.120000
295.243469	146.040000
295.336609	145.340000
295.429779	145.780000
295.522919	146.540000
295.616089	146.380000
295.709229	147.020000
295.802399	147.300000
295.895569	146.760000
295.988708	146.480000
296.081879	146.500000
296.175018	145.800000
296.268188	145.720000
296.361359	146.140000
296.454529	146.260000
296.547668	146.160000
296.640839	146.480000
296.734009	146.340000
296.827179	146.480000
296.920319	146.900000
297.013519	146.580000
297.106659	146.700000
297.199860	147.020000
297.292999	146.680000
297.386200	146.260000
297.479309	146.360000
297.572510	146.320000
297.665680	146.160000
297.758850	146.200000
297.852020	146.160000
297.945190	146.240000
298.038361	145.640000
298.131531	146.660000
298.224701	146.680000
298.317871	146.460000
298.411072	146.140000
298.504242	146.220000
298.597412	145.580000
298.690582	145.920000
298.783752	146.120000
298.876923	147.100000
298.970093	147.300000
299.063293	147.720000
299.156464	147.520000
299.249634	147.640000
299.342834	147.300000
299.436005	147.720000
299.529205	147.200000
299.622345	147.280000
299.715576	146.760000
299.808716	146.580000
299.901917	146.480000
299.995117	146.880000
300.088287	147.020000
300.181488	147.080000
300.274658	147.200000
300.367828	147.040000
300.461029	146.840000
300.554199	146.880000
300.647400	147.040000
300.740601	147.280000
300.833771	146.960000
300.926971	146.940000
301.020142	146.500000
301.113342	146.160000
301.206512	145.760000
301.299713	146.340000
301.392914	146.380000
301.486084	146.440000
301.579285	146.600000
301.672516	147.300000
301.765686	146.980000
301.858887	146.840000
301.952057	146.900000
302.045288	146.900000
302.138458	146.400000
302.231659	146.160000
302.324860	146.060000
302.418060	146.000000
302.511261	146.020000
302.604462	146.320000
302.697662	146.400000
302.790863	146.460000
302.884064	146.240000
302.977264	146.420000
303.070465	146.520000
303.163666	147.120000
303.256866	147.100000
303.350067	147.420000
303.443268	147.280000
303.536469	147.360000
303.629669	146.960000
303.722870	147.060000
303.816071	146.800000
303.909271	147.120000
304.002472	146.300000
304.095673	146.100000
304.188934	145.480000
304.282104	146.220000
304.375336	146.140000
304.468506	146.340000
304.561768	146.240000
304.654968	147.160000
304.748169	146.720000
304.841370	146.360000
304.934601	146.460000
305.027802	146.420000
305.121002	146.020000
305.214233	146.020000
305.307434	146.360000
305.400665	147.080000
305.493866	147.060000
