Model Number: SPM-002-B   
Serial Number: 70087108
Firmware Version: 004.15.4
Exposure Time: 100000.000000us
Data Taken on: 11-12-2020 19:36:14.576
Wavelength	Amplitude
221.570786	0.000000
221.663406	0.000000
221.756027	0.000000
221.848648	0.000000
221.941269	0.000000
222.033905	0.000000
222.126526	0.000000
222.219162	0.000000
222.311798	0.000000
222.404419	0.000000
222.497055	0.000000
222.589676	0.000000
222.682312	0.000000
222.774933	0.000000
222.867569	0.000000
222.960205	0.000000
223.052841	0.000000
223.145462	0.000000
223.238098	0.000000
223.330734	0.000000
223.423386	0.000000
223.516022	0.000000
223.608658	0.000000
223.701309	0.000000
223.793945	0.000000
223.886581	0.000000
223.979218	0.000000
224.071869	0.000000
224.164505	0.000000
224.257156	0.000000
224.349792	0.000000
224.442444	0.000000
224.535095	0.000000
224.627747	0.000000
224.720398	0.000000
224.813034	0.000000
224.905685	0.000000
224.998337	145.740000
225.090988	145.520000
225.183640	145.400000
225.276291	145.220000
225.368942	145.500000
225.461594	146.160000
225.554245	146.460000
225.646912	146.700000
225.739578	147.060000
225.832230	147.160000
225.924896	146.300000
226.017548	146.780000
226.110199	147.120000
226.202866	146.440000
226.295532	146.540000
226.388184	146.500000
226.480850	145.600000
226.573517	144.980000
226.666168	145.620000
226.758835	145.880000
226.851501	146.460000
226.944183	146.700000
227.036850	146.420000
227.129517	146.320000
227.222183	146.080000
227.314850	145.920000
227.407516	146.020000
227.500198	146.740000
227.592865	146.440000
227.685532	146.140000
227.778214	146.060000
227.870880	146.480000
227.963562	146.680000
228.056229	146.900000
228.148926	146.940000
228.241592	147.840000
228.334274	147.440000
228.426956	146.960000
228.519638	147.220000
228.612305	146.940000
228.704987	146.240000
228.797668	146.040000
228.890350	145.860000
228.983032	145.000000
229.075714	145.760000
229.168396	145.680000
229.261108	145.640000
229.353790	145.860000
229.446472	146.340000
229.539169	146.020000
229.631851	145.800000
229.724533	145.860000
229.817230	146.180000
229.909912	147.120000
230.002609	147.320000
230.095306	147.600000
230.187988	147.780000
230.280685	147.420000
230.373383	146.160000
230.466095	145.740000
230.558792	145.740000
230.651474	145.600000
230.744171	145.620000
230.836868	145.400000
230.929581	145.700000
231.022278	145.860000
231.114975	145.880000
231.207672	145.600000
231.300369	146.400000
231.393082	146.400000
231.485779	145.920000
231.578506	146.000000
231.671204	145.980000
231.763916	145.820000
231.856613	145.660000
231.949326	146.100000
232.042023	145.840000
232.134735	146.420000
232.227448	146.000000
232.320160	146.480000
232.412872	146.260000
232.505585	147.140000
232.598297	147.300000
232.691010	147.480000
232.783722	146.800000
232.876450	147.160000
232.969162	146.520000
233.061874	145.980000
233.154587	145.820000
233.247314	146.340000
233.340027	145.720000
233.432739	146.160000
233.525467	145.960000
233.618179	146.520000
233.710907	146.200000
233.803635	147.080000
233.896347	146.560000
233.989090	147.420000
234.081818	146.960000
234.174545	147.000000
234.267258	146.080000
234.359985	146.320000
234.452713	145.820000
234.545441	145.840000
234.638168	145.420000
234.730896	146.140000
234.823639	145.920000
234.916367	146.340000
235.009094	146.440000
235.101822	146.780000
235.194580	146.640000
235.287308	147.040000
235.380051	146.300000
235.472778	146.600000
235.565521	146.860000
235.658249	146.480000
235.750992	146.440000
235.843719	146.720000
235.936462	146.980000
236.029205	146.780000
236.121948	146.580000
236.214691	146.860000
236.307449	147.360000
236.400192	146.880000
236.492935	146.560000
236.585678	146.900000
236.678421	146.600000
236.771164	146.460000
236.863907	147.200000
236.956665	147.780000
237.049408	149.160000
237.142151	148.740000
237.234909	149.200000
237.327652	148.320000
237.420410	147.720000
237.513153	146.720000
237.605927	146.960000
237.698669	146.200000
237.791428	145.740000
237.884186	146.420000
237.976944	145.880000
238.069702	145.900000
238.162445	145.440000
238.255203	146.140000
238.347961	146.520000
238.440720	146.700000
238.533478	146.340000
238.626266	146.340000
238.719025	146.300000
238.811783	145.440000
238.904541	145.480000
238.997314	145.620000
239.090073	145.600000
239.182831	145.720000
239.275604	146.700000
239.368362	146.320000
239.461136	146.600000
239.553909	146.880000
239.646667	146.600000
239.739441	146.260000
239.832214	146.700000
239.925003	146.540000
240.017761	147.220000
240.110535	147.960000
240.203308	147.360000
240.296082	147.440000
240.388855	147.460000
240.481628	147.300000
240.574417	147.100000
240.667191	147.380000
240.759964	146.740000
240.852737	146.660000
240.945526	146.160000
241.038315	145.860000
241.131088	145.960000
241.223877	146.500000
241.316650	146.200000
241.409439	146.620000
241.502228	146.280000
241.595001	146.960000
241.687790	146.520000
241.780579	146.840000
241.873367	146.880000
241.966141	147.400000
242.058929	146.480000
242.151718	147.040000
242.244507	147.600000
242.337311	146.600000
242.430099	146.800000
242.522903	147.140000
242.615692	146.580000
242.708481	146.340000
242.801270	147.200000
242.894073	147.180000
242.986862	147.020000
243.079651	147.760000
243.172455	147.140000
243.265244	147.180000
243.358063	146.500000
243.450867	147.020000
243.543655	146.620000
243.636459	146.880000
243.729263	147.100000
243.822067	147.460000
243.914856	147.360000
244.007660	147.520000
244.100464	147.880000
244.193268	147.060000
244.286072	146.880000
244.378876	146.340000
244.471680	145.880000
244.564499	146.100000
244.657318	147.040000
244.750122	147.360000
244.842926	146.900000
244.935745	147.360000
245.028549	146.540000
245.121368	145.980000
245.214172	145.860000
245.306992	146.420000
245.399796	146.100000
245.492615	146.160000
245.585434	146.080000
245.678253	145.860000
245.771072	145.500000
245.863892	146.020000
245.956711	146.660000
246.049530	146.480000
246.142349	146.440000
246.235168	146.780000
246.327988	147.040000
246.420807	146.500000
246.513626	146.820000
246.606445	146.800000
246.699280	146.940000
246.792099	146.340000
246.884918	146.180000
246.977753	146.020000
247.070587	146.120000
247.163422	145.920000
247.256241	145.960000
247.349075	146.220000
247.441895	146.260000
247.534729	146.100000
247.627563	146.120000
247.720383	146.600000
247.813217	146.800000
247.906052	146.720000
247.998886	146.900000
248.091736	146.820000
248.184570	146.380000
248.277405	146.500000
248.370239	147.500000
248.463074	148.540000
248.555908	148.900000
248.648743	148.860000
248.741592	148.660000
248.834427	147.800000
248.927261	146.460000
249.020111	146.580000
249.112946	147.180000
249.205795	146.800000
249.298630	146.900000
249.391495	147.180000
249.484344	146.720000
249.577179	146.260000
249.670029	146.660000
249.762878	146.940000
249.855728	146.980000
249.948563	147.140000
250.041412	146.920000
250.134262	147.080000
250.227112	147.200000
250.319962	147.260000
250.412827	147.160000
250.505692	146.840000
250.598541	146.660000
250.691391	146.260000
250.784241	146.240000
250.877106	146.600000
250.969955	146.760000
251.062805	147.260000
251.155670	147.700000
251.248520	147.800000
251.341385	147.480000
251.434235	147.380000
251.527100	146.860000
251.619965	146.520000
251.712814	146.900000
251.805695	146.900000
251.898560	147.140000
251.991425	147.380000
252.084290	147.220000
252.177155	146.260000
252.270020	145.880000
252.362885	145.900000
252.455750	145.860000
252.548615	145.580000
252.641479	145.780000
252.734360	145.820000
252.827240	145.760000
252.920105	145.520000
253.012970	145.680000
253.105850	146.000000
253.198715	146.080000
253.291595	146.040000
253.384460	145.940000
253.477341	145.940000
253.570221	145.820000
253.663086	145.560000
253.755966	146.420000
253.848846	146.500000
253.941727	146.760000
254.034592	146.880000
254.127472	146.600000
254.220367	146.340000
254.313248	146.340000
254.406128	146.040000
254.499008	146.260000
254.591904	147.380000
254.684784	147.420000
254.777664	147.260000
254.870544	146.780000
254.963440	146.340000
255.056335	145.960000
255.149216	145.460000
255.242111	146.040000
255.334991	146.760000
255.427887	146.920000
255.520767	147.100000
255.613663	147.400000
255.706558	146.680000
255.799438	146.560000
255.892334	146.620000
255.985229	146.620000
256.078125	146.420000
256.171021	146.740000
256.263916	146.980000
256.356812	147.220000
256.449707	147.100000
256.542603	147.020000
256.635498	147.500000
256.728394	147.220000
256.821289	146.800000
256.914215	146.980000
257.007080	147.240000
257.100006	147.220000
257.192932	147.700000
257.285828	147.920000
257.378723	147.700000
257.471619	147.640000
257.564545	146.880000
257.657440	146.900000
257.750336	147.020000
257.843262	146.680000
257.936157	147.700000
258.029053	148.380000
258.121979	148.160000
258.214874	148.000000
258.307800	148.220000
258.400696	146.880000
258.493622	146.760000
258.586517	146.120000
258.679443	146.380000
258.772339	146.100000
258.865265	145.900000
258.958160	145.340000
259.051086	146.440000
259.144012	146.120000
259.236938	146.880000
259.329834	147.420000
259.422791	147.580000
259.515717	146.700000
259.608612	146.360000
259.701538	146.340000
259.794464	146.140000
259.887390	146.200000
259.980316	146.180000
260.073212	146.100000
260.166138	145.200000
260.259064	145.600000
260.351990	146.240000
260.444916	146.060000
260.537842	146.680000
260.630768	147.620000
260.723694	147.440000
260.816620	147.240000
260.909546	147.300000
261.002472	147.020000
261.095398	146.580000
261.188354	146.560000
261.281281	146.360000
261.374207	146.660000
261.467133	147.140000
261.560089	147.100000
261.653015	146.920000
261.745972	147.280000
261.838867	147.780000
261.931824	148.120000
262.024780	147.600000
262.117706	147.920000
262.210663	147.720000
262.303589	147.340000
262.396515	146.560000
262.489471	147.800000
262.582397	147.480000
262.675354	147.060000
262.768280	147.180000
262.861237	147.400000
262.954163	146.880000
263.047119	147.220000
263.140045	147.120000
263.233002	146.960000
263.325958	146.980000
263.418884	146.400000
263.511841	146.140000
263.604797	146.060000
263.697723	146.020000
263.790680	146.000000
263.883636	146.720000
263.976593	146.420000
264.069550	146.820000
264.162476	146.400000
264.255463	146.420000
264.348419	146.140000
264.441376	146.560000
264.534332	146.080000
264.627289	146.360000
264.720245	146.720000
264.813202	146.000000
264.906158	146.000000
264.999115	146.680000
265.092072	146.800000
265.185028	146.920000
265.277985	147.500000
265.370941	147.460000
265.463898	147.200000
265.556854	147.040000
265.649811	145.820000
265.742798	145.900000
265.835754	145.840000
265.928711	146.420000
266.021667	146.560000
266.114655	147.460000
266.207611	147.860000
266.300568	147.280000
266.393585	146.500000
266.486511	146.520000
266.579498	145.620000
266.672485	145.240000
266.765442	145.440000
266.858429	145.900000
266.951385	145.720000
267.044342	146.200000
267.137329	146.320000
267.230316	146.540000
267.323273	146.040000
267.416260	146.740000
267.509216	146.600000
267.602203	146.220000
267.695160	146.760000
267.788147	147.060000
267.881134	146.340000
267.974091	146.660000
268.067078	146.620000
268.160065	146.100000
268.253052	145.880000
268.346008	146.220000
268.438995	145.900000
268.531982	146.220000
268.624969	146.320000
268.717987	146.700000
268.810944	146.500000
268.903961	146.900000
268.996948	146.400000
269.089905	146.640000
269.182892	146.580000
269.275879	146.720000
269.368866	146.000000
269.461853	146.440000
269.554871	146.500000
269.647858	146.620000
269.740845	146.980000
269.833832	147.580000
269.926819	147.260000
270.019806	146.940000
270.112793	146.500000
270.205811	146.340000
270.298798	145.960000
270.391785	146.400000
270.484772	146.020000
270.577789	146.040000
270.670776	145.360000
270.763763	145.260000
270.856750	145.280000
270.949768	145.620000
271.042786	145.760000
271.135773	146.120000
271.228790	146.960000
271.321808	146.600000
271.414795	146.120000
271.507782	145.660000
271.600800	145.480000
271.693817	145.140000
271.786804	145.620000
271.879822	146.480000
271.972809	146.860000
272.065826	147.220000
272.158844	147.060000
272.251831	147.640000
272.344849	147.400000
272.437866	146.980000
272.530853	147.160000
272.623871	147.060000
272.716888	145.800000
272.809906	145.560000
272.902893	145.540000
272.995911	144.900000
273.088928	144.800000
273.181946	145.320000
273.274963	145.000000
273.367981	145.360000
273.460999	145.780000
273.554047	146.320000
273.647003	146.740000
273.740051	147.140000
273.833069	147.480000
273.926086	147.460000
274.019135	147.260000
274.112152	146.860000
274.205170	146.840000
274.298187	146.620000
274.391205	146.320000
274.484222	146.180000
274.577240	146.060000
274.670258	145.980000
274.763306	145.960000
274.856323	146.320000
274.949341	146.680000
275.042358	147.040000
275.135406	147.080000
275.228424	146.980000
275.321442	146.880000
275.414490	146.200000
275.507507	146.580000
275.600525	146.920000
275.693573	146.720000
275.786591	146.080000
275.879669	146.640000
275.972656	146.140000
276.065735	145.800000
276.158752	146.480000
276.251801	147.560000
276.344818	147.440000
276.437866	147.520000
276.530884	147.440000
276.623932	146.620000
276.716980	146.280000
276.809998	146.420000
276.903046	146.460000
276.996094	147.580000
277.089111	148.160000
277.182159	148.620000
277.275208	148.280000
277.368256	147.840000
277.461304	146.720000
277.554321	145.940000
277.647369	145.660000
277.740417	145.920000
277.833466	146.020000
277.926514	146.180000
278.019562	147.180000
278.112610	146.820000
278.205688	146.960000
278.298706	147.060000
278.391785	146.720000
278.484833	146.320000
278.577881	146.340000
278.670929	146.160000
278.763977	146.400000
278.857025	147.140000
278.950073	147.040000
279.043121	146.760000
279.136169	146.560000
279.229248	145.920000
279.322296	145.640000
279.415344	145.640000
279.508392	145.520000
279.601440	145.480000
279.694519	145.760000
279.787567	145.920000
279.880615	145.740000
279.973694	145.980000
280.066742	146.260000
280.159790	146.220000
280.252869	145.880000
280.345917	146.100000
280.438995	146.140000
280.532074	145.880000
280.625122	146.160000
280.718201	146.820000
280.811279	146.660000
280.904327	146.480000
280.997406	146.820000
281.090454	146.740000
281.183533	146.180000
281.276581	146.040000
281.369659	145.980000
281.462738	146.080000
281.555786	146.160000
281.648865	146.020000
281.741943	146.200000
281.835022	146.940000
281.928070	146.600000
282.021149	146.460000
282.114227	146.300000
282.207306	146.460000
282.300385	146.360000
282.393433	146.280000
282.486511	146.320000
282.579590	147.000000
282.672668	147.260000
282.765747	146.540000
282.858856	146.440000
282.951904	146.480000
283.045013	146.080000
283.138062	146.180000
283.231171	146.520000
283.324249	146.860000
283.417328	147.020000
283.510406	146.700000
283.603485	146.380000
283.696564	146.260000
283.789642	146.260000
283.882751	145.820000
283.975830	146.480000
284.068909	146.440000
284.161987	147.460000
284.255066	146.900000
284.348175	147.120000
284.441254	147.080000
284.534332	147.480000
284.627441	146.760000
284.720520	146.660000
284.813599	146.640000
284.906708	146.620000
284.999786	145.620000
285.092896	145.360000
285.185974	146.540000
285.279053	146.020000
285.372192	145.960000
285.465240	147.080000
285.558380	147.280000
285.651459	146.720000
285.744568	147.880000
285.837677	147.500000
285.930756	147.360000
286.023865	147.460000
286.116943	147.340000
286.210052	147.120000
286.303162	147.140000
286.396240	146.820000
286.489349	146.540000
286.582458	146.780000
286.675568	146.220000
286.768646	146.520000
286.861755	146.920000
286.954865	147.500000
287.047974	146.760000
287.141083	147.040000
287.234161	146.720000
287.327271	146.460000
287.420380	146.660000
287.513519	146.720000
287.606598	146.580000
287.699738	146.780000
287.792816	146.500000
287.885956	146.300000
287.979034	146.480000
288.072174	146.840000
288.165283	146.860000
288.258392	147.260000
288.351501	146.560000
288.444611	146.880000
288.537720	147.060000
288.630859	146.780000
288.723969	146.740000
288.817078	147.140000
288.910187	147.100000
289.003296	146.320000
289.096436	146.380000
289.189545	146.040000
289.282654	145.740000
289.375763	146.140000
289.468903	146.600000
289.562012	146.900000
289.655121	146.920000
289.748260	147.220000
289.841400	147.380000
289.934509	147.240000
290.027649	147.280000
290.120728	147.160000
290.213898	147.280000
290.306976	146.860000
290.400146	146.740000
290.493256	146.160000
290.586395	146.260000
290.679535	146.500000
290.772644	146.080000
290.865784	145.600000
290.958893	145.820000
291.052032	145.540000
291.145172	145.040000
291.238281	144.940000
291.331421	145.560000
291.424561	146.020000
291.517670	146.280000
291.610809	146.620000
291.703949	146.720000
291.797089	146.760000
291.890228	146.100000
291.983337	146.100000
292.076477	145.820000
292.169617	146.160000
292.262756	146.040000
292.355927	145.980000
292.449036	145.800000
292.542206	145.900000
292.635315	145.960000
292.728485	146.160000
292.821625	146.240000
292.914764	147.400000
293.007904	147.300000
293.101044	147.220000
293.194183	147.060000
293.287323	147.100000
293.380463	146.000000
293.473602	145.660000
293.566742	145.780000
293.659882	146.200000
293.753021	146.700000
293.846191	147.100000
293.939331	147.280000
294.032471	147.120000
294.125610	146.580000
294.218781	146.760000
294.311920	146.860000
294.405060	146.820000
294.498230	146.740000
294.591370	146.820000
294.684540	146.000000
294.777679	145.440000
294.870850	146.020000
294.963959	146.020000
295.057159	145.980000
295.150299	146.380000
295.243469	146.660000
295.336609	146.040000
295.429779	146.100000
295.522919	146.560000
295.616089	146.620000
295.709229	147.200000
295.802399	147.280000
295.895569	146.960000
295.988708	146.500000
296.081879	146.500000
296.175018	145.640000
296.268188	145.500000
296.361359	146.140000
296.454529	146.540000
296.547668	146.460000
296.640839	146.960000
296.734009	146.680000
296.827179	146.460000
296.920319	146.540000
297.013519	146.300000
297.106659	146.280000
297.199860	146.600000
297.292999	146.480000
297.386200	145.920000
297.479309	146.000000
297.572510	146.120000
297.665680	146.040000
297.758850	146.220000
297.852020	146.240000
297.945190	146.060000
298.038361	145.480000
298.131531	146.580000
298.224701	146.280000
298.317871	146.060000
298.411072	145.800000
298.504242	145.900000
298.597412	145.120000
298.690582	145.440000
298.783752	145.440000
298.876923	146.060000
298.970093	146.140000
299.063293	146.420000
299.156464	146.720000
299.249634	147.360000
299.342834	147.640000
299.436005	147.840000
299.529205	147.540000
299.622345	147.180000
299.715576	146.280000
299.808716	145.840000
299.901917	145.740000
299.995117	146.280000
300.088287	146.520000
300.181488	146.640000
300.274658	146.620000
300.367828	146.760000
300.461029	146.220000
300.554199	146.120000
300.647400	146.620000
300.740601	147.420000
300.833771	146.960000
300.926971	147.180000
301.020142	146.700000
301.113342	146.360000
301.206512	145.760000
301.299713	146.240000
301.392914	146.140000
301.486084	146.700000
301.579285	146.860000
301.672516	147.340000
301.765686	146.940000
301.858887	147.180000
301.952057	146.880000
302.045288	146.840000
302.138458	146.360000
302.231659	146.380000
302.324860	146.080000
302.418060	145.840000
302.511261	145.920000
302.604462	146.120000
302.697662	146.060000
302.790863	145.800000
302.884064	145.660000
302.977264	145.800000
303.070465	145.900000
303.163666	146.760000
303.256866	147.540000
303.350067	147.920000
303.443268	147.920000
303.536469	148.220000
303.629669	147.280000
303.722870	146.860000
303.816071	146.920000
303.909271	146.720000
304.002472	145.660000
304.095673	145.600000
304.188934	144.740000
304.282104	145.380000
304.375336	145.420000
304.468506	145.660000
304.561768	145.760000
304.654968	146.660000
304.748169	145.900000
304.841370	145.700000
304.934601	146.000000
305.027802	145.720000
305.121002	145.280000
305.214233	145.260000
305.307434	145.640000
305.400665	146.040000
305.493866	146.200000
