Model Number: SPM-002-B   
Serial Number: 70087108
Firmware Version: 004.15.4
Exposure Time: 100000.000000us
Data Taken on: 11-12-2020 19:36:40.097
Wavelength	Amplitude
221.570786	0.000000
221.663406	0.000000
221.756027	0.000000
221.848648	0.000000
221.941269	0.000000
222.033905	0.000000
222.126526	0.000000
222.219162	0.000000
222.311798	0.000000
222.404419	0.000000
222.497055	0.000000
222.589676	0.000000
222.682312	0.000000
222.774933	0.000000
222.867569	0.000000
222.960205	0.000000
223.052841	0.000000
223.145462	0.000000
223.238098	0.000000
223.330734	0.000000
223.423386	0.000000
223.516022	0.000000
223.608658	0.000000
223.701309	0.000000
223.793945	0.000000
223.886581	0.000000
223.979218	0.000000
224.071869	0.000000
224.164505	0.000000
224.257156	0.000000
224.349792	0.000000
224.442444	0.000000
224.535095	0.000000
224.627747	0.000000
224.720398	0.000000
224.813034	0.000000
224.905685	0.000000
224.998337	145.460000
225.090988	145.380000
225.183640	145.660000
225.276291	145.560000
225.368942	146.180000
225.461594	146.540000
225.554245	146.700000
225.646912	146.440000
225.739578	146.800000
225.832230	146.680000
225.924896	145.960000
226.017548	146.180000
226.110199	146.580000
226.202866	146.160000
226.295532	146.140000
226.388184	146.300000
226.480850	145.980000
226.573517	145.660000
226.666168	145.680000
226.758835	146.120000
226.851501	146.700000
226.944183	146.660000
227.036850	146.340000
227.129517	146.420000
227.222183	146.420000
227.314850	146.160000
227.407516	146.560000
227.500198	147.320000
227.592865	146.920000
227.685532	146.420000
227.778214	146.260000
227.870880	146.600000
227.963562	146.860000
228.056229	147.440000
228.148926	147.620000
228.241592	148.520000
228.334274	147.720000
228.426956	147.280000
228.519638	147.160000
228.612305	146.640000
228.704987	146.240000
228.797668	146.340000
228.890350	145.980000
228.983032	145.580000
229.075714	146.460000
229.168396	146.200000
229.261108	145.900000
229.353790	146.220000
229.446472	146.400000
229.539169	145.940000
229.631851	145.640000
229.724533	146.020000
229.817230	146.020000
229.909912	147.000000
230.002609	146.920000
230.095306	147.180000
230.187988	147.440000
230.280685	147.180000
230.373383	146.020000
230.466095	146.080000
230.558792	146.380000
230.651474	146.040000
230.744171	146.040000
230.836868	146.020000
230.929581	146.060000
231.022278	145.860000
231.114975	145.940000
231.207672	145.880000
231.300369	146.680000
231.393082	146.760000
231.485779	146.700000
231.578506	146.900000
231.671204	146.820000
231.763916	146.360000
231.856613	146.160000
231.949326	146.160000
232.042023	145.920000
232.134735	146.180000
232.227448	145.880000
232.320160	146.340000
232.412872	146.280000
232.505585	147.020000
232.598297	147.260000
232.691010	147.240000
232.783722	146.580000
232.876450	146.940000
232.969162	146.520000
233.061874	146.320000
233.154587	146.060000
233.247314	146.740000
233.340027	146.180000
233.432739	146.320000
233.525467	146.080000
233.618179	146.740000
233.710907	146.120000
233.803635	146.700000
233.896347	146.540000
233.989090	147.220000
234.081818	147.020000
234.174545	147.300000
234.267258	146.800000
234.359985	146.860000
234.452713	146.380000
234.545441	146.280000
234.638168	146.340000
234.730896	146.860000
234.823639	146.680000
234.916367	147.360000
235.009094	147.560000
235.101822	147.520000
235.194580	147.500000
235.287308	147.720000
235.380051	146.940000
235.472778	147.120000
235.565521	147.180000
235.658249	146.380000
235.750992	146.540000
235.843719	146.600000
235.936462	146.800000
236.029205	146.260000
236.121948	146.300000
236.214691	146.480000
236.307449	147.100000
236.400192	146.500000
236.492935	146.640000
236.585678	146.880000
236.678421	146.200000
236.771164	145.780000
236.863907	146.480000
236.956665	146.640000
237.049408	148.180000
237.142151	148.260000
237.234909	148.880000
237.327652	148.580000
237.420410	148.460000
237.513153	147.160000
237.605927	146.700000
237.698669	146.080000
237.791428	145.640000
237.884186	146.260000
237.976944	145.920000
238.069702	146.600000
238.162445	146.320000
238.255203	146.300000
238.347961	146.540000
238.440720	146.600000
238.533478	146.440000
238.626266	146.320000
238.719025	146.980000
238.811783	146.360000
238.904541	146.220000
238.997314	146.140000
239.090073	146.100000
239.182831	145.820000
239.275604	146.440000
239.368362	146.400000
239.461136	146.540000
239.553909	146.580000
239.646667	146.580000
239.739441	146.060000
239.832214	146.640000
239.925003	146.800000
240.017761	147.460000
240.110535	147.900000
240.203308	147.660000
240.296082	147.480000
240.388855	147.260000
240.481628	147.440000
240.574417	147.160000
240.667191	147.260000
240.759964	147.020000
240.852737	146.780000
240.945526	146.140000
241.038315	145.940000
241.131088	146.180000
241.223877	146.420000
241.316650	146.200000
241.409439	146.460000
241.502228	146.220000
241.595001	146.580000
241.687790	146.300000
241.780579	146.560000
241.873367	146.640000
241.966141	146.660000
242.058929	146.280000
242.151718	146.500000
242.244507	146.840000
242.337311	146.220000
242.430099	146.980000
242.522903	147.220000
242.615692	146.940000
242.708481	146.880000
242.801270	147.260000
242.894073	146.740000
242.986862	146.520000
243.079651	146.980000
243.172455	146.700000
243.265244	147.080000
243.358063	146.840000
243.450867	147.260000
243.543655	147.260000
243.636459	147.340000
243.729263	147.300000
243.822067	147.600000
243.914856	147.660000
244.007660	147.540000
244.100464	147.560000
244.193268	146.780000
244.286072	146.700000
244.378876	145.940000
244.471680	145.480000
244.564499	145.420000
244.657318	146.460000
244.750122	146.640000
244.842926	146.100000
244.935745	146.620000
245.028549	146.740000
245.121368	146.300000
245.214172	145.900000
245.306992	146.820000
245.399796	146.380000
245.492615	146.480000
245.585434	146.220000
245.678253	146.660000
245.771072	146.300000
245.863892	146.920000
245.956711	147.120000
246.049530	147.160000
246.142349	146.580000
246.235168	146.620000
246.327988	146.920000
246.420807	146.520000
246.513626	146.360000
246.606445	146.460000
246.699280	146.420000
246.792099	145.740000
246.884918	145.100000
246.977753	144.780000
247.070587	144.920000
247.163422	145.080000
247.256241	145.300000
247.349075	146.160000
247.441895	146.560000
247.534729	146.220000
247.627563	145.760000
247.720383	146.380000
247.813217	146.240000
247.906052	146.180000
247.998886	146.620000
248.091736	146.720000
248.184570	146.180000
248.277405	146.240000
248.370239	147.280000
248.463074	148.080000
248.555908	148.420000
248.648743	148.300000
248.741592	148.460000
248.834427	147.400000
248.927261	146.040000
249.020111	146.400000
249.112946	146.900000
249.205795	146.360000
249.298630	146.460000
249.391495	146.780000
249.484344	146.360000
249.577179	145.940000
249.670029	146.420000
249.762878	147.040000
249.855728	147.300000
249.948563	147.540000
250.041412	147.280000
250.134262	147.360000
250.227112	147.340000
250.319962	147.520000
250.412827	147.720000
250.505692	147.240000
250.598541	147.000000
250.691391	146.560000
250.784241	146.080000
250.877106	145.740000
250.969955	146.080000
251.062805	146.520000
251.155670	147.000000
251.248520	147.020000
251.341385	147.300000
251.434235	147.220000
251.527100	146.540000
251.619965	145.800000
251.712814	146.800000
251.805695	146.540000
251.898560	146.920000
251.991425	147.560000
252.084290	147.940000
252.177155	146.940000
252.270020	146.660000
252.362885	146.660000
252.455750	146.320000
252.548615	146.040000
252.641479	146.080000
252.734360	146.060000
252.827240	145.800000
252.920105	145.940000
253.012970	145.840000
253.105850	145.860000
253.198715	145.480000
253.291595	145.400000
253.384460	145.000000
253.477341	145.160000
253.570221	145.120000
253.663086	145.160000
253.755966	145.800000
253.848846	146.100000
253.941727	146.460000
254.034592	146.480000
254.127472	146.380000
254.220367	146.200000
254.313248	146.100000
254.406128	145.540000
254.499008	145.780000
254.591904	146.920000
254.684784	147.340000
254.777664	147.620000
254.870544	147.380000
254.963440	147.300000
255.056335	147.000000
255.149216	146.240000
255.242111	146.300000
255.334991	146.800000
255.427887	146.680000
255.520767	146.700000
255.613663	146.920000
255.706558	146.360000
255.799438	146.120000
255.892334	146.080000
255.985229	145.900000
256.078125	145.860000
256.171021	146.060000
256.263916	146.520000
256.356812	146.860000
256.449707	146.900000
256.542603	146.900000
256.635498	147.240000
256.728394	147.040000
256.821289	146.740000
256.914215	146.920000
257.007080	147.300000
257.100006	147.200000
257.192932	147.580000
257.285828	147.740000
257.378723	147.260000
257.471619	147.000000
257.564545	146.560000
257.657440	146.460000
257.750336	146.740000
257.843262	146.440000
257.936157	147.260000
258.029053	147.700000
258.121979	147.700000
258.214874	147.260000
258.307800	147.580000
258.400696	146.580000
258.493622	146.500000
258.586517	145.800000
258.679443	146.140000
258.772339	145.880000
258.865265	145.920000
258.958160	145.420000
259.051086	146.300000
259.144012	146.180000
259.236938	146.900000
259.329834	146.840000
259.422791	147.200000
259.515717	146.280000
259.608612	145.920000
259.701538	145.980000
259.794464	146.120000
259.887390	145.980000
259.980316	146.600000
260.073212	146.560000
260.166138	145.380000
260.259064	145.800000
260.351990	146.340000
260.444916	145.840000
260.537842	146.280000
260.630768	147.340000
260.723694	146.960000
260.816620	146.600000
260.909546	146.820000
261.002472	146.360000
261.095398	145.740000
261.188354	145.640000
261.281281	145.400000
261.374207	145.420000
261.467133	146.360000
261.560089	146.880000
261.653015	146.820000
261.745972	147.700000
261.838867	148.040000
261.931824	148.020000
262.024780	147.480000
262.117706	147.660000
262.210663	147.600000
262.303589	147.300000
262.396515	146.920000
262.489471	147.800000
262.582397	147.700000
262.675354	146.880000
262.768280	146.680000
262.861237	146.600000
262.954163	146.580000
263.047119	146.580000
263.140045	146.500000
263.233002	146.620000
263.325958	146.360000
263.418884	145.500000
263.511841	145.380000
263.604797	145.440000
263.697723	145.900000
263.790680	146.160000
263.883636	146.800000
263.976593	146.660000
264.069550	147.020000
264.162476	146.580000
264.255463	146.480000
264.348419	146.120000
264.441376	146.840000
264.534332	145.980000
264.627289	145.880000
264.720245	146.420000
264.813202	146.060000
264.906158	146.040000
264.999115	147.100000
265.092072	147.360000
265.185028	147.460000
265.277985	148.140000
265.370941	147.560000
265.463898	147.100000
265.556854	146.760000
265.649811	145.980000
265.742798	145.620000
265.835754	146.000000
265.928711	146.260000
266.021667	146.360000
266.114655	146.860000
266.207611	147.420000
266.300568	146.700000
266.393585	146.420000
266.486511	146.660000
266.579498	145.800000
266.672485	145.480000
266.765442	145.500000
266.858429	146.120000
266.951385	145.760000
267.044342	145.980000
267.137329	145.900000
267.230316	146.640000
267.323273	145.920000
267.416260	146.620000
267.509216	146.680000
267.602203	146.540000
267.695160	146.560000
267.788147	146.780000
267.881134	146.200000
267.974091	146.660000
268.067078	146.460000
268.160065	146.280000
268.253052	146.200000
268.346008	146.240000
268.438995	146.060000
268.531982	146.260000
268.624969	145.940000
268.717987	146.380000
268.810944	146.400000
268.903961	146.180000
268.996948	146.240000
269.089905	146.920000
269.182892	146.920000
269.275879	147.300000
269.368866	146.980000
269.461853	147.260000
269.554871	146.860000
269.647858	146.720000
269.740845	146.740000
269.833832	147.520000
269.926819	146.820000
270.019806	147.080000
270.112793	146.480000
270.205811	146.540000
270.298798	146.100000
270.391785	146.940000
270.484772	146.560000
270.577789	146.840000
270.670776	146.080000
270.763763	146.120000
270.856750	145.900000
270.949768	145.720000
271.042786	145.840000
271.135773	146.480000
271.228790	146.760000
271.321808	146.480000
271.414795	146.080000
271.507782	145.560000
271.600800	144.760000
271.693817	144.780000
271.786804	145.360000
271.879822	145.940000
271.972809	146.280000
272.065826	146.760000
272.158844	146.400000
272.251831	146.460000
272.344849	146.440000
272.437866	146.420000
272.530853	146.680000
272.623871	146.840000
272.716888	145.940000
272.809906	146.200000
272.902893	146.000000
272.995911	145.280000
273.088928	145.160000
273.181946	145.100000
273.274963	144.600000
273.367981	144.780000
273.460999	145.260000
273.554047	145.860000
273.647003	146.920000
273.740051	147.180000
273.833069	147.520000
273.926086	147.860000
274.019135	146.940000
274.112152	146.400000
274.205170	146.620000
274.298187	146.940000
274.391205	146.480000
274.484222	146.700000
274.577240	146.440000
274.670258	145.920000
274.763306	145.440000
274.856323	145.640000
274.949341	146.000000
275.042358	146.560000
275.135406	146.900000
275.228424	146.980000
275.321442	147.140000
275.414490	146.460000
275.507507	146.660000
275.600525	147.080000
275.693573	146.580000
275.786591	146.140000
275.879669	146.860000
275.972656	146.380000
276.065735	145.880000
276.158752	146.800000
276.251801	147.620000
276.344818	147.460000
276.437866	147.400000
276.530884	147.140000
276.623932	146.020000
276.716980	145.800000
276.809998	145.900000
276.903046	146.120000
276.996094	147.300000
277.089111	148.260000
277.182159	148.460000
277.275208	148.180000
277.368256	148.100000
277.461304	147.340000
277.554321	146.640000
277.647369	146.640000
277.740417	146.420000
277.833466	145.880000
277.926514	145.700000
278.019562	146.500000
278.112610	145.660000
278.205688	146.100000
278.298706	146.680000
278.391785	146.440000
278.484833	145.840000
278.577881	146.020000
278.670929	146.340000
278.763977	145.980000
278.857025	146.560000
278.950073	146.600000
279.043121	146.500000
279.136169	146.000000
279.229248	146.000000
279.322296	145.960000
279.415344	145.760000
279.508392	145.940000
279.601440	145.980000
279.694519	145.820000
279.787567	145.560000
279.880615	145.600000
279.973694	145.240000
280.066742	145.380000
280.159790	145.720000
280.252869	145.560000
280.345917	145.560000
280.438995	145.840000
280.532074	145.680000
280.625122	146.020000
280.718201	146.920000
280.811279	146.960000
280.904327	147.160000
280.997406	147.460000
281.090454	147.160000
281.183533	146.280000
281.276581	146.260000
281.369659	145.660000
281.462738	145.600000
281.555786	145.760000
281.648865	146.120000
281.741943	146.020000
281.835022	146.900000
281.928070	146.440000
282.021149	146.140000
282.114227	145.760000
282.207306	146.080000
282.300385	145.960000
282.393433	146.460000
282.486511	146.700000
282.579590	147.360000
282.672668	147.700000
282.765747	147.220000
282.858856	146.940000
282.951904	146.900000
283.045013	147.000000
283.138062	147.160000
283.231171	147.480000
283.324249	147.880000
283.417328	148.100000
283.510406	147.420000
283.603485	146.960000
283.696564	146.960000
283.789642	146.880000
283.882751	146.460000
283.975830	147.120000
284.068909	146.860000
284.161987	147.520000
284.255066	147.020000
284.348175	147.180000
284.441254	146.860000
284.534332	147.420000
284.627441	146.760000
284.720520	146.840000
284.813599	147.040000
284.906708	147.140000
284.999786	146.340000
285.092896	146.040000
285.185974	146.900000
285.279053	146.280000
285.372192	146.140000
285.465240	146.920000
285.558380	146.940000
285.651459	146.380000
285.744568	147.520000
285.837677	147.180000
285.930756	146.840000
286.023865	147.020000
286.116943	146.820000
286.210052	146.500000
286.303162	146.840000
286.396240	146.920000
286.489349	146.660000
286.582458	147.160000
286.675568	146.760000
286.768646	146.500000
286.861755	146.780000
286.954865	147.420000
287.047974	146.760000
287.141083	146.940000
287.234161	146.940000
287.327271	146.380000
287.420380	146.580000
287.513519	146.700000
287.606598	146.580000
287.699738	146.800000
287.792816	146.960000
287.885956	146.480000
287.979034	146.480000
288.072174	146.660000
288.165283	146.480000
288.258392	146.540000
288.351501	146.240000
288.444611	146.560000
288.537720	146.700000
288.630859	146.800000
288.723969	147.140000
288.817078	147.280000
288.910187	146.800000
289.003296	146.080000
289.096436	145.500000
289.189545	145.260000
289.282654	144.980000
289.375763	145.500000
289.468903	145.960000
289.562012	146.680000
289.655121	146.520000
289.748260	146.940000
289.841400	147.220000
289.934509	147.300000
290.027649	147.100000
290.120728	147.020000
290.213898	146.760000
290.306976	146.460000
290.400146	146.340000
290.493256	145.880000
290.586395	146.080000
290.679535	146.420000
290.772644	145.740000
290.865784	145.040000
290.958893	145.240000
291.052032	145.140000
291.145172	145.120000
291.238281	145.260000
291.331421	145.680000
291.424561	146.220000
291.517670	146.220000
291.610809	146.320000
291.703949	146.560000
291.797089	146.840000
291.890228	146.180000
291.983337	146.100000
292.076477	145.820000
292.169617	146.020000
292.262756	145.800000
292.355927	146.040000
292.449036	145.720000
292.542206	146.080000
292.635315	146.260000
292.728485	146.500000
292.821625	146.300000
292.914764	147.600000
293.007904	147.180000
293.101044	146.740000
293.194183	146.760000
293.287323	147.000000
293.380463	145.920000
293.473602	145.840000
293.566742	145.960000
293.659882	146.040000
293.753021	146.160000
293.846191	146.420000
293.939331	146.280000
294.032471	146.380000
294.125610	146.240000
294.218781	146.560000
294.311920	146.920000
294.405060	146.980000
294.498230	146.800000
294.591370	146.720000
294.684540	146.040000
294.777679	145.260000
294.870850	146.040000
294.963959	145.800000
295.057159	145.700000
295.150299	145.800000
295.243469	146.080000
295.336609	145.460000
295.429779	145.840000
295.522919	146.420000
295.616089	146.820000
295.709229	147.460000
295.802399	147.720000
295.895569	147.480000
295.988708	147.020000
296.081879	146.820000
296.175018	145.940000
296.268188	145.880000
296.361359	146.200000
296.454529	146.300000
296.547668	146.460000
296.640839	146.840000
296.734009	146.660000
296.827179	146.700000
296.920319	147.060000
297.013519	146.680000
297.106659	146.760000
297.199860	146.620000
297.292999	146.740000
297.386200	146.420000
297.479309	146.420000
297.572510	146.560000
297.665680	146.400000
297.758850	146.260000
297.852020	146.180000
297.945190	146.240000
298.038361	145.980000
298.131531	146.920000
298.224701	146.340000
298.317871	146.040000
298.411072	145.600000
298.504242	145.540000
298.597412	144.720000
298.690582	145.540000
298.783752	145.700000
298.876923	146.120000
298.970093	146.220000
299.063293	146.880000
299.156464	147.180000
299.249634	147.340000
299.342834	147.680000
299.436005	147.600000
299.529205	147.400000
299.622345	147.040000
299.715576	146.380000
299.808716	145.940000
299.901917	146.120000
299.995117	146.200000
300.088287	146.200000
300.181488	146.320000
300.274658	146.180000
300.367828	146.080000
300.461029	145.940000
300.554199	146.280000
300.647400	146.360000
300.740601	147.220000
300.833771	147.020000
300.926971	147.280000
301.020142	146.360000
301.113342	146.620000
301.206512	146.260000
301.299713	146.860000
301.392914	146.580000
301.486084	147.220000
301.579285	147.140000
301.672516	147.320000
301.765686	146.740000
301.858887	146.780000
301.952057	146.360000
302.045288	146.340000
302.138458	145.920000
302.231659	145.780000
302.324860	145.760000
302.418060	145.940000
302.511261	145.660000
302.604462	146.060000
302.697662	146.060000
302.790863	145.680000
302.884064	145.240000
302.977264	145.600000
303.070465	145.580000
303.163666	146.160000
303.256866	146.520000
303.350067	146.720000
303.443268	146.740000
303.536469	146.840000
303.629669	146.460000
303.722870	146.820000
303.816071	146.460000
303.909271	146.220000
304.002472	145.560000
304.095673	145.420000
304.188934	144.480000
304.282104	145.540000
304.375336	145.940000
304.468506	146.000000
304.561768	145.920000
304.654968	146.660000
304.748169	145.900000
304.841370	145.500000
304.934601	145.800000
305.027802	145.700000
305.121002	145.220000
305.214233	145.480000
305.307434	145.760000
305.400665	146.380000
305.493866	146.660000
