Model Number: SPM-002-B   
Serial Number: 70087108
Firmware Version: 004.15.4
Exposure Time: 100000.000000us
Data Taken on: 11-12-2020 19:36:52.187
Wavelength	Amplitude
221.570786	0.000000
221.663406	0.000000
221.756027	0.000000
221.848648	0.000000
221.941269	0.000000
222.033905	0.000000
222.126526	0.000000
222.219162	0.000000
222.311798	0.000000
222.404419	0.000000
222.497055	0.000000
222.589676	0.000000
222.682312	0.000000
222.774933	0.000000
222.867569	0.000000
222.960205	0.000000
223.052841	0.000000
223.145462	0.000000
223.238098	0.000000
223.330734	0.000000
223.423386	0.000000
223.516022	0.000000
223.608658	0.000000
223.701309	0.000000
223.793945	0.000000
223.886581	0.000000
223.979218	0.000000
224.071869	0.000000
224.164505	0.000000
224.257156	0.000000
224.349792	0.000000
224.442444	0.000000
224.535095	0.000000
224.627747	0.000000
224.720398	0.000000
224.813034	0.000000
224.905685	0.000000
224.998337	145.660000
225.090988	145.580000
225.183640	145.360000
225.276291	144.720000
225.368942	145.220000
225.461594	145.900000
225.554245	146.260000
225.646912	146.380000
225.739578	147.280000
225.832230	147.500000
225.924896	146.820000
226.017548	147.040000
226.110199	147.460000
226.202866	146.900000
226.295532	146.480000
226.388184	146.440000
226.480850	145.940000
226.573517	145.360000
226.666168	145.480000
226.758835	145.720000
226.851501	146.360000
226.944183	146.240000
227.036850	145.980000
227.129517	145.900000
227.222183	146.200000
227.314850	146.020000
227.407516	146.440000
227.500198	147.440000
227.592865	147.360000
227.685532	146.600000
227.778214	146.600000
227.870880	146.980000
227.963562	147.080000
228.056229	147.340000
228.148926	147.640000
228.241592	148.120000
228.334274	147.540000
228.426956	146.920000
228.519638	147.180000
228.612305	146.800000
228.704987	146.740000
228.797668	146.780000
228.890350	146.540000
228.983032	145.740000
229.075714	146.440000
229.168396	146.100000
229.261108	145.760000
229.353790	145.980000
229.446472	146.340000
229.539169	146.020000
229.631851	145.460000
229.724533	145.920000
229.817230	146.000000
229.909912	146.880000
230.002609	146.820000
230.095306	147.180000
230.187988	146.900000
230.280685	146.660000
230.373383	145.380000
230.466095	145.300000
230.558792	145.560000
230.651474	145.620000
230.744171	145.440000
230.836868	145.580000
230.929581	145.760000
231.022278	145.920000
231.114975	146.140000
231.207672	146.260000
231.300369	146.800000
231.393082	146.880000
231.485779	146.660000
231.578506	146.480000
231.671204	146.840000
231.763916	146.640000
231.856613	146.660000
231.949326	146.700000
232.042023	146.640000
232.134735	146.640000
232.227448	146.200000
232.320160	146.280000
232.412872	146.380000
232.505585	147.100000
232.598297	147.320000
232.691010	147.520000
232.783722	146.880000
232.876450	147.360000
232.969162	146.500000
233.061874	145.800000
233.154587	145.300000
233.247314	145.640000
233.340027	144.980000
233.432739	145.640000
233.525467	145.760000
233.618179	146.260000
233.710907	146.040000
233.803635	146.260000
233.896347	145.820000
233.989090	146.460000
234.081818	146.560000
234.174545	146.820000
234.267258	146.560000
234.359985	146.900000
234.452713	146.360000
234.545441	146.260000
234.638168	146.380000
234.730896	146.720000
234.823639	146.480000
234.916367	147.240000
235.009094	147.400000
235.101822	147.280000
235.194580	147.040000
235.287308	146.940000
235.380051	146.120000
235.472778	146.400000
235.565521	146.520000
235.658249	146.440000
235.750992	146.580000
235.843719	146.440000
235.936462	146.060000
236.029205	145.820000
236.121948	145.360000
236.214691	145.660000
236.307449	146.320000
236.400192	146.400000
236.492935	146.320000
236.585678	146.680000
236.678421	146.600000
236.771164	146.280000
236.863907	146.480000
236.956665	146.560000
237.049408	148.160000
237.142151	147.380000
237.234909	148.140000
237.327652	148.380000
237.420410	148.120000
237.513153	146.920000
237.605927	147.140000
237.698669	146.400000
237.791428	145.500000
237.884186	146.200000
237.976944	145.660000
238.069702	146.120000
238.162445	145.880000
238.255203	146.080000
238.347961	146.180000
238.440720	146.220000
238.533478	145.960000
238.626266	145.760000
238.719025	146.260000
238.811783	146.060000
238.904541	145.640000
238.997314	145.700000
239.090073	145.580000
239.182831	145.660000
239.275604	146.180000
239.368362	146.640000
239.461136	146.480000
239.553909	146.860000
239.646667	146.240000
239.739441	145.620000
239.832214	145.880000
239.925003	146.340000
240.017761	146.460000
240.110535	147.220000
240.203308	146.800000
240.296082	146.700000
240.388855	146.480000
240.481628	146.740000
240.574417	146.600000
240.667191	146.900000
240.759964	146.600000
240.852737	146.680000
240.945526	146.360000
241.038315	145.940000
241.131088	146.200000
241.223877	146.380000
241.316650	145.800000
241.409439	146.000000
241.502228	145.880000
241.595001	146.140000
241.687790	146.160000
241.780579	146.420000
241.873367	146.460000
241.966141	147.000000
242.058929	146.460000
242.151718	146.760000
242.244507	147.020000
242.337311	146.400000
242.430099	146.580000
242.522903	146.780000
242.615692	146.240000
242.708481	146.180000
242.801270	146.480000
242.894073	146.320000
242.986862	146.280000
243.079651	146.800000
243.172455	146.480000
243.265244	146.780000
243.358063	145.960000
243.450867	146.180000
243.543655	146.240000
243.636459	146.340000
243.729263	146.520000
243.822067	147.060000
243.914856	147.280000
244.007660	147.420000
244.100464	147.700000
244.193268	147.120000
244.286072	147.080000
244.378876	146.660000
244.471680	146.020000
244.564499	146.180000
244.657318	146.780000
244.750122	147.080000
244.842926	146.520000
244.935745	146.940000
245.028549	146.360000
245.121368	145.980000
245.214172	145.900000
245.306992	146.420000
245.399796	146.120000
245.492615	146.420000
245.585434	146.200000
245.678253	146.060000
245.771072	146.040000
245.863892	146.460000
245.956711	146.740000
246.049530	146.740000
246.142349	146.600000
246.235168	146.920000
246.327988	147.180000
246.420807	146.780000
246.513626	147.020000
246.606445	147.060000
246.699280	146.540000
246.792099	146.140000
246.884918	146.240000
246.977753	146.040000
247.070587	146.100000
247.163422	146.040000
247.256241	146.080000
247.349075	146.260000
247.441895	146.300000
247.534729	146.080000
247.627563	146.160000
247.720383	146.640000
247.813217	146.620000
247.906052	146.840000
247.998886	147.140000
248.091736	146.960000
248.184570	146.500000
248.277405	146.380000
248.370239	147.200000
248.463074	148.020000
248.555908	148.400000
248.648743	148.180000
248.741592	148.200000
248.834427	147.240000
248.927261	146.040000
249.020111	146.580000
249.112946	147.220000
249.205795	146.920000
249.298630	147.120000
249.391495	147.060000
249.484344	146.440000
249.577179	146.220000
249.670029	146.440000
249.762878	146.820000
249.855728	147.420000
249.948563	147.340000
250.041412	146.860000
250.134262	147.280000
250.227112	147.000000
250.319962	146.700000
250.412827	146.800000
250.505692	146.580000
250.598541	146.240000
250.691391	145.760000
250.784241	145.880000
250.877106	146.060000
250.969955	145.940000
251.062805	146.360000
251.155670	147.020000
251.248520	146.880000
251.341385	146.860000
251.434235	147.160000
251.527100	146.840000
251.619965	146.480000
251.712814	146.920000
251.805695	146.780000
251.898560	146.820000
251.991425	146.920000
252.084290	147.020000
252.177155	146.620000
252.270020	146.580000
252.362885	146.380000
252.455750	146.320000
252.548615	145.920000
252.641479	145.960000
252.734360	145.940000
252.827240	145.840000
252.920105	146.060000
253.012970	145.980000
253.105850	145.480000
253.198715	145.500000
253.291595	145.800000
253.384460	145.380000
253.477341	145.520000
253.570221	146.220000
253.663086	145.640000
253.755966	146.680000
253.848846	146.720000
253.941727	147.100000
254.034592	146.780000
254.127472	146.580000
254.220367	145.760000
254.313248	145.940000
254.406128	145.580000
254.499008	145.840000
254.591904	146.760000
254.684784	147.380000
254.777664	147.320000
254.870544	147.100000
254.963440	146.920000
255.056335	147.120000
255.149216	146.400000
255.242111	146.660000
255.334991	147.120000
255.427887	147.240000
255.520767	146.940000
255.613663	147.140000
255.706558	146.720000
255.799438	146.520000
255.892334	146.220000
255.985229	146.220000
256.078125	146.200000
256.171021	146.160000
256.263916	146.440000
256.356812	146.720000
256.449707	146.920000
256.542603	146.520000
256.635498	146.840000
256.728394	146.540000
256.821289	146.440000
256.914215	146.540000
257.007080	146.760000
257.100006	146.860000
257.192932	147.260000
257.285828	147.360000
257.378723	146.920000
257.471619	146.600000
257.564545	145.840000
257.657440	145.840000
257.750336	146.360000
257.843262	146.120000
257.936157	147.540000
258.029053	148.280000
258.121979	148.120000
258.214874	147.320000
258.307800	147.740000
258.400696	146.500000
258.493622	146.200000
258.586517	145.540000
258.679443	146.000000
258.772339	145.440000
258.865265	145.600000
258.958160	145.300000
259.051086	146.480000
259.144012	146.100000
259.236938	147.180000
259.329834	147.180000
259.422791	147.240000
259.515717	146.240000
259.608612	146.440000
259.701538	146.240000
259.794464	145.960000
259.887390	146.080000
259.980316	146.060000
260.073212	145.700000
260.166138	144.620000
260.259064	145.260000
260.351990	145.720000
260.444916	145.920000
260.537842	146.520000
260.630768	147.480000
260.723694	147.120000
260.816620	146.980000
260.909546	147.100000
261.002472	146.740000
261.095398	146.320000
261.188354	146.220000
261.281281	145.920000
261.374207	146.020000
261.467133	146.580000
261.560089	146.620000
261.653015	146.700000
261.745972	147.240000
261.838867	147.280000
261.931824	147.500000
262.024780	146.820000
262.117706	147.000000
262.210663	147.100000
262.303589	147.120000
262.396515	146.920000
262.489471	148.380000
262.582397	148.180000
262.675354	147.420000
262.768280	147.480000
262.861237	147.160000
262.954163	146.640000
263.047119	146.780000
263.140045	146.700000
263.233002	146.640000
263.325958	146.540000
263.418884	146.080000
263.511841	146.080000
263.604797	146.040000
263.697723	146.240000
263.790680	146.180000
263.883636	146.860000
263.976593	146.660000
264.069550	147.200000
264.162476	147.040000
264.255463	147.260000
264.348419	146.760000
264.441376	147.160000
264.534332	146.620000
264.627289	146.620000
264.720245	146.960000
264.813202	146.460000
264.906158	146.460000
264.999115	147.160000
265.092072	146.780000
265.185028	147.020000
265.277985	147.680000
265.370941	147.440000
265.463898	146.980000
265.556854	147.040000
265.649811	145.980000
265.742798	146.100000
265.835754	146.100000
265.928711	146.540000
266.021667	146.820000
266.114655	147.280000
266.207611	147.380000
266.300568	147.020000
266.393585	146.540000
266.486511	146.580000
266.579498	146.040000
266.672485	145.620000
266.765442	145.920000
266.858429	146.460000
266.951385	146.280000
267.044342	146.520000
267.137329	146.520000
267.230316	146.520000
267.323273	145.920000
267.416260	146.580000
267.509216	146.460000
267.602203	146.420000
267.695160	146.980000
267.788147	147.040000
267.881134	146.120000
267.974091	146.540000
268.067078	146.440000
268.160065	145.800000
268.253052	145.960000
268.346008	146.320000
268.438995	145.860000
268.531982	145.980000
268.624969	145.900000
268.717987	146.140000
268.810944	145.980000
268.903961	146.220000
268.996948	145.880000
269.089905	146.480000
269.182892	146.420000
269.275879	146.880000
269.368866	146.440000
269.461853	146.900000
269.554871	146.500000
269.647858	146.500000
269.740845	146.480000
269.833832	146.940000
269.926819	146.660000
270.019806	146.880000
270.112793	146.260000
270.205811	146.300000
270.298798	146.180000
270.391785	146.840000
270.484772	146.260000
270.577789	146.640000
270.670776	146.020000
270.763763	145.920000
270.856750	145.700000
270.949768	145.540000
271.042786	145.580000
271.135773	145.940000
271.228790	146.380000
271.321808	145.960000
271.414795	145.800000
271.507782	145.520000
271.600800	145.180000
271.693817	145.260000
271.786804	146.020000
271.879822	146.800000
271.972809	146.940000
272.065826	147.480000
272.158844	146.960000
272.251831	146.920000
272.344849	146.320000
272.437866	146.160000
272.530853	146.020000
272.623871	146.100000
272.716888	145.140000
272.809906	145.840000
272.902893	145.860000
272.995911	145.320000
273.088928	145.380000
273.181946	145.840000
273.274963	145.400000
273.367981	145.580000
273.460999	145.900000
273.554047	146.340000
273.647003	146.740000
273.740051	146.880000
273.833069	147.260000
273.926086	147.540000
274.019135	146.940000
274.112152	146.600000
274.205170	146.500000
274.298187	146.380000
274.391205	145.920000
274.484222	146.340000
274.577240	146.000000
274.670258	146.180000
274.763306	146.240000
274.856323	146.740000
274.949341	146.620000
275.042358	147.400000
275.135406	147.140000
275.228424	146.740000
275.321442	146.740000
275.414490	146.280000
275.507507	146.260000
275.600525	146.760000
275.693573	146.800000
275.786591	146.320000
275.879669	146.620000
275.972656	146.240000
276.065735	146.120000
276.158752	146.780000
276.251801	147.640000
276.344818	147.680000
276.437866	147.600000
276.530884	147.220000
276.623932	146.260000
276.716980	146.080000
276.809998	146.100000
276.903046	146.420000
276.996094	147.240000
277.089111	147.900000
277.182159	148.000000
277.275208	147.740000
277.368256	147.480000
277.461304	147.120000
277.554321	146.420000
277.647369	145.980000
277.740417	146.140000
277.833466	145.980000
277.926514	145.520000
278.019562	146.180000
278.112610	145.800000
278.205688	146.140000
278.298706	146.360000
278.391785	146.340000
278.484833	145.840000
278.577881	146.100000
278.670929	146.200000
278.763977	146.240000
278.857025	146.720000
278.950073	146.900000
279.043121	146.340000
279.136169	146.100000
279.229248	145.560000
279.322296	145.440000
279.415344	145.360000
279.508392	145.640000
279.601440	145.680000
279.694519	146.020000
279.787567	146.040000
279.880615	145.920000
279.973694	146.000000
280.066742	146.000000
280.159790	146.020000
280.252869	145.840000
280.345917	146.320000
280.438995	146.340000
280.532074	146.160000
280.625122	146.620000
280.718201	147.240000
280.811279	147.020000
280.904327	146.940000
280.997406	147.220000
281.090454	147.260000
281.183533	146.540000
281.276581	146.400000
281.369659	146.120000
281.462738	145.980000
281.555786	145.700000
281.648865	145.900000
281.741943	145.800000
281.835022	146.660000
281.928070	146.380000
282.021149	145.940000
282.114227	145.640000
282.207306	145.520000
282.300385	145.420000
282.393433	145.540000
282.486511	145.720000
282.579590	146.180000
282.672668	146.660000
282.765747	146.120000
282.858856	145.960000
282.951904	146.280000
283.045013	146.560000
283.138062	146.760000
283.231171	147.060000
283.324249	147.620000
283.417328	147.640000
283.510406	146.940000
283.603485	146.740000
283.696564	146.620000
283.789642	146.360000
283.882751	146.040000
283.975830	146.520000
284.068909	146.060000
284.161987	146.860000
284.255066	146.480000
284.348175	146.720000
284.441254	146.660000
284.534332	147.260000
284.627441	146.520000
284.720520	146.480000
284.813599	146.660000
284.906708	146.800000
284.999786	146.240000
285.092896	146.120000
285.185974	147.480000
285.279053	146.700000
285.372192	146.720000
285.465240	147.320000
285.558380	147.200000
285.651459	146.200000
285.744568	147.160000
285.837677	146.700000
285.930756	146.600000
286.023865	146.560000
286.116943	146.040000
286.210052	146.000000
286.303162	146.000000
286.396240	146.000000
286.489349	146.040000
286.582458	146.580000
286.675568	146.320000
286.768646	146.300000
286.861755	146.500000
286.954865	147.400000
287.047974	147.140000
287.141083	146.640000
287.234161	146.620000
287.327271	146.400000
287.420380	146.180000
287.513519	146.220000
287.606598	146.600000
287.699738	147.060000
287.792816	146.720000
287.885956	146.460000
287.979034	146.480000
288.072174	146.620000
288.165283	146.080000
288.258392	146.460000
288.351501	146.060000
288.444611	146.340000
288.537720	146.660000
288.630859	146.740000
288.723969	146.620000
288.817078	147.200000
288.910187	146.700000
289.003296	145.860000
289.096436	145.380000
289.189545	145.200000
289.282654	144.620000
289.375763	145.220000
289.468903	145.820000
289.562012	146.620000
289.655121	146.760000
289.748260	147.020000
289.841400	147.360000
289.934509	147.280000
290.027649	147.300000
290.120728	147.040000
290.213898	147.060000
290.306976	146.480000
290.400146	146.480000
290.493256	145.800000
290.586395	146.120000
290.679535	146.500000
290.772644	146.420000
290.865784	145.540000
290.958893	145.800000
291.052032	145.660000
291.145172	145.560000
291.238281	145.500000
291.331421	145.900000
291.424561	146.420000
291.517670	146.160000
291.610809	146.260000
291.703949	146.080000
291.797089	146.340000
291.890228	145.760000
291.983337	145.980000
292.076477	145.680000
292.169617	146.020000
292.262756	146.200000
292.355927	146.460000
292.449036	146.060000
292.542206	145.980000
292.635315	146.300000
292.728485	146.400000
292.821625	146.040000
292.914764	147.280000
293.007904	147.520000
293.101044	147.140000
293.194183	146.960000
293.287323	147.280000
293.380463	146.640000
293.473602	146.340000
293.566742	146.840000
293.659882	147.420000
293.753021	147.500000
293.846191	147.200000
293.939331	147.100000
294.032471	146.720000
294.125610	146.080000
294.218781	146.580000
294.311920	147.340000
294.405060	147.260000
294.498230	146.900000
294.591370	146.940000
294.684540	145.940000
294.777679	145.060000
294.870850	145.540000
294.963959	145.720000
295.057159	145.880000
295.150299	146.420000
295.243469	146.240000
295.336609	145.980000
295.429779	146.200000
295.522919	146.240000
295.616089	146.320000
295.709229	147.180000
295.802399	147.440000
295.895569	147.140000
295.988708	146.800000
296.081879	146.880000
296.175018	146.400000
296.268188	146.140000
296.361359	146.560000
296.454529	146.760000
296.547668	146.340000
296.640839	146.740000
296.734009	146.460000
296.827179	146.620000
296.920319	146.840000
297.013519	146.940000
297.106659	147.020000
297.199860	147.260000
297.292999	146.940000
297.386200	146.500000
297.479309	146.320000
297.572510	145.940000
297.665680	145.760000
297.758850	145.520000
297.852020	145.760000
297.945190	145.680000
298.038361	145.440000
298.131531	146.200000
298.224701	146.420000
298.317871	145.920000
298.411072	145.600000
298.504242	145.700000
298.597412	145.260000
298.690582	145.460000
298.783752	145.740000
298.876923	146.400000
298.970093	146.340000
299.063293	146.700000
299.156464	146.760000
299.249634	147.220000
299.342834	147.540000
299.436005	147.840000
299.529205	147.580000
299.622345	147.760000
299.715576	146.920000
299.808716	146.060000
299.901917	146.260000
299.995117	146.380000
300.088287	146.120000
300.181488	146.260000
300.274658	146.540000
300.367828	146.480000
300.461029	146.520000
300.554199	146.660000
300.647400	146.980000
300.740601	147.800000
300.833771	147.460000
300.926971	147.600000
301.020142	147.180000
301.113342	147.120000
301.206512	146.520000
301.299713	146.920000
301.392914	146.640000
301.486084	147.040000
301.579285	146.880000
301.672516	147.420000
301.765686	147.180000
301.858887	146.980000
301.952057	146.780000
302.045288	147.200000
302.138458	146.940000
302.231659	146.740000
302.324860	146.780000
302.418060	146.440000
302.511261	145.960000
302.604462	146.160000
302.697662	146.120000
302.790863	145.940000
302.884064	145.880000
302.977264	146.060000
303.070465	146.040000
303.163666	146.800000
303.256866	147.380000
303.350067	147.420000
303.443268	147.360000
303.536469	147.220000
303.629669	146.360000
303.722870	146.320000
303.816071	146.360000
303.909271	146.400000
304.002472	145.600000
304.095673	145.620000
304.188934	144.540000
304.282104	145.240000
304.375336	145.400000
304.468506	145.700000
304.561768	145.640000
304.654968	146.780000
304.748169	146.180000
304.841370	145.800000
304.934601	145.940000
305.027802	145.620000
305.121002	145.140000
305.214233	145.320000
305.307434	145.560000
305.400665	146.160000
305.493866	146.500000
