Model Number: SPM-002-B   
Serial Number: 70087108
Firmware Version: 004.15.4
Exposure Time: 100000.000000us
Data Taken on: 11-12-2020 19:37:08.454
Wavelength	Amplitude
221.570786	0.000000
221.663406	0.000000
221.756027	0.000000
221.848648	0.000000
221.941269	0.000000
222.033905	0.000000
222.126526	0.000000
222.219162	0.000000
222.311798	0.000000
222.404419	0.000000
222.497055	0.000000
222.589676	0.000000
222.682312	0.000000
222.774933	0.000000
222.867569	0.000000
222.960205	0.000000
223.052841	0.000000
223.145462	0.000000
223.238098	0.000000
223.330734	0.000000
223.423386	0.000000
223.516022	0.000000
223.608658	0.000000
223.701309	0.000000
223.793945	0.000000
223.886581	0.000000
223.979218	0.000000
224.071869	0.000000
224.164505	0.000000
224.257156	0.000000
224.349792	0.000000
224.442444	0.000000
224.535095	0.000000
224.627747	0.000000
224.720398	0.000000
224.813034	0.000000
224.905685	0.000000
224.998337	145.600000
225.090988	145.080000
225.183640	144.880000
225.276291	144.760000
225.368942	145.360000
225.461594	145.920000
225.554245	146.420000
225.646912	146.400000
225.739578	146.980000
225.832230	146.980000
225.924896	146.180000
226.017548	146.640000
226.110199	147.320000
226.202866	146.320000
226.295532	146.280000
226.388184	146.400000
226.480850	145.460000
226.573517	144.740000
226.666168	145.520000
226.758835	145.560000
226.851501	146.200000
226.944183	146.640000
227.036850	146.360000
227.129517	146.380000
227.222183	146.620000
227.314850	146.460000
227.407516	146.360000
227.500198	147.100000
227.592865	146.540000
227.685532	146.140000
227.778214	146.080000
227.870880	146.680000
227.963562	146.960000
228.056229	147.440000
228.148926	147.340000
228.241592	147.940000
228.334274	147.580000
228.426956	147.220000
228.519638	147.220000
228.612305	146.980000
228.704987	146.660000
228.797668	146.700000
228.890350	146.340000
228.983032	145.440000
229.075714	146.320000
229.168396	146.100000
229.261108	145.600000
229.353790	145.800000
229.446472	146.720000
229.539169	146.160000
229.631851	145.920000
229.724533	146.220000
229.817230	146.240000
229.909912	147.040000
230.002609	147.320000
230.095306	147.180000
230.187988	147.320000
230.280685	147.300000
230.373383	146.020000
230.466095	145.800000
230.558792	146.160000
230.651474	145.720000
230.744171	145.620000
230.836868	145.860000
230.929581	145.880000
231.022278	146.060000
231.114975	146.240000
231.207672	146.080000
231.300369	146.460000
231.393082	146.880000
231.485779	146.580000
231.578506	146.620000
231.671204	146.900000
231.763916	146.680000
231.856613	146.540000
231.949326	146.740000
232.042023	146.620000
232.134735	146.720000
232.227448	146.160000
232.320160	146.160000
232.412872	146.240000
232.505585	146.920000
232.598297	147.080000
232.691010	147.760000
232.783722	147.360000
232.876450	147.760000
232.969162	147.480000
233.061874	147.000000
233.154587	146.380000
233.247314	146.900000
233.340027	145.980000
233.432739	146.200000
233.525467	146.040000
233.618179	146.380000
233.710907	145.660000
233.803635	146.280000
233.896347	146.000000
233.989090	146.900000
234.081818	146.960000
234.174545	147.540000
234.267258	146.680000
234.359985	146.680000
234.452713	146.140000
234.545441	145.940000
234.638168	145.740000
234.730896	146.820000
234.823639	146.680000
234.916367	147.240000
235.009094	147.440000
235.101822	147.380000
235.194580	147.040000
235.287308	147.000000
235.380051	146.160000
235.472778	146.260000
235.565521	146.560000
235.658249	145.980000
235.750992	146.280000
235.843719	146.500000
235.936462	146.660000
236.029205	146.120000
236.121948	146.180000
236.214691	146.280000
236.307449	146.840000
236.400192	146.440000
236.492935	146.260000
236.585678	146.600000
236.678421	146.380000
236.771164	146.060000
236.863907	146.600000
236.956665	147.000000
237.049408	148.320000
237.142151	147.860000
237.234909	148.440000
237.327652	148.420000
237.420410	148.280000
237.513153	147.080000
237.605927	147.080000
237.698669	146.580000
237.791428	145.740000
237.884186	146.300000
237.976944	145.920000
238.069702	146.600000
238.162445	145.960000
238.255203	146.280000
238.347961	146.400000
238.440720	146.560000
238.533478	146.320000
238.626266	146.380000
238.719025	146.500000
238.811783	146.220000
238.904541	146.160000
238.997314	145.640000
239.090073	145.460000
239.182831	145.640000
239.275604	146.200000
239.368362	145.940000
239.461136	146.300000
239.553909	146.460000
239.646667	146.260000
239.739441	145.820000
239.832214	146.360000
239.925003	146.640000
240.017761	147.160000
240.110535	147.620000
240.203308	147.300000
240.296082	147.300000
240.388855	146.920000
240.481628	146.900000
240.574417	146.840000
240.667191	147.120000
240.759964	146.840000
240.852737	146.800000
240.945526	146.280000
241.038315	146.000000
241.131088	145.820000
241.223877	145.960000
241.316650	145.900000
241.409439	146.400000
241.502228	146.080000
241.595001	146.760000
241.687790	146.780000
241.780579	146.660000
241.873367	146.860000
241.966141	147.080000
242.058929	146.220000
242.151718	146.300000
242.244507	146.980000
242.337311	146.100000
242.430099	146.660000
242.522903	147.020000
242.615692	146.440000
242.708481	146.140000
242.801270	146.660000
242.894073	146.200000
242.986862	146.240000
243.079651	147.460000
243.172455	147.360000
243.265244	147.840000
243.358063	147.360000
243.450867	147.400000
243.543655	146.560000
243.636459	146.940000
243.729263	146.980000
243.822067	147.460000
243.914856	147.520000
244.007660	147.920000
244.100464	147.760000
244.193268	147.300000
244.286072	147.260000
244.378876	146.880000
244.471680	146.500000
244.564499	146.480000
244.657318	146.860000
244.750122	147.200000
244.842926	146.860000
244.935745	147.280000
245.028549	146.800000
245.121368	146.620000
245.214172	146.380000
245.306992	146.820000
245.399796	146.180000
245.492615	146.360000
245.585434	146.400000
245.678253	146.080000
245.771072	145.840000
245.863892	146.420000
245.956711	147.080000
246.049530	146.740000
246.142349	146.940000
246.235168	147.200000
246.327988	147.500000
246.420807	147.020000
246.513626	147.040000
246.606445	146.800000
246.699280	146.740000
246.792099	146.340000
246.884918	146.100000
246.977753	145.920000
247.070587	145.800000
247.163422	145.860000
247.256241	145.920000
247.349075	146.040000
247.441895	146.000000
247.534729	146.120000
247.627563	145.580000
247.720383	145.920000
247.813217	145.800000
247.906052	145.760000
247.998886	146.020000
248.091736	146.360000
248.184570	145.720000
248.277405	146.160000
248.370239	147.140000
248.463074	147.900000
248.555908	148.300000
248.648743	148.260000
248.741592	148.040000
248.834427	147.320000
248.927261	146.180000
249.020111	146.120000
249.112946	146.920000
249.205795	146.760000
249.298630	146.740000
249.391495	147.040000
249.484344	146.740000
249.577179	146.140000
249.670029	146.660000
249.762878	146.960000
249.855728	146.800000
249.948563	146.800000
250.041412	146.300000
250.134262	146.000000
250.227112	146.280000
250.319962	146.640000
250.412827	146.700000
250.505692	146.620000
250.598541	146.520000
250.691391	145.860000
250.784241	145.880000
250.877106	145.920000
250.969955	146.060000
251.062805	146.640000
251.155670	147.220000
251.248520	146.720000
251.341385	147.040000
251.434235	147.240000
251.527100	146.760000
251.619965	146.400000
251.712814	147.380000
251.805695	147.000000
251.898560	147.040000
251.991425	147.380000
252.084290	147.560000
252.177155	146.700000
252.270020	146.760000
252.362885	146.980000
252.455750	147.020000
252.548615	146.760000
252.641479	146.840000
252.734360	146.980000
252.827240	146.880000
252.920105	146.720000
253.012970	146.800000
253.105850	146.780000
253.198715	146.360000
253.291595	146.140000
253.384460	145.580000
253.477341	145.460000
253.570221	145.760000
253.663086	145.540000
253.755966	145.860000
253.848846	146.340000
253.941727	146.640000
254.034592	146.420000
254.127472	146.300000
254.220367	146.780000
254.313248	146.360000
254.406128	145.840000
254.499008	146.220000
254.591904	147.320000
254.684784	147.460000
254.777664	148.020000
254.870544	147.900000
254.963440	147.700000
255.056335	147.300000
255.149216	146.700000
255.242111	146.900000
255.334991	147.280000
255.427887	147.260000
255.520767	147.320000
255.613663	147.400000
255.706558	146.600000
255.799438	146.200000
255.892334	145.960000
255.985229	145.780000
256.078125	145.500000
256.171021	145.820000
256.263916	146.280000
256.356812	146.640000
256.449707	146.760000
256.542603	146.800000
256.635498	147.300000
256.728394	147.280000
256.821289	146.940000
256.914215	147.140000
257.007080	147.400000
257.100006	147.160000
257.192932	147.640000
257.285828	147.780000
257.378723	147.520000
257.471619	147.280000
257.564545	147.120000
257.657440	147.040000
257.750336	147.640000
257.843262	147.480000
257.936157	148.540000
258.029053	148.720000
258.121979	148.700000
258.214874	147.980000
258.307800	147.900000
258.400696	146.800000
258.493622	146.420000
258.586517	145.520000
258.679443	146.040000
258.772339	145.740000
258.865265	145.320000
258.958160	145.260000
259.051086	146.120000
259.144012	145.880000
259.236938	146.740000
259.329834	147.360000
259.422791	147.160000
259.515717	146.760000
259.608612	146.240000
259.701538	146.500000
259.794464	146.260000
259.887390	146.560000
259.980316	146.440000
260.073212	146.720000
260.166138	145.500000
260.259064	145.860000
260.351990	146.300000
260.444916	146.280000
260.537842	146.660000
260.630768	147.520000
260.723694	147.440000
260.816620	147.320000
260.909546	147.440000
261.002472	146.940000
261.095398	146.340000
261.188354	146.160000
261.281281	145.600000
261.374207	145.640000
261.467133	146.420000
261.560089	146.960000
261.653015	146.620000
261.745972	147.220000
261.838867	147.540000
261.931824	147.580000
262.024780	147.120000
262.117706	147.480000
262.210663	147.360000
262.303589	147.160000
262.396515	146.900000
262.489471	147.760000
262.582397	147.740000
262.675354	147.420000
262.768280	147.380000
262.861237	147.040000
262.954163	146.460000
263.047119	146.700000
263.140045	146.580000
263.233002	146.340000
263.325958	146.280000
263.418884	145.960000
263.511841	145.620000
263.604797	145.860000
263.697723	145.980000
263.790680	146.040000
263.883636	146.520000
263.976593	146.180000
264.069550	146.100000
264.162476	145.920000
264.255463	146.040000
264.348419	145.740000
264.441376	146.740000
264.534332	146.600000
264.627289	146.980000
264.720245	147.400000
264.813202	147.200000
264.906158	146.800000
264.999115	147.440000
265.092072	147.360000
265.185028	147.420000
265.277985	147.920000
265.370941	147.900000
265.463898	147.480000
265.556854	147.200000
265.649811	146.240000
265.742798	146.020000
265.835754	146.160000
265.928711	146.680000
266.021667	146.820000
266.114655	147.260000
266.207611	147.380000
266.300568	146.780000
266.393585	146.100000
266.486511	146.740000
266.579498	145.960000
266.672485	145.800000
266.765442	145.900000
266.858429	146.480000
266.951385	145.500000
267.044342	146.060000
267.137329	146.020000
267.230316	146.520000
267.323273	145.940000
267.416260	146.700000
267.509216	146.580000
267.602203	146.520000
267.695160	146.580000
267.788147	146.860000
267.881134	146.360000
267.974091	146.480000
268.067078	146.340000
268.160065	146.180000
268.253052	145.940000
268.346008	146.520000
268.438995	146.580000
268.531982	146.620000
268.624969	146.360000
268.717987	146.780000
268.810944	146.080000
268.903961	146.280000
268.996948	146.400000
269.089905	147.020000
269.182892	147.100000
269.275879	147.560000
269.368866	146.640000
269.461853	146.820000
269.554871	146.460000
269.647858	146.220000
269.740845	146.520000
269.833832	147.560000
269.926819	147.340000
270.019806	147.460000
270.112793	147.000000
270.205811	146.780000
270.298798	146.460000
270.391785	147.000000
270.484772	146.460000
270.577789	146.800000
270.670776	146.500000
270.763763	146.380000
270.856750	146.380000
270.949768	146.460000
271.042786	146.400000
271.135773	146.360000
271.228790	146.780000
271.321808	146.180000
271.414795	145.880000
271.507782	145.800000
271.600800	145.500000
271.693817	145.600000
271.786804	146.180000
271.879822	146.520000
271.972809	146.560000
272.065826	147.260000
272.158844	146.900000
272.251831	147.480000
272.344849	147.480000
272.437866	147.120000
272.530853	147.260000
272.623871	147.180000
272.716888	145.760000
272.809906	146.000000
272.902893	146.300000
272.995911	145.580000
273.088928	145.840000
273.181946	146.180000
273.274963	145.900000
273.367981	145.800000
273.460999	146.240000
273.554047	146.520000
273.647003	147.300000
273.740051	147.360000
273.833069	147.880000
273.926086	148.200000
274.019135	147.780000
274.112152	147.060000
274.205170	147.000000
274.298187	146.860000
274.391205	145.980000
274.484222	146.080000
274.577240	146.220000
274.670258	146.040000
274.763306	145.980000
274.856323	146.780000
274.949341	146.780000
275.042358	147.120000
275.135406	147.580000
275.228424	147.760000
275.321442	147.500000
275.414490	146.860000
275.507507	147.020000
275.600525	147.320000
275.693573	146.980000
275.786591	146.380000
275.879669	146.960000
275.972656	146.560000
276.065735	146.020000
276.158752	146.600000
276.251801	147.500000
276.344818	147.560000
276.437866	147.420000
276.530884	147.360000
276.623932	146.420000
276.716980	146.540000
276.809998	146.500000
276.903046	146.700000
276.996094	147.560000
277.089111	148.300000
277.182159	148.500000
277.275208	148.520000
277.368256	148.200000
277.461304	147.860000
277.554321	147.160000
277.647369	146.860000
277.740417	146.800000
277.833466	147.040000
277.926514	146.620000
278.019562	147.360000
278.112610	146.860000
278.205688	147.200000
278.298706	147.240000
278.391785	147.280000
278.484833	146.780000
278.577881	146.740000
278.670929	146.820000
278.763977	146.980000
278.857025	147.180000
278.950073	147.460000
279.043121	147.380000
279.136169	147.260000
279.229248	146.820000
279.322296	146.800000
279.415344	146.580000
279.508392	146.700000
279.601440	146.220000
279.694519	145.980000
279.787567	145.680000
279.880615	145.660000
279.973694	145.320000
280.066742	145.560000
280.159790	146.000000
280.252869	146.000000
280.345917	145.920000
280.438995	146.160000
280.532074	146.080000
280.625122	146.280000
280.718201	147.160000
280.811279	147.300000
280.904327	147.520000
280.997406	147.600000
281.090454	147.700000
281.183533	147.040000
281.276581	147.040000
281.369659	146.460000
281.462738	146.800000
281.555786	146.740000
281.648865	146.720000
281.741943	146.620000
281.835022	147.480000
281.928070	146.820000
282.021149	146.460000
282.114227	146.420000
282.207306	146.400000
282.300385	146.320000
282.393433	146.800000
282.486511	146.740000
282.579590	147.180000
282.672668	147.440000
282.765747	147.240000
282.858856	146.820000
282.951904	146.940000
283.045013	146.840000
283.138062	146.800000
283.231171	146.900000
283.324249	147.400000
283.417328	147.700000
283.510406	147.340000
283.603485	147.260000
283.696564	146.880000
283.789642	146.720000
283.882751	146.380000
283.975830	147.080000
284.068909	146.760000
284.161987	147.520000
284.255066	147.120000
284.348175	147.540000
284.441254	146.960000
284.534332	147.360000
284.627441	146.380000
284.720520	146.280000
284.813599	146.280000
284.906708	146.380000
284.999786	145.920000
285.092896	146.160000
285.185974	147.340000
285.279053	146.560000
285.372192	146.700000
285.465240	147.380000
285.558380	147.340000
285.651459	146.560000
285.744568	147.700000
285.837677	147.080000
285.930756	147.160000
286.023865	147.420000
286.116943	147.040000
286.210052	146.800000
286.303162	147.260000
286.396240	146.840000
286.489349	146.560000
286.582458	146.840000
286.675568	146.200000
286.768646	146.180000
286.861755	146.600000
286.954865	147.320000
287.047974	147.320000
287.141083	147.240000
287.234161	147.180000
287.327271	146.920000
287.420380	146.960000
287.513519	146.740000
287.606598	147.060000
287.699738	147.120000
287.792816	146.880000
287.885956	146.500000
287.979034	146.480000
288.072174	146.680000
288.165283	146.800000
288.258392	147.020000
288.351501	146.460000
288.444611	146.700000
288.537720	146.840000
288.630859	146.740000
288.723969	147.080000
288.817078	147.820000
288.910187	147.920000
289.003296	147.320000
289.096436	146.940000
289.189545	146.300000
289.282654	145.800000
289.375763	145.900000
289.468903	146.420000
289.562012	146.760000
289.655121	147.260000
289.748260	147.240000
289.841400	147.520000
289.934509	147.100000
290.027649	147.040000
290.120728	146.720000
290.213898	146.820000
290.306976	146.440000
290.400146	146.660000
290.493256	146.360000
290.586395	146.240000
290.679535	146.600000
290.772644	146.260000
290.865784	145.560000
290.958893	145.720000
291.052032	145.580000
291.145172	145.380000
291.238281	145.280000
291.331421	145.700000
291.424561	146.000000
291.517670	146.140000
291.610809	146.320000
291.703949	146.200000
291.797089	146.500000
291.890228	146.220000
291.983337	146.040000
292.076477	145.740000
292.169617	146.380000
292.262756	146.380000
292.355927	146.480000
292.449036	146.380000
292.542206	146.260000
292.635315	146.240000
292.728485	146.440000
292.821625	145.800000
292.914764	147.000000
293.007904	147.300000
293.101044	147.100000
293.194183	146.760000
293.287323	147.220000
293.380463	146.080000
293.473602	145.700000
293.566742	145.960000
293.659882	146.420000
293.753021	146.780000
293.846191	147.260000
293.939331	147.280000
294.032471	147.160000
294.125610	146.580000
294.218781	146.940000
294.311920	147.240000
294.405060	147.280000
294.498230	147.260000
294.591370	147.400000
294.684540	146.240000
294.777679	145.520000
294.870850	146.020000
294.963959	145.840000
295.057159	145.560000
295.150299	146.020000
295.243469	146.240000
295.336609	145.240000
295.429779	145.180000
295.522919	145.960000
295.616089	146.140000
295.709229	146.840000
295.802399	147.520000
295.895569	147.360000
295.988708	146.780000
296.081879	146.780000
296.175018	145.780000
296.268188	145.800000
296.361359	146.460000
296.454529	146.720000
296.547668	146.580000
296.640839	146.860000
296.734009	146.620000
296.827179	146.740000
296.920319	146.900000
297.013519	146.660000
297.106659	146.900000
297.199860	147.000000
297.292999	146.520000
297.386200	146.280000
297.479309	146.100000
297.572510	145.840000
297.665680	145.780000
297.758850	146.060000
297.852020	145.820000
297.945190	145.740000
298.038361	145.620000
298.131531	146.540000
298.224701	146.160000
298.317871	145.940000
298.411072	145.900000
298.504242	145.840000
298.597412	144.900000
298.690582	145.140000
298.783752	145.500000
298.876923	146.220000
298.970093	146.640000
299.063293	146.980000
299.156464	147.360000
299.249634	147.100000
299.342834	147.060000
299.436005	147.300000
299.529205	147.200000
299.622345	146.940000
299.715576	146.780000
299.808716	146.440000
299.901917	146.200000
299.995117	146.400000
300.088287	146.400000
300.181488	146.160000
300.274658	145.960000
300.367828	145.760000
300.461029	145.720000
300.554199	146.020000
300.647400	146.360000
300.740601	147.220000
300.833771	146.880000
300.926971	146.820000
301.020142	145.940000
301.113342	146.140000
301.206512	145.680000
301.299713	146.500000
301.392914	146.700000
301.486084	147.260000
301.579285	147.320000
301.672516	147.880000
301.765686	147.540000
301.858887	147.260000
301.952057	147.020000
302.045288	146.940000
302.138458	146.600000
302.231659	146.500000
302.324860	146.580000
302.418060	146.740000
302.511261	146.840000
302.604462	146.860000
302.697662	146.960000
302.790863	146.700000
302.884064	146.140000
302.977264	145.860000
303.070465	146.440000
303.163666	146.680000
303.256866	147.140000
303.350067	147.480000
303.443268	147.520000
303.536469	146.920000
303.629669	146.720000
303.722870	146.620000
303.816071	146.540000
303.909271	146.880000
304.002472	146.520000
304.095673	146.320000
304.188934	145.640000
304.282104	146.560000
304.375336	146.280000
304.468506	146.480000
304.561768	146.260000
304.654968	147.120000
304.748169	146.400000
304.841370	146.300000
304.934601	146.440000
305.027802	146.500000
305.121002	145.960000
305.214233	145.860000
305.307434	146.020000
305.400665	146.680000
305.493866	146.660000
