Model Number: SPM-002-B   
Serial Number: 70087108
Firmware Version: 004.15.4
Exposure Time: 100000.000000us
Data Taken on: 11-12-2020 19:37:02.946
Wavelength	Amplitude
221.570786	0.000000
221.663406	0.000000
221.756027	0.000000
221.848648	0.000000
221.941269	0.000000
222.033905	0.000000
222.126526	0.000000
222.219162	0.000000
222.311798	0.000000
222.404419	0.000000
222.497055	0.000000
222.589676	0.000000
222.682312	0.000000
222.774933	0.000000
222.867569	0.000000
222.960205	0.000000
223.052841	0.000000
223.145462	0.000000
223.238098	0.000000
223.330734	0.000000
223.423386	0.000000
223.516022	0.000000
223.608658	0.000000
223.701309	0.000000
223.793945	0.000000
223.886581	0.000000
223.979218	0.000000
224.071869	0.000000
224.164505	0.000000
224.257156	0.000000
224.349792	0.000000
224.442444	0.000000
224.535095	0.000000
224.627747	0.000000
224.720398	0.000000
224.813034	0.000000
224.905685	0.000000
224.998337	145.280000
225.090988	144.980000
225.183640	144.980000
225.276291	144.520000
225.368942	144.740000
225.461594	145.460000
225.554245	145.480000
225.646912	145.480000
225.739578	145.800000
225.832230	146.060000
225.924896	145.200000
226.017548	145.700000
226.110199	146.240000
226.202866	145.640000
226.295532	145.640000
226.388184	145.440000
226.480850	144.860000
226.573517	144.420000
226.666168	145.080000
226.758835	145.120000
226.851501	145.680000
226.944183	146.160000
227.036850	145.700000
227.129517	145.620000
227.222183	146.060000
227.314850	146.320000
227.407516	146.240000
227.500198	147.260000
227.592865	146.640000
227.685532	146.080000
227.778214	145.520000
227.870880	145.820000
227.963562	145.900000
228.056229	146.880000
228.148926	146.940000
228.241592	147.660000
228.334274	147.180000
228.426956	146.780000
228.519638	146.640000
228.612305	146.180000
228.704987	146.040000
228.797668	146.140000
228.890350	146.040000
228.983032	145.060000
229.075714	145.740000
229.168396	145.260000
229.261108	145.080000
229.353790	145.040000
229.446472	145.980000
229.539169	145.540000
229.631851	145.220000
229.724533	145.320000
229.817230	145.680000
229.909912	146.140000
230.002609	146.480000
230.095306	146.560000
230.187988	146.580000
230.280685	146.300000
230.373383	145.220000
230.466095	144.940000
230.558792	145.320000
230.651474	145.340000
230.744171	145.080000
230.836868	145.200000
230.929581	145.300000
231.022278	145.160000
231.114975	145.400000
231.207672	145.220000
231.300369	145.660000
231.393082	145.960000
231.485779	146.060000
231.578506	145.480000
231.671204	146.100000
231.763916	145.880000
231.856613	145.580000
231.949326	145.900000
232.042023	146.100000
232.134735	145.840000
232.227448	145.420000
232.320160	145.440000
232.412872	145.400000
232.505585	146.340000
232.598297	146.680000
232.691010	146.980000
232.783722	146.780000
232.876450	147.020000
232.969162	146.140000
233.061874	145.540000
233.154587	145.300000
233.247314	145.580000
233.340027	145.280000
233.432739	145.940000
233.525467	145.980000
233.618179	146.560000
233.710907	146.340000
233.803635	146.660000
233.896347	146.220000
233.989090	146.860000
234.081818	146.540000
234.174545	146.860000
234.267258	145.920000
234.359985	145.920000
234.452713	145.560000
234.545441	145.420000
234.638168	145.040000
234.730896	145.920000
234.823639	146.000000
234.916367	146.360000
235.009094	146.600000
235.101822	146.700000
235.194580	146.260000
235.287308	146.020000
235.380051	145.300000
235.472778	145.620000
235.565521	146.080000
235.658249	145.980000
235.750992	146.180000
235.843719	146.520000
235.936462	146.620000
236.029205	146.000000
236.121948	145.840000
236.214691	145.940000
236.307449	146.400000
236.400192	145.860000
236.492935	145.900000
236.585678	146.180000
236.678421	146.060000
236.771164	145.900000
236.863907	146.320000
236.956665	146.400000
237.049408	147.840000
237.142151	147.360000
237.234909	147.680000
237.327652	147.540000
237.420410	147.260000
237.513153	146.420000
237.605927	146.420000
237.698669	145.600000
237.791428	144.980000
237.884186	145.580000
237.976944	144.840000
238.069702	145.380000
238.162445	145.260000
238.255203	145.660000
238.347961	146.000000
238.440720	145.980000
238.533478	145.700000
238.626266	145.760000
238.719025	146.140000
238.811783	145.660000
238.904541	145.580000
238.997314	145.700000
239.090073	145.440000
239.182831	145.380000
239.275604	146.220000
239.368362	146.220000
239.461136	146.600000
239.553909	146.960000
239.646667	146.820000
239.739441	146.260000
239.832214	146.480000
239.925003	145.840000
240.017761	146.360000
240.110535	146.820000
240.203308	146.340000
240.296082	146.520000
240.388855	146.700000
240.481628	146.600000
240.574417	146.340000
240.667191	146.920000
240.759964	146.700000
240.852737	146.800000
240.945526	146.200000
241.038315	145.660000
241.131088	145.140000
241.223877	145.300000
241.316650	144.840000
241.409439	145.260000
241.502228	145.280000
241.595001	145.780000
241.687790	145.700000
241.780579	146.000000
241.873367	146.040000
241.966141	146.260000
242.058929	145.920000
242.151718	146.120000
242.244507	146.580000
242.337311	145.820000
242.430099	146.200000
242.522903	146.280000
242.615692	145.820000
242.708481	145.400000
242.801270	146.380000
242.894073	146.240000
242.986862	146.360000
243.079651	146.880000
243.172455	146.880000
243.265244	146.640000
243.358063	146.280000
243.450867	146.480000
243.543655	146.280000
243.636459	146.540000
243.729263	146.800000
243.822067	146.940000
243.914856	147.220000
244.007660	147.380000
244.100464	147.040000
244.193268	146.760000
244.286072	146.600000
244.378876	145.880000
244.471680	145.660000
244.564499	146.060000
244.657318	146.600000
244.750122	146.960000
244.842926	146.600000
244.935745	146.700000
245.028549	146.320000
245.121368	145.840000
245.214172	145.860000
245.306992	146.540000
245.399796	146.320000
245.492615	146.700000
245.585434	146.560000
245.678253	146.280000
245.771072	145.920000
245.863892	146.300000
245.956711	146.260000
246.049530	145.960000
246.142349	145.880000
246.235168	146.180000
246.327988	146.340000
246.420807	146.040000
246.513626	146.160000
246.606445	146.060000
246.699280	145.880000
246.792099	145.420000
246.884918	145.120000
246.977753	144.920000
247.070587	145.100000
247.163422	145.020000
247.256241	145.240000
247.349075	145.700000
247.441895	145.680000
247.534729	145.640000
247.627563	145.520000
247.720383	145.620000
247.813217	145.620000
247.906052	145.860000
247.998886	145.760000
248.091736	145.800000
248.184570	145.600000
248.277405	145.200000
248.370239	146.200000
248.463074	147.220000
248.555908	147.540000
248.648743	147.480000
248.741592	147.960000
248.834427	146.880000
248.927261	145.620000
249.020111	145.900000
249.112946	146.440000
249.205795	145.900000
249.298630	146.220000
249.391495	146.540000
249.484344	146.040000
249.577179	145.740000
249.670029	146.320000
249.762878	146.680000
249.855728	146.780000
249.948563	146.820000
250.041412	146.400000
250.134262	146.360000
250.227112	146.060000
250.319962	146.120000
250.412827	146.160000
250.505692	145.860000
250.598541	146.020000
250.691391	145.700000
250.784241	145.820000
250.877106	145.980000
250.969955	146.120000
251.062805	146.220000
251.155670	147.060000
251.248520	146.680000
251.341385	147.040000
251.434235	147.080000
251.527100	146.660000
251.619965	145.820000
251.712814	146.720000
251.805695	146.220000
251.898560	146.340000
251.991425	146.740000
252.084290	146.960000
252.177155	145.720000
252.270020	145.620000
252.362885	145.940000
252.455750	145.780000
252.548615	145.220000
252.641479	145.700000
252.734360	145.480000
252.827240	145.080000
252.920105	144.940000
253.012970	145.060000
253.105850	144.940000
253.198715	144.840000
253.291595	145.000000
253.384460	144.820000
253.477341	145.140000
253.570221	145.240000
253.663086	145.380000
253.755966	145.800000
253.848846	145.880000
253.941727	146.140000
254.034592	146.080000
254.127472	145.580000
254.220367	145.480000
254.313248	145.560000
254.406128	144.820000
254.499008	145.500000
254.591904	146.600000
254.684784	146.940000
254.777664	146.960000
254.870544	146.900000
254.963440	146.120000
255.056335	145.900000
255.149216	145.540000
255.242111	145.860000
255.334991	146.660000
255.427887	147.080000
255.520767	147.100000
255.613663	147.020000
255.706558	146.200000
255.799438	145.580000
255.892334	145.200000
255.985229	145.040000
256.078125	144.980000
256.171021	145.360000
256.263916	146.240000
256.356812	146.560000
256.449707	146.420000
256.542603	146.220000
256.635498	146.820000
256.728394	146.180000
256.821289	146.000000
256.914215	146.380000
257.007080	146.880000
257.100006	146.520000
257.192932	147.140000
257.285828	147.300000
257.378723	146.900000
257.471619	146.580000
257.564545	146.200000
257.657440	145.900000
257.750336	146.300000
257.843262	146.180000
257.936157	147.100000
258.029053	147.420000
258.121979	147.640000
258.214874	147.320000
258.307800	147.120000
258.400696	146.260000
258.493622	146.240000
258.586517	145.480000
258.679443	145.580000
258.772339	145.660000
258.865265	145.320000
258.958160	145.080000
259.051086	145.740000
259.144012	145.640000
259.236938	146.500000
259.329834	147.040000
259.422791	146.640000
259.515717	145.940000
259.608612	145.480000
259.701538	145.340000
259.794464	144.760000
259.887390	145.120000
259.980316	145.480000
260.073212	145.400000
260.166138	144.200000
260.259064	144.620000
260.351990	145.220000
260.444916	145.100000
260.537842	145.640000
260.630768	146.820000
260.723694	146.640000
260.816620	146.040000
260.909546	146.000000
261.002472	145.400000
261.095398	144.640000
261.188354	144.940000
261.281281	144.840000
261.374207	145.060000
261.467133	145.900000
261.560089	146.540000
261.653015	146.120000
261.745972	147.140000
261.838867	147.620000
261.931824	147.540000
262.024780	147.100000
262.117706	147.060000
262.210663	146.640000
262.303589	146.380000
262.396515	146.320000
262.489471	146.940000
262.582397	147.160000
262.675354	146.820000
262.768280	146.580000
262.861237	146.700000
262.954163	146.680000
263.047119	146.580000
263.140045	146.120000
263.233002	146.060000
263.325958	145.420000
263.418884	144.700000
263.511841	144.900000
263.604797	145.540000
263.697723	145.440000
263.790680	145.600000
263.883636	146.080000
263.976593	145.760000
264.069550	145.540000
264.162476	145.580000
264.255463	146.060000
264.348419	145.800000
264.441376	146.200000
264.534332	145.900000
264.627289	146.240000
264.720245	146.260000
264.813202	146.080000
264.906158	146.240000
264.999115	146.740000
265.092072	146.280000
265.185028	146.520000
265.277985	146.760000
265.370941	146.580000
265.463898	146.560000
265.556854	146.620000
265.649811	145.660000
265.742798	145.640000
265.835754	145.800000
265.928711	146.020000
266.021667	146.100000
266.114655	146.540000
266.207611	147.040000
266.300568	146.200000
266.393585	145.780000
266.486511	146.260000
266.579498	145.440000
266.672485	144.960000
266.765442	145.220000
266.858429	145.540000
266.951385	144.880000
267.044342	145.640000
267.137329	145.580000
267.230316	145.960000
267.323273	145.400000
267.416260	146.380000
267.509216	146.140000
267.602203	146.380000
267.695160	146.700000
267.788147	146.800000
267.881134	146.080000
267.974091	146.480000
268.067078	146.140000
268.160065	145.720000
268.253052	145.780000
268.346008	145.640000
268.438995	145.160000
268.531982	145.200000
268.624969	145.300000
268.717987	145.640000
268.810944	145.640000
268.903961	145.840000
268.996948	145.860000
269.089905	146.020000
269.182892	146.140000
269.275879	146.720000
269.368866	146.160000
269.461853	146.280000
269.554871	146.120000
269.647858	145.880000
269.740845	145.940000
269.833832	146.700000
269.926819	146.300000
270.019806	146.100000
270.112793	145.780000
270.205811	145.680000
270.298798	145.480000
270.391785	146.600000
270.484772	146.520000
270.577789	146.480000
270.670776	145.980000
270.763763	145.880000
270.856750	145.180000
270.949768	145.280000
271.042786	145.640000
271.135773	145.960000
271.228790	146.360000
271.321808	146.120000
271.414795	145.740000
271.507782	145.520000
271.600800	145.380000
271.693817	145.220000
271.786804	145.640000
271.879822	146.080000
271.972809	146.040000
272.065826	146.620000
272.158844	146.220000
272.251831	146.820000
272.344849	146.780000
272.437866	146.620000
272.530853	146.460000
272.623871	146.800000
272.716888	145.400000
272.809906	145.500000
272.902893	145.840000
272.995911	145.020000
273.088928	144.980000
273.181946	145.480000
273.274963	145.200000
273.367981	144.940000
273.460999	145.100000
273.554047	145.400000
273.647003	146.040000
273.740051	146.220000
273.833069	146.560000
273.926086	146.760000
274.019135	146.620000
274.112152	146.560000
274.205170	146.320000
274.298187	146.340000
274.391205	146.040000
274.484222	146.000000
274.577240	145.800000
274.670258	145.800000
274.763306	145.460000
274.856323	145.920000
274.949341	146.000000
275.042358	146.000000
275.135406	146.020000
275.228424	146.320000
275.321442	146.200000
275.414490	145.740000
275.507507	145.940000
275.600525	146.560000
275.693573	146.400000
275.786591	145.960000
275.879669	146.280000
275.972656	146.020000
276.065735	145.400000
276.158752	145.780000
276.251801	146.900000
276.344818	146.700000
276.437866	146.760000
276.530884	146.940000
276.623932	146.040000
276.716980	145.780000
276.809998	146.260000
276.903046	146.340000
276.996094	147.180000
277.089111	148.200000
277.182159	148.420000
277.275208	148.160000
277.368256	148.000000
277.461304	147.400000
277.554321	146.520000
277.647369	146.160000
277.740417	145.820000
277.833466	145.400000
277.926514	145.400000
278.019562	146.140000
278.112610	145.440000
278.205688	145.740000
278.298706	145.960000
278.391785	145.520000
278.484833	144.780000
278.577881	144.800000
278.670929	144.780000
278.763977	144.840000
278.857025	145.380000
278.950073	145.660000
279.043121	146.120000
279.136169	146.260000
279.229248	145.960000
279.322296	145.800000
279.415344	145.920000
279.508392	145.340000
279.601440	145.060000
279.694519	145.140000
279.787567	144.740000
279.880615	144.620000
279.973694	144.940000
280.066742	144.980000
280.159790	145.240000
280.252869	145.400000
280.345917	145.540000
280.438995	145.560000
280.532074	145.620000
280.625122	145.920000
280.718201	146.480000
280.811279	146.520000
280.904327	146.480000
280.997406	146.580000
281.090454	146.420000
281.183533	145.760000
281.276581	145.800000
281.369659	145.700000
281.462738	145.640000
281.555786	145.560000
281.648865	146.000000
281.741943	145.580000
281.835022	146.340000
281.928070	146.440000
282.021149	146.180000
282.114227	146.060000
282.207306	146.320000
282.300385	146.180000
282.393433	146.280000
282.486511	146.360000
282.579590	146.600000
282.672668	146.960000
282.765747	146.300000
282.858856	145.800000
282.951904	146.420000
283.045013	146.400000
283.138062	146.640000
283.231171	147.200000
283.324249	147.660000
283.417328	147.120000
283.510406	146.820000
283.603485	146.340000
283.696564	146.060000
283.789642	146.060000
283.882751	145.840000
283.975830	146.260000
284.068909	146.120000
284.161987	146.620000
284.255066	146.260000
284.348175	146.500000
284.441254	146.160000
284.534332	146.560000
284.627441	146.120000
284.720520	145.940000
284.813599	146.120000
284.906708	146.200000
284.999786	145.560000
285.092896	144.900000
285.185974	146.260000
285.279053	146.000000
285.372192	145.920000
285.465240	146.560000
285.558380	147.040000
285.651459	146.260000
285.744568	146.760000
285.837677	146.360000
285.930756	146.280000
286.023865	146.600000
286.116943	146.280000
286.210052	146.340000
286.303162	146.500000
286.396240	146.480000
286.489349	146.160000
286.582458	146.640000
286.675568	146.080000
286.768646	145.960000
286.861755	146.240000
286.954865	147.080000
287.047974	146.120000
287.141083	146.140000
287.234161	146.380000
287.327271	146.000000
287.420380	146.000000
287.513519	146.280000
287.606598	146.340000
287.699738	146.660000
287.792816	146.480000
287.885956	145.980000
287.979034	146.300000
288.072174	146.500000
288.165283	146.100000
288.258392	146.460000
288.351501	145.820000
288.444611	145.980000
288.537720	146.280000
288.630859	146.400000
288.723969	146.440000
288.817078	147.040000
288.910187	146.860000
289.003296	146.440000
289.096436	146.160000
289.189545	145.980000
289.282654	145.500000
289.375763	145.900000
289.468903	145.960000
289.562012	146.340000
289.655121	146.480000
289.748260	147.040000
289.841400	147.200000
289.934509	147.300000
290.027649	147.280000
290.120728	146.880000
290.213898	146.640000
290.306976	146.140000
290.400146	146.100000
290.493256	145.660000
290.586395	145.820000
290.679535	146.180000
290.772644	146.120000
290.865784	145.440000
290.958893	145.660000
291.052032	145.580000
291.145172	145.320000
291.238281	145.140000
291.331421	145.540000
291.424561	145.940000
291.517670	145.680000
291.610809	145.820000
291.703949	145.860000
291.797089	146.080000
291.890228	145.600000
291.983337	145.660000
292.076477	145.320000
292.169617	145.760000
292.262756	145.780000
292.355927	146.120000
292.449036	145.820000
292.542206	146.040000
292.635315	146.140000
292.728485	146.280000
292.821625	145.880000
292.914764	147.400000
293.007904	147.380000
293.101044	146.920000
293.194183	146.680000
293.287323	146.800000
293.380463	145.620000
293.473602	145.620000
293.566742	145.900000
293.659882	146.480000
293.753021	146.820000
293.846191	147.100000
293.939331	146.740000
294.032471	146.560000
294.125610	145.960000
294.218781	146.240000
294.311920	146.300000
294.405060	146.760000
294.498230	146.640000
294.591370	146.700000
294.684540	145.860000
294.777679	145.620000
294.870850	145.760000
294.963959	145.760000
295.057159	145.680000
295.150299	145.860000
295.243469	145.880000
295.336609	145.200000
295.429779	145.280000
295.522919	145.480000
295.616089	145.520000
295.709229	146.080000
295.802399	146.360000
295.895569	145.920000
295.988708	145.760000
296.081879	145.900000
296.175018	145.080000
296.268188	144.780000
296.361359	145.680000
296.454529	145.740000
296.547668	145.540000
296.640839	146.020000
296.734009	145.780000
296.827179	145.560000
296.920319	145.680000
297.013519	145.780000
297.106659	145.800000
297.199860	146.120000
297.292999	145.800000
297.386200	145.620000
297.479309	145.460000
297.572510	145.320000
297.665680	145.280000
297.758850	145.680000
297.852020	145.660000
297.945190	145.400000
298.038361	145.120000
298.131531	145.740000
298.224701	145.300000
298.317871	145.180000
298.411072	145.200000
298.504242	145.500000
298.597412	145.080000
298.690582	145.420000
298.783752	145.580000
298.876923	146.200000
298.970093	146.080000
299.063293	146.420000
299.156464	146.800000
299.249634	146.640000
299.342834	146.580000
299.436005	146.900000
299.529205	146.520000
299.622345	146.120000
299.715576	145.900000
299.808716	145.540000
299.901917	145.560000
299.995117	145.960000
300.088287	146.120000
300.181488	145.720000
300.274658	145.940000
300.367828	145.780000
300.461029	145.460000
300.554199	145.700000
300.647400	146.320000
300.740601	146.820000
300.833771	146.600000
300.926971	146.880000
301.020142	146.040000
301.113342	146.180000
301.206512	145.760000
301.299713	146.120000
301.392914	146.220000
301.486084	146.960000
301.579285	146.740000
301.672516	147.320000
301.765686	147.420000
301.858887	147.120000
301.952057	146.720000
302.045288	146.880000
302.138458	146.280000
302.231659	145.820000
302.324860	145.980000
302.418060	145.820000
302.511261	145.680000
302.604462	145.880000
302.697662	145.700000
302.790863	145.500000
302.884064	145.320000
302.977264	145.580000
303.070465	145.660000
303.163666	146.680000
303.256866	147.120000
303.350067	147.340000
303.443268	147.040000
303.536469	146.900000
303.629669	146.020000
303.722870	145.820000
303.816071	145.480000
303.909271	145.620000
304.002472	145.080000
304.095673	145.040000
304.188934	144.260000
304.282104	145.360000
304.375336	145.140000
304.468506	145.540000
304.561768	145.180000
304.654968	145.920000
304.748169	145.140000
304.841370	145.120000
304.934601	145.140000
305.027802	145.420000
305.121002	145.040000
305.214233	145.220000
305.307434	145.340000
305.400665	146.000000
305.493866	145.740000
