Model Number: SPM-002-B   
Serial Number: 70087108
Firmware Version: 004.15.4
Exposure Time: 100000.000000us
Data Taken on: 11-12-2020 19:37:31.089
Wavelength	Amplitude
221.570786	0.000000
221.663406	0.000000
221.756027	0.000000
221.848648	0.000000
221.941269	0.000000
222.033905	0.000000
222.126526	0.000000
222.219162	0.000000
222.311798	0.000000
222.404419	0.000000
222.497055	0.000000
222.589676	0.000000
222.682312	0.000000
222.774933	0.000000
222.867569	0.000000
222.960205	0.000000
223.052841	0.000000
223.145462	0.000000
223.238098	0.000000
223.330734	0.000000
223.423386	0.000000
223.516022	0.000000
223.608658	0.000000
223.701309	0.000000
223.793945	0.000000
223.886581	0.000000
223.979218	0.000000
224.071869	0.000000
224.164505	0.000000
224.257156	0.000000
224.349792	0.000000
224.442444	0.000000
224.535095	0.000000
224.627747	0.000000
224.720398	0.000000
224.813034	0.000000
224.905685	0.000000
224.998337	145.580000
225.090988	145.200000
225.183640	145.000000
225.276291	144.700000
225.368942	145.340000
225.461594	145.620000
225.554245	145.880000
225.646912	146.020000
225.739578	146.880000
225.832230	146.900000
225.924896	146.240000
226.017548	146.580000
226.110199	146.920000
226.202866	145.920000
226.295532	145.720000
226.388184	145.960000
226.480850	145.540000
226.573517	145.120000
226.666168	145.540000
226.758835	145.880000
226.851501	146.520000
226.944183	146.560000
227.036850	146.240000
227.129517	146.380000
227.222183	146.560000
227.314850	146.200000
227.407516	146.560000
227.500198	147.580000
227.592865	146.940000
227.685532	146.640000
227.778214	146.360000
227.870880	146.600000
227.963562	146.540000
228.056229	147.400000
228.148926	147.240000
228.241592	147.960000
228.334274	147.320000
228.426956	147.100000
228.519638	147.100000
228.612305	146.600000
228.704987	146.500000
228.797668	146.820000
228.890350	146.400000
228.983032	145.420000
229.075714	146.280000
229.168396	145.780000
229.261108	145.220000
229.353790	145.300000
229.446472	145.840000
229.539169	145.460000
229.631851	145.300000
229.724533	145.740000
229.817230	146.060000
229.909912	146.760000
230.002609	146.760000
230.095306	146.800000
230.187988	146.640000
230.280685	146.360000
230.373383	145.080000
230.466095	144.940000
230.558792	145.000000
230.651474	145.060000
230.744171	144.880000
230.836868	145.160000
230.929581	145.500000
231.022278	145.980000
231.114975	146.000000
231.207672	146.000000
231.300369	146.540000
231.393082	146.500000
231.485779	146.040000
231.578506	146.020000
231.671204	146.400000
231.763916	146.440000
231.856613	146.560000
231.949326	146.940000
232.042023	146.680000
232.134735	146.400000
232.227448	145.940000
232.320160	146.120000
232.412872	146.060000
232.505585	146.980000
232.598297	147.560000
232.691010	147.820000
232.783722	147.260000
232.876450	147.700000
232.969162	147.060000
233.061874	146.420000
233.154587	145.540000
233.247314	145.940000
233.340027	145.420000
233.432739	145.680000
233.525467	145.540000
233.618179	146.440000
233.710907	145.800000
233.803635	146.260000
233.896347	146.120000
233.989090	146.840000
234.081818	146.560000
234.174545	147.100000
234.267258	146.400000
234.359985	146.320000
234.452713	145.820000
234.545441	145.820000
234.638168	145.640000
234.730896	146.380000
234.823639	146.680000
234.916367	147.300000
235.009094	147.500000
235.101822	147.600000
235.194580	147.440000
235.287308	147.400000
235.380051	146.620000
235.472778	146.760000
235.565521	146.960000
235.658249	146.380000
235.750992	146.460000
235.843719	146.760000
235.936462	146.700000
236.029205	146.100000
236.121948	145.760000
236.214691	145.680000
236.307449	146.280000
236.400192	146.180000
236.492935	146.520000
236.585678	147.060000
236.678421	147.340000
236.771164	146.880000
236.863907	147.360000
236.956665	147.280000
237.049408	148.720000
237.142151	147.840000
237.234909	148.640000
237.327652	148.380000
237.420410	148.140000
237.513153	146.960000
237.605927	147.320000
237.698669	146.640000
237.791428	146.120000
237.884186	146.460000
237.976944	145.980000
238.069702	146.360000
238.162445	146.040000
238.255203	146.240000
238.347961	146.300000
238.440720	146.800000
238.533478	146.400000
238.626266	146.200000
238.719025	146.540000
238.811783	146.520000
238.904541	146.260000
238.997314	146.380000
239.090073	146.120000
239.182831	146.060000
239.275604	146.880000
239.368362	146.720000
239.461136	147.120000
239.553909	147.160000
239.646667	147.060000
239.739441	146.300000
239.832214	146.560000
239.925003	146.220000
240.017761	147.220000
240.110535	147.640000
240.203308	147.320000
240.296082	147.420000
240.388855	147.120000
240.481628	147.040000
240.574417	146.860000
240.667191	147.060000
240.759964	146.760000
240.852737	147.080000
240.945526	146.380000
241.038315	146.240000
241.131088	146.320000
241.223877	146.520000
241.316650	146.140000
241.409439	146.700000
241.502228	146.480000
241.595001	147.080000
241.687790	146.840000
241.780579	146.580000
241.873367	146.660000
241.966141	147.020000
242.058929	146.340000
242.151718	146.540000
242.244507	147.500000
242.337311	146.620000
242.430099	146.780000
242.522903	147.160000
242.615692	146.920000
242.708481	146.740000
242.801270	147.300000
242.894073	147.040000
242.986862	146.900000
243.079651	147.480000
243.172455	147.220000
243.265244	147.380000
243.358063	146.580000
243.450867	146.640000
243.543655	146.540000
243.636459	146.680000
243.729263	146.980000
243.822067	147.840000
243.914856	148.280000
244.007660	148.200000
244.100464	147.660000
244.193268	146.780000
244.286072	146.860000
244.378876	146.200000
244.471680	146.020000
244.564499	146.620000
244.657318	147.620000
244.750122	147.600000
244.842926	147.160000
244.935745	147.440000
245.028549	147.120000
245.121368	146.280000
245.214172	146.000000
245.306992	146.500000
245.399796	145.880000
245.492615	145.900000
245.585434	145.740000
245.678253	145.700000
245.771072	145.640000
245.863892	146.120000
245.956711	146.520000
246.049530	146.740000
246.142349	146.900000
246.235168	147.060000
246.327988	147.480000
246.420807	146.920000
246.513626	146.960000
246.606445	146.780000
246.699280	146.620000
246.792099	146.220000
246.884918	145.860000
246.977753	145.740000
247.070587	145.680000
247.163422	145.680000
247.256241	145.680000
247.349075	146.160000
247.441895	146.140000
247.534729	145.840000
247.627563	145.440000
247.720383	146.060000
247.813217	145.980000
247.906052	145.860000
247.998886	146.140000
248.091736	146.400000
248.184570	145.820000
248.277405	145.880000
248.370239	146.900000
248.463074	148.020000
248.555908	148.200000
248.648743	148.180000
248.741592	148.280000
248.834427	147.380000
248.927261	146.140000
249.020111	146.540000
249.112946	146.800000
249.205795	146.740000
249.298630	147.060000
249.391495	147.120000
249.484344	146.440000
249.577179	146.200000
249.670029	146.460000
249.762878	146.680000
249.855728	146.700000
249.948563	147.240000
250.041412	146.680000
250.134262	146.780000
250.227112	147.000000
250.319962	147.140000
250.412827	146.800000
250.505692	146.860000
250.598541	146.640000
250.691391	146.260000
250.784241	146.540000
250.877106	146.840000
250.969955	146.720000
251.062805	146.880000
251.155670	147.480000
251.248520	147.080000
251.341385	146.920000
251.434235	146.840000
251.527100	146.280000
251.619965	145.300000
251.712814	146.040000
251.805695	146.140000
251.898560	146.680000
251.991425	147.220000
252.084290	147.640000
252.177155	146.940000
252.270020	146.720000
252.362885	146.420000
252.455750	146.380000
252.548615	146.000000
252.641479	146.260000
252.734360	145.980000
252.827240	146.040000
252.920105	145.840000
253.012970	145.940000
253.105850	145.660000
253.198715	145.560000
253.291595	145.760000
253.384460	145.720000
253.477341	145.560000
253.570221	145.780000
253.663086	146.000000
253.755966	146.600000
253.848846	146.860000
253.941727	147.320000
254.034592	147.180000
254.127472	146.680000
254.220367	146.440000
254.313248	146.540000
254.406128	146.260000
254.499008	146.580000
254.591904	147.520000
254.684784	147.760000
254.777664	147.420000
254.870544	147.020000
254.963440	146.440000
255.056335	146.380000
255.149216	145.660000
255.242111	146.120000
255.334991	146.940000
255.427887	147.400000
255.520767	147.400000
255.613663	147.640000
255.706558	146.820000
255.799438	146.100000
255.892334	145.660000
255.985229	145.340000
256.078125	145.360000
256.171021	145.760000
256.263916	146.420000
256.356812	146.620000
256.449707	146.800000
256.542603	146.480000
256.635498	146.880000
256.728394	146.400000
256.821289	146.340000
256.914215	146.480000
257.007080	146.980000
257.100006	146.740000
257.192932	147.420000
257.285828	147.700000
257.378723	147.380000
257.471619	147.020000
257.564545	146.620000
257.657440	146.320000
257.750336	146.600000
257.843262	146.420000
257.936157	147.500000
258.029053	148.000000
258.121979	148.040000
258.214874	147.440000
258.307800	147.500000
258.400696	146.020000
258.493622	145.780000
258.586517	145.260000
258.679443	145.780000
258.772339	145.540000
258.865265	145.800000
258.958160	145.660000
259.051086	146.140000
259.144012	145.860000
259.236938	147.000000
259.329834	147.260000
259.422791	147.220000
259.515717	146.940000
259.608612	146.600000
259.701538	146.160000
259.794464	145.740000
259.887390	145.800000
259.980316	145.600000
260.073212	145.520000
260.166138	144.600000
260.259064	145.300000
260.351990	146.000000
260.444916	145.880000
260.537842	146.400000
260.630768	147.060000
260.723694	146.660000
260.816620	145.940000
260.909546	146.140000
261.002472	145.600000
261.095398	145.400000
261.188354	145.540000
261.281281	145.380000
261.374207	145.660000
261.467133	146.800000
261.560089	147.160000
261.653015	147.120000
261.745972	147.940000
261.838867	148.300000
261.931824	147.980000
262.024780	147.140000
262.117706	147.080000
262.210663	146.800000
262.303589	146.200000
262.396515	146.060000
262.489471	147.300000
262.582397	147.180000
262.675354	146.700000
262.768280	146.880000
262.861237	146.840000
262.954163	146.360000
263.047119	146.760000
263.140045	146.680000
263.233002	146.800000
263.325958	146.680000
263.418884	146.440000
263.511841	146.080000
263.604797	146.340000
263.697723	146.160000
263.790680	145.880000
263.883636	146.380000
263.976593	146.280000
264.069550	146.300000
264.162476	146.180000
264.255463	146.480000
264.348419	146.060000
264.441376	146.640000
264.534332	146.540000
264.627289	146.860000
264.720245	147.060000
264.813202	146.620000
264.906158	146.440000
264.999115	146.500000
265.092072	146.280000
265.185028	146.560000
265.277985	147.200000
265.370941	147.000000
265.463898	147.080000
265.556854	146.980000
265.649811	146.020000
265.742798	145.800000
265.835754	146.020000
265.928711	146.240000
266.021667	146.320000
266.114655	146.880000
266.207611	147.260000
266.300568	146.840000
266.393585	146.460000
266.486511	146.900000
266.579498	146.200000
266.672485	145.720000
266.765442	145.720000
266.858429	146.300000
266.951385	145.720000
267.044342	145.900000
267.137329	145.820000
267.230316	146.240000
267.323273	145.680000
267.416260	146.380000
267.509216	146.380000
267.602203	146.660000
267.695160	146.940000
267.788147	147.200000
267.881134	146.500000
267.974091	146.960000
268.067078	146.980000
268.160065	146.620000
268.253052	146.320000
268.346008	146.180000
268.438995	145.820000
268.531982	146.040000
268.624969	145.980000
268.717987	146.300000
268.810944	146.540000
268.903961	146.800000
268.996948	146.440000
269.089905	146.820000
269.182892	147.040000
269.275879	147.200000
269.368866	146.900000
269.461853	146.960000
269.554871	146.560000
269.647858	146.380000
269.740845	146.800000
269.833832	146.900000
269.926819	146.580000
270.019806	146.460000
270.112793	146.200000
270.205811	145.960000
270.298798	146.000000
270.391785	146.820000
270.484772	146.560000
270.577789	146.660000
270.670776	146.400000
270.763763	146.560000
270.856750	146.080000
270.949768	146.320000
271.042786	146.280000
271.135773	146.260000
271.228790	146.420000
271.321808	146.120000
271.414795	146.040000
271.507782	145.820000
271.600800	145.640000
271.693817	145.520000
271.786804	146.060000
271.879822	146.160000
271.972809	146.220000
272.065826	146.880000
272.158844	146.560000
272.251831	147.080000
272.344849	146.900000
272.437866	146.720000
272.530853	146.480000
272.623871	146.760000
272.716888	145.440000
272.809906	146.020000
272.902893	146.080000
272.995911	145.460000
273.088928	145.380000
273.181946	146.020000
273.274963	145.440000
273.367981	145.580000
273.460999	145.880000
273.554047	146.200000
273.647003	146.860000
273.740051	146.780000
273.833069	147.180000
273.926086	147.240000
274.019135	146.940000
274.112152	146.300000
274.205170	146.720000
274.298187	146.780000
274.391205	146.560000
274.484222	146.500000
274.577240	146.380000
274.670258	146.360000
274.763306	145.860000
274.856323	146.300000
274.949341	146.420000
275.042358	146.620000
275.135406	146.400000
275.228424	146.740000
275.321442	146.640000
275.414490	146.480000
275.507507	146.840000
275.600525	147.440000
275.693573	146.920000
275.786591	146.380000
275.879669	146.600000
275.972656	146.200000
276.065735	145.640000
276.158752	146.660000
276.251801	147.600000
276.344818	147.620000
276.437866	147.940000
276.530884	148.000000
276.623932	146.900000
276.716980	146.960000
276.809998	147.060000
276.903046	146.840000
276.996094	147.460000
277.089111	148.280000
277.182159	148.500000
277.275208	148.220000
277.368256	148.140000
277.461304	147.740000
277.554321	147.000000
277.647369	146.520000
277.740417	146.480000
277.833466	146.400000
277.926514	146.140000
278.019562	146.960000
278.112610	146.600000
278.205688	146.980000
278.298706	147.280000
278.391785	147.180000
278.484833	146.460000
278.577881	146.500000
278.670929	146.500000
278.763977	146.380000
278.857025	146.780000
278.950073	147.020000
279.043121	146.840000
279.136169	146.580000
279.229248	146.320000
279.322296	146.200000
279.415344	145.760000
279.508392	145.540000
279.601440	145.920000
279.694519	146.140000
279.787567	146.380000
279.880615	146.480000
279.973694	146.620000
280.066742	146.300000
280.159790	146.140000
280.252869	145.580000
280.345917	145.960000
280.438995	146.140000
280.532074	145.980000
280.625122	146.120000
280.718201	147.000000
280.811279	147.100000
280.904327	147.060000
280.997406	147.060000
281.090454	147.080000
281.183533	146.260000
281.276581	145.780000
281.369659	145.800000
281.462738	145.920000
281.555786	146.080000
281.648865	146.280000
281.741943	146.400000
281.835022	146.740000
281.928070	146.800000
282.021149	146.480000
282.114227	146.220000
282.207306	146.360000
282.300385	146.400000
282.393433	146.440000
282.486511	146.400000
282.579590	146.780000
282.672668	147.120000
282.765747	146.660000
282.858856	146.240000
282.951904	146.420000
283.045013	146.860000
283.138062	147.100000
283.231171	147.600000
283.324249	147.920000
283.417328	147.840000
283.510406	147.120000
283.603485	146.580000
283.696564	146.380000
283.789642	146.460000
283.882751	146.240000
283.975830	146.960000
284.068909	146.640000
284.161987	147.140000
284.255066	146.780000
284.348175	147.180000
284.441254	146.720000
284.534332	147.400000
284.627441	146.800000
284.720520	146.720000
284.813599	146.620000
284.906708	146.840000
284.999786	145.800000
285.092896	145.820000
285.185974	146.860000
285.279053	146.300000
285.372192	146.160000
285.465240	147.320000
285.558380	147.320000
285.651459	146.720000
285.744568	147.800000
285.837677	147.400000
285.930756	147.220000
286.023865	147.040000
286.116943	146.620000
286.210052	146.140000
286.303162	146.120000
286.396240	145.700000
286.489349	145.620000
286.582458	146.240000
286.675568	146.320000
286.768646	146.680000
286.861755	147.020000
286.954865	147.900000
287.047974	147.220000
287.141083	146.880000
287.234161	146.580000
287.327271	146.380000
287.420380	146.120000
287.513519	146.040000
287.606598	146.320000
287.699738	146.780000
287.792816	146.660000
287.885956	146.640000
287.979034	146.760000
288.072174	146.620000
288.165283	146.400000
288.258392	146.840000
288.351501	146.160000
288.444611	146.580000
288.537720	146.760000
288.630859	146.680000
288.723969	146.600000
288.817078	147.260000
288.910187	146.780000
289.003296	146.320000
289.096436	145.900000
289.189545	145.800000
289.282654	145.240000
289.375763	145.600000
289.468903	146.280000
289.562012	146.760000
289.655121	146.620000
289.748260	146.980000
289.841400	147.340000
289.934509	146.840000
290.027649	146.780000
290.120728	146.620000
290.213898	146.560000
290.306976	146.360000
290.400146	146.680000
290.493256	146.460000
290.586395	146.760000
290.679535	146.940000
290.772644	146.580000
290.865784	145.820000
290.958893	145.720000
291.052032	145.360000
291.145172	145.200000
291.238281	145.040000
291.331421	145.440000
291.424561	146.180000
291.517670	146.180000
291.610809	146.400000
291.703949	146.520000
291.797089	146.580000
291.890228	146.060000
291.983337	146.120000
292.076477	145.480000
292.169617	145.860000
292.262756	146.160000
292.355927	146.160000
292.449036	146.040000
292.542206	146.560000
292.635315	146.660000
292.728485	146.580000
292.821625	146.400000
292.914764	147.620000
293.007904	147.600000
293.101044	147.440000
293.194183	147.180000
293.287323	147.440000
293.380463	146.540000
293.473602	146.440000
293.566742	146.720000
293.659882	147.220000
293.753021	147.320000
293.846191	147.160000
293.939331	146.860000
294.032471	146.560000
294.125610	146.000000
294.218781	146.300000
294.311920	146.740000
294.405060	146.960000
294.498230	146.980000
294.591370	147.480000
294.684540	146.720000
294.777679	146.140000
294.870850	146.440000
294.963959	145.960000
295.057159	145.600000
295.150299	146.180000
295.243469	146.240000
295.336609	145.360000
295.429779	145.440000
295.522919	145.800000
295.616089	145.520000
295.709229	146.080000
295.802399	146.580000
295.895569	146.680000
295.988708	146.600000
296.081879	146.740000
296.175018	146.100000
296.268188	146.180000
296.361359	146.700000
296.454529	146.520000
296.547668	146.280000
296.640839	146.760000
296.734009	146.660000
296.827179	146.500000
296.920319	146.920000
297.013519	146.820000
297.106659	146.860000
297.199860	146.980000
297.292999	146.860000
297.386200	146.500000
297.479309	146.460000
297.572510	146.240000
297.665680	145.820000
297.758850	145.840000
297.852020	145.720000
297.945190	145.760000
298.038361	145.380000
298.131531	146.360000
298.224701	146.160000
298.317871	145.700000
298.411072	145.380000
298.504242	145.600000
298.597412	145.000000
298.690582	145.020000
298.783752	145.420000
298.876923	146.380000
298.970093	146.320000
299.063293	146.620000
299.156464	147.180000
299.249634	147.620000
299.342834	147.260000
299.436005	147.700000
299.529205	147.480000
299.622345	147.420000
299.715576	146.580000
299.808716	146.500000
299.901917	146.420000
299.995117	146.700000
300.088287	146.620000
300.181488	146.900000
300.274658	146.580000
300.367828	146.560000
300.461029	146.300000
300.554199	146.380000
300.647400	146.320000
300.740601	146.980000
300.833771	146.820000
300.926971	146.980000
301.020142	146.420000
301.113342	146.440000
301.206512	145.940000
301.299713	146.080000
301.392914	145.940000
301.486084	146.460000
301.579285	146.500000
301.672516	147.180000
301.765686	147.100000
301.858887	147.280000
301.952057	147.520000
302.045288	147.820000
302.138458	147.420000
302.231659	147.300000
302.324860	146.940000
302.418060	146.220000
302.511261	145.860000
302.604462	146.040000
302.697662	146.020000
302.790863	146.140000
302.884064	146.080000
302.977264	146.100000
303.070465	146.260000
303.163666	146.780000
303.256866	147.200000
303.350067	147.040000
303.443268	147.120000
303.536469	147.040000
303.629669	146.380000
303.722870	146.120000
303.816071	146.320000
303.909271	146.500000
304.002472	145.680000
304.095673	145.700000
304.188934	144.860000
304.282104	145.820000
304.375336	145.680000
304.468506	146.120000
304.561768	146.180000
304.654968	147.040000
304.748169	146.400000
304.841370	146.320000
304.934601	146.740000
305.027802	146.200000
305.121002	145.940000
305.214233	145.920000
305.307434	146.140000
305.400665	146.600000
305.493866	147.020000
