Model Number: SPM-002-B   
Serial Number: 70087108
Firmware Version: 004.15.4
Exposure Time: 100000.000000us
Data Taken on: 11-12-2020 19:37:58.210
Wavelength	Amplitude
221.570786	0.000000
221.663406	0.000000
221.756027	0.000000
221.848648	0.000000
221.941269	0.000000
222.033905	0.000000
222.126526	0.000000
222.219162	0.000000
222.311798	0.000000
222.404419	0.000000
222.497055	0.000000
222.589676	0.000000
222.682312	0.000000
222.774933	0.000000
222.867569	0.000000
222.960205	0.000000
223.052841	0.000000
223.145462	0.000000
223.238098	0.000000
223.330734	0.000000
223.423386	0.000000
223.516022	0.000000
223.608658	0.000000
223.701309	0.000000
223.793945	0.000000
223.886581	0.000000
223.979218	0.000000
224.071869	0.000000
224.164505	0.000000
224.257156	0.000000
224.349792	0.000000
224.442444	0.000000
224.535095	0.000000
224.627747	0.000000
224.720398	0.000000
224.813034	0.000000
224.905685	0.000000
224.998337	145.320000
225.090988	145.120000
225.183640	145.040000
225.276291	145.140000
225.368942	145.520000
225.461594	145.820000
225.554245	146.080000
225.646912	145.980000
225.739578	146.640000
225.832230	147.280000
225.924896	146.640000
226.017548	146.820000
226.110199	147.360000
226.202866	146.540000
226.295532	146.140000
226.388184	146.160000
226.480850	145.780000
226.573517	145.400000
226.666168	145.760000
226.758835	146.120000
226.851501	146.680000
226.944183	147.100000
227.036850	146.900000
227.129517	147.020000
227.222183	146.800000
227.314850	146.700000
227.407516	146.840000
227.500198	147.460000
227.592865	146.900000
227.685532	146.680000
227.778214	146.480000
227.870880	146.680000
227.963562	146.900000
228.056229	147.340000
228.148926	147.420000
228.241592	148.100000
228.334274	147.520000
228.426956	147.060000
228.519638	147.220000
228.612305	146.880000
228.704987	146.660000
228.797668	146.800000
228.890350	146.940000
228.983032	146.260000
229.075714	146.800000
229.168396	146.320000
229.261108	145.640000
229.353790	145.580000
229.446472	145.780000
229.539169	145.660000
229.631851	145.740000
229.724533	146.320000
229.817230	146.500000
229.909912	147.280000
230.002609	147.260000
230.095306	147.220000
230.187988	147.020000
230.280685	146.720000
230.373383	145.760000
230.466095	145.820000
230.558792	145.860000
230.651474	146.040000
230.744171	146.100000
230.836868	146.060000
230.929581	146.020000
231.022278	146.000000
231.114975	146.320000
231.207672	146.140000
231.300369	146.500000
231.393082	146.340000
231.485779	146.120000
231.578506	145.680000
231.671204	145.880000
231.763916	146.280000
231.856613	146.340000
231.949326	146.780000
232.042023	146.640000
232.134735	146.460000
232.227448	145.740000
232.320160	145.920000
232.412872	145.920000
232.505585	147.020000
232.598297	147.540000
232.691010	147.820000
232.783722	147.480000
232.876450	147.980000
232.969162	147.060000
233.061874	146.400000
233.154587	146.160000
233.247314	146.560000
233.340027	145.800000
233.432739	146.300000
233.525467	146.260000
233.618179	146.620000
233.710907	146.060000
233.803635	146.620000
233.896347	146.220000
233.989090	146.980000
234.081818	146.900000
234.174545	147.580000
234.267258	146.720000
234.359985	147.040000
234.452713	146.640000
234.545441	146.320000
234.638168	145.760000
234.730896	146.660000
234.823639	146.540000
234.916367	147.000000
235.009094	147.240000
235.101822	147.580000
235.194580	147.260000
235.287308	146.980000
235.380051	146.300000
235.472778	146.760000
235.565521	146.720000
235.658249	146.400000
235.750992	146.480000
235.843719	146.800000
235.936462	146.920000
236.029205	146.460000
236.121948	146.220000
236.214691	146.560000
236.307449	147.160000
236.400192	146.560000
236.492935	146.540000
236.585678	146.840000
236.678421	146.800000
236.771164	146.340000
236.863907	146.760000
236.956665	147.060000
237.049408	148.700000
237.142151	148.000000
237.234909	148.380000
237.327652	148.120000
237.420410	148.040000
237.513153	146.720000
237.605927	147.020000
237.698669	146.480000
237.791428	146.100000
237.884186	146.500000
237.976944	146.100000
238.069702	146.340000
238.162445	145.740000
238.255203	146.040000
238.347961	146.060000
238.440720	146.160000
238.533478	145.880000
238.626266	145.900000
238.719025	146.340000
238.811783	145.880000
238.904541	145.840000
238.997314	146.040000
239.090073	146.040000
239.182831	145.900000
239.275604	146.620000
239.368362	146.740000
239.461136	146.780000
239.553909	146.840000
239.646667	146.360000
239.739441	146.020000
239.832214	146.160000
239.925003	146.480000
240.017761	147.320000
240.110535	148.080000
240.203308	147.540000
240.296082	147.260000
240.388855	146.660000
240.481628	146.520000
240.574417	146.500000
240.667191	147.060000
240.759964	146.960000
240.852737	147.340000
240.945526	146.820000
241.038315	146.460000
241.131088	146.300000
241.223877	146.800000
241.316650	146.160000
241.409439	146.600000
241.502228	146.140000
241.595001	146.700000
241.687790	146.380000
241.780579	146.600000
241.873367	146.560000
241.966141	146.980000
242.058929	146.200000
242.151718	146.720000
242.244507	147.480000
242.337311	146.720000
242.430099	147.300000
242.522903	147.600000
242.615692	146.940000
242.708481	146.800000
242.801270	147.600000
242.894073	146.880000
242.986862	147.340000
243.079651	147.960000
243.172455	147.820000
243.265244	147.900000
243.358063	147.680000
243.450867	147.480000
243.543655	147.420000
243.636459	147.220000
243.729263	147.360000
243.822067	147.860000
243.914856	148.040000
244.007660	147.940000
244.100464	147.860000
244.193268	147.180000
244.286072	147.020000
244.378876	146.780000
244.471680	146.280000
244.564499	146.580000
244.657318	147.380000
244.750122	147.620000
244.842926	147.100000
244.935745	147.540000
245.028549	147.300000
245.121368	146.720000
245.214172	146.460000
245.306992	146.920000
245.399796	146.620000
245.492615	146.520000
245.585434	146.340000
245.678253	146.420000
245.771072	146.520000
245.863892	147.020000
245.956711	147.520000
246.049530	147.520000
246.142349	147.340000
246.235168	146.960000
246.327988	147.100000
246.420807	146.600000
246.513626	146.580000
246.606445	146.400000
246.699280	146.120000
246.792099	145.820000
246.884918	145.760000
246.977753	145.420000
247.070587	145.520000
247.163422	145.660000
247.256241	145.740000
247.349075	146.000000
247.441895	146.380000
247.534729	146.420000
247.627563	146.340000
247.720383	146.820000
247.813217	146.880000
247.906052	146.780000
247.998886	146.900000
248.091736	147.040000
248.184570	146.320000
248.277405	145.920000
248.370239	146.860000
248.463074	147.800000
248.555908	148.040000
248.648743	148.080000
248.741592	148.440000
248.834427	147.560000
248.927261	146.100000
249.020111	146.520000
249.112946	146.980000
249.205795	146.600000
249.298630	146.940000
249.391495	147.220000
249.484344	146.580000
249.577179	146.260000
249.670029	146.500000
249.762878	146.820000
249.855728	147.100000
249.948563	147.240000
250.041412	146.840000
250.134262	147.140000
250.227112	147.140000
250.319962	146.960000
250.412827	147.040000
250.505692	146.840000
250.598541	146.520000
250.691391	145.860000
250.784241	145.920000
250.877106	145.800000
250.969955	146.120000
251.062805	146.720000
251.155670	147.280000
251.248520	147.180000
251.341385	147.680000
251.434235	147.480000
251.527100	147.020000
251.619965	146.520000
251.712814	147.520000
251.805695	147.120000
251.898560	147.340000
251.991425	147.380000
252.084290	147.700000
252.177155	146.620000
252.270020	146.260000
252.362885	146.160000
252.455750	146.260000
252.548615	146.000000
252.641479	146.060000
252.734360	146.180000
252.827240	146.120000
252.920105	146.120000
253.012970	146.020000
253.105850	146.140000
253.198715	145.980000
253.291595	146.300000
253.384460	145.920000
253.477341	145.820000
253.570221	146.000000
253.663086	145.900000
253.755966	146.180000
253.848846	146.320000
253.941727	146.560000
254.034592	146.460000
254.127472	146.260000
254.220367	146.120000
254.313248	146.220000
254.406128	146.060000
254.499008	146.240000
254.591904	147.240000
254.684784	147.760000
254.777664	147.660000
254.870544	147.320000
254.963440	147.080000
255.056335	146.740000
255.149216	145.900000
255.242111	146.400000
255.334991	146.900000
255.427887	147.100000
255.520767	147.260000
255.613663	147.380000
255.706558	146.700000
255.799438	146.480000
255.892334	146.120000
255.985229	146.000000
256.078125	146.020000
256.171021	145.920000
256.263916	146.340000
256.356812	146.500000
256.449707	146.660000
256.542603	146.260000
256.635498	146.900000
256.728394	146.640000
256.821289	146.480000
256.914215	146.500000
257.007080	147.020000
257.100006	147.020000
257.192932	147.520000
257.285828	147.660000
257.378723	147.260000
257.471619	147.100000
257.564545	146.360000
257.657440	146.100000
257.750336	146.820000
257.843262	146.660000
257.936157	147.440000
258.029053	148.020000
258.121979	148.260000
258.214874	147.680000
258.307800	147.780000
258.400696	146.900000
258.493622	146.820000
258.586517	145.960000
258.679443	146.140000
258.772339	145.920000
258.865265	145.800000
258.958160	145.400000
259.051086	146.420000
259.144012	145.940000
259.236938	146.880000
259.329834	147.340000
259.422791	147.500000
259.515717	146.800000
259.608612	146.760000
259.701538	146.280000
259.794464	145.980000
259.887390	146.040000
259.980316	145.880000
260.073212	145.820000
260.166138	145.200000
260.259064	145.420000
260.351990	145.360000
260.444916	145.320000
260.537842	145.960000
260.630768	146.720000
260.723694	146.440000
260.816620	146.740000
260.909546	147.040000
261.002472	146.440000
261.095398	146.140000
261.188354	146.160000
261.281281	145.900000
261.374207	145.980000
261.467133	146.840000
261.560089	146.980000
261.653015	146.840000
261.745972	147.400000
261.838867	147.680000
261.931824	147.620000
262.024780	147.080000
262.117706	147.360000
262.210663	147.240000
262.303589	147.020000
262.396515	146.860000
262.489471	147.940000
262.582397	147.720000
262.675354	146.980000
262.768280	147.180000
262.861237	147.120000
262.954163	146.500000
263.047119	146.840000
263.140045	147.380000
263.233002	147.040000
263.325958	146.800000
263.418884	146.560000
263.511841	146.400000
263.604797	146.080000
263.697723	146.220000
263.790680	146.300000
263.883636	146.840000
263.976593	146.700000
264.069550	146.740000
264.162476	146.700000
264.255463	146.600000
264.348419	146.040000
264.441376	146.620000
264.534332	146.460000
264.627289	146.400000
264.720245	147.040000
264.813202	147.020000
264.906158	146.720000
264.999115	147.220000
265.092072	147.220000
265.185028	147.040000
265.277985	147.380000
265.370941	147.180000
265.463898	146.940000
265.556854	146.920000
265.649811	145.960000
265.742798	145.700000
265.835754	145.920000
265.928711	146.220000
266.021667	146.460000
266.114655	147.120000
266.207611	147.660000
266.300568	147.100000
266.393585	146.540000
266.486511	146.520000
266.579498	145.800000
266.672485	145.700000
266.765442	145.700000
266.858429	146.400000
266.951385	145.740000
267.044342	146.200000
267.137329	145.980000
267.230316	146.580000
267.323273	145.920000
267.416260	147.080000
267.509216	146.920000
267.602203	146.880000
267.695160	147.040000
267.788147	147.580000
267.881134	146.880000
267.974091	146.920000
268.067078	146.840000
268.160065	146.620000
268.253052	146.180000
268.346008	146.180000
268.438995	146.180000
268.531982	146.500000
268.624969	146.320000
268.717987	146.680000
268.810944	146.720000
268.903961	146.920000
268.996948	146.280000
269.089905	146.800000
269.182892	146.540000
269.275879	146.680000
269.368866	146.280000
269.461853	146.860000
269.554871	146.380000
269.647858	146.480000
269.740845	146.780000
269.833832	147.120000
269.926819	146.720000
270.019806	146.820000
270.112793	146.560000
270.205811	146.500000
270.298798	146.280000
270.391785	147.020000
270.484772	146.740000
270.577789	146.980000
270.670776	146.340000
270.763763	146.480000
270.856750	146.260000
270.949768	146.100000
271.042786	146.180000
271.135773	146.420000
271.228790	146.560000
271.321808	146.120000
271.414795	146.080000
271.507782	145.780000
271.600800	145.700000
271.693817	145.980000
271.786804	146.340000
271.879822	146.860000
271.972809	146.940000
272.065826	147.080000
272.158844	146.660000
272.251831	147.180000
272.344849	147.240000
272.437866	146.960000
272.530853	147.220000
272.623871	147.340000
272.716888	146.240000
272.809906	146.280000
272.902893	146.400000
272.995911	145.580000
273.088928	145.640000
273.181946	146.180000
273.274963	146.020000
273.367981	146.040000
273.460999	146.520000
273.554047	146.800000
273.647003	147.280000
273.740051	147.280000
273.833069	147.880000
273.926086	148.380000
274.019135	148.040000
274.112152	147.540000
274.205170	147.620000
274.298187	147.580000
274.391205	146.660000
274.484222	146.900000
274.577240	147.000000
274.670258	146.720000
274.763306	146.460000
274.856323	147.020000
274.949341	146.740000
275.042358	147.000000
275.135406	147.000000
275.228424	147.140000
275.321442	147.040000
275.414490	147.020000
275.507507	147.260000
275.600525	147.800000
275.693573	147.320000
275.786591	146.920000
275.879669	146.980000
275.972656	146.120000
276.065735	145.760000
276.158752	146.400000
276.251801	147.340000
276.344818	147.560000
276.437866	148.080000
276.530884	147.800000
276.623932	147.040000
276.716980	146.780000
276.809998	146.660000
276.903046	146.280000
276.996094	147.060000
277.089111	148.020000
277.182159	148.240000
277.275208	148.020000
277.368256	148.020000
277.461304	147.600000
277.554321	146.520000
277.647369	146.300000
277.740417	146.520000
277.833466	146.660000
277.926514	146.480000
278.019562	147.280000
278.112610	146.780000
278.205688	146.840000
278.298706	146.960000
278.391785	146.780000
278.484833	146.220000
278.577881	146.320000
278.670929	146.720000
278.763977	146.600000
278.857025	147.080000
278.950073	147.440000
279.043121	147.300000
279.136169	146.860000
279.229248	146.840000
279.322296	146.600000
279.415344	146.300000
279.508392	146.480000
279.601440	146.360000
279.694519	146.140000
279.787567	146.100000
279.880615	146.000000
279.973694	145.780000
280.066742	145.740000
280.159790	145.780000
280.252869	145.760000
280.345917	146.220000
280.438995	146.280000
280.532074	146.380000
280.625122	147.180000
280.718201	147.740000
280.811279	147.680000
280.904327	147.820000
280.997406	148.100000
281.090454	147.540000
281.183533	146.940000
281.276581	146.660000
281.369659	146.300000
281.462738	146.120000
281.555786	146.200000
281.648865	146.600000
281.741943	146.540000
281.835022	147.260000
281.928070	147.220000
282.021149	146.920000
282.114227	146.760000
282.207306	146.860000
282.300385	146.900000
282.393433	147.000000
282.486511	147.100000
282.579590	147.460000
282.672668	147.900000
282.765747	147.400000
282.858856	147.040000
282.951904	147.120000
283.045013	146.980000
283.138062	147.240000
283.231171	147.620000
283.324249	147.840000
283.417328	148.060000
283.510406	147.480000
283.603485	147.160000
283.696564	146.880000
283.789642	147.040000
283.882751	146.540000
283.975830	147.180000
284.068909	146.820000
284.161987	147.340000
284.255066	146.820000
284.348175	147.000000
284.441254	146.440000
284.534332	147.020000
284.627441	146.400000
284.720520	146.100000
284.813599	146.320000
284.906708	146.760000
284.999786	145.660000
285.092896	145.600000
285.185974	146.860000
285.279053	146.100000
285.372192	146.140000
285.465240	147.260000
285.558380	147.560000
285.651459	147.000000
285.744568	148.140000
285.837677	147.440000
285.930756	147.140000
286.023865	147.240000
286.116943	146.920000
286.210052	146.720000
286.303162	146.660000
286.396240	146.380000
286.489349	145.800000
286.582458	146.020000
286.675568	145.960000
286.768646	146.460000
286.861755	146.600000
286.954865	147.360000
287.047974	146.600000
287.141083	146.180000
287.234161	146.080000
287.327271	146.160000
287.420380	146.560000
287.513519	146.980000
287.606598	147.060000
287.699738	147.380000
287.792816	147.300000
287.885956	146.960000
287.979034	147.100000
288.072174	147.220000
288.165283	146.600000
288.258392	146.700000
288.351501	146.100000
288.444611	146.520000
288.537720	146.700000
288.630859	146.680000
288.723969	146.560000
288.817078	146.900000
288.910187	146.460000
289.003296	145.980000
289.096436	146.140000
289.189545	146.020000
289.282654	145.560000
289.375763	146.120000
289.468903	146.560000
289.562012	146.880000
289.655121	147.220000
289.748260	147.320000
289.841400	147.440000
289.934509	147.060000
290.027649	147.100000
290.120728	146.720000
290.213898	146.840000
290.306976	146.460000
290.400146	146.720000
290.493256	146.000000
290.586395	146.540000
290.679535	146.940000
290.772644	146.680000
290.865784	146.020000
290.958893	146.320000
291.052032	145.900000
291.145172	145.600000
291.238281	145.280000
291.331421	145.720000
291.424561	146.240000
291.517670	146.140000
291.610809	146.180000
291.703949	146.320000
291.797089	146.620000
291.890228	146.100000
291.983337	145.840000
292.076477	145.880000
292.169617	146.280000
292.262756	146.080000
292.355927	146.160000
292.449036	146.160000
292.542206	146.180000
292.635315	146.340000
292.728485	146.500000
292.821625	146.120000
292.914764	147.200000
293.007904	147.240000
293.101044	147.060000
293.194183	147.140000
293.287323	147.560000
293.380463	146.720000
293.473602	146.580000
293.566742	146.940000
293.659882	147.260000
293.753021	147.520000
293.846191	147.680000
293.939331	147.300000
294.032471	146.960000
294.125610	146.480000
294.218781	146.640000
294.311920	146.960000
294.405060	147.280000
294.498230	147.100000
294.591370	147.160000
294.684540	146.380000
294.777679	145.820000
294.870850	146.140000
294.963959	146.300000
295.057159	146.020000
295.150299	146.440000
295.243469	146.540000
295.336609	145.760000
295.429779	145.460000
295.522919	145.700000
295.616089	145.760000
295.709229	146.440000
295.802399	146.840000
295.895569	146.840000
295.988708	146.880000
296.081879	147.000000
296.175018	146.060000
296.268188	146.280000
296.361359	146.580000
296.454529	146.520000
296.547668	146.200000
296.640839	146.860000
296.734009	146.240000
296.827179	146.400000
296.920319	146.660000
297.013519	146.700000
297.106659	146.320000
297.199860	146.460000
297.292999	146.180000
297.386200	145.820000
297.479309	145.580000
297.572510	145.400000
297.665680	145.220000
297.758850	145.000000
297.852020	145.060000
297.945190	145.100000
298.038361	145.180000
298.131531	146.320000
298.224701	146.500000
298.317871	146.240000
298.411072	145.840000
298.504242	145.680000
298.597412	144.860000
298.690582	144.940000
298.783752	145.280000
298.876923	146.000000
298.970093	146.200000
299.063293	146.800000
299.156464	147.120000
299.249634	147.160000
299.342834	147.120000
299.436005	147.580000
299.529205	147.240000
299.622345	146.920000
299.715576	146.300000
299.808716	146.320000
299.901917	146.160000
299.995117	146.160000
300.088287	146.480000
300.181488	146.420000
300.274658	146.240000
300.367828	146.120000
300.461029	146.280000
300.554199	146.440000
300.647400	146.800000
300.740601	147.120000
300.833771	146.720000
300.926971	146.980000
301.020142	146.100000
301.113342	146.160000
301.206512	145.780000
301.299713	146.220000
301.392914	145.700000
301.486084	146.380000
301.579285	146.160000
301.672516	146.760000
301.765686	146.460000
301.858887	146.440000
301.952057	146.220000
302.045288	146.460000
302.138458	146.140000
302.231659	146.140000
302.324860	145.980000
302.418060	145.840000
302.511261	145.460000
302.604462	146.000000
302.697662	146.080000
302.790863	146.120000
302.884064	145.600000
302.977264	145.800000
303.070465	145.360000
303.163666	145.740000
303.256866	146.320000
303.350067	146.440000
303.443268	146.640000
303.536469	146.640000
303.629669	146.220000
303.722870	146.100000
303.816071	146.180000
303.909271	146.060000
304.002472	145.520000
304.095673	145.580000
304.188934	144.640000
304.282104	145.720000
304.375336	145.840000
304.468506	145.960000
304.561768	145.760000
304.654968	147.120000
304.748169	146.460000
304.841370	146.160000
304.934601	146.440000
305.027802	146.420000
305.121002	145.540000
305.214233	145.440000
305.307434	145.760000
305.400665	146.360000
305.493866	146.340000
