Model Number: SPM-002-B   
Serial Number: 70087108
Firmware Version: 004.15.4
Exposure Time: 100000.000000us
Data Taken on: 11-12-2020 19:37:41.708
Wavelength	Amplitude
221.570786	0.000000
221.663406	0.000000
221.756027	0.000000
221.848648	0.000000
221.941269	0.000000
222.033905	0.000000
222.126526	0.000000
222.219162	0.000000
222.311798	0.000000
222.404419	0.000000
222.497055	0.000000
222.589676	0.000000
222.682312	0.000000
222.774933	0.000000
222.867569	0.000000
222.960205	0.000000
223.052841	0.000000
223.145462	0.000000
223.238098	0.000000
223.330734	0.000000
223.423386	0.000000
223.516022	0.000000
223.608658	0.000000
223.701309	0.000000
223.793945	0.000000
223.886581	0.000000
223.979218	0.000000
224.071869	0.000000
224.164505	0.000000
224.257156	0.000000
224.349792	0.000000
224.442444	0.000000
224.535095	0.000000
224.627747	0.000000
224.720398	0.000000
224.813034	0.000000
224.905685	0.000000
224.998337	145.580000
225.090988	145.720000
225.183640	145.660000
225.276291	145.420000
225.368942	145.720000
225.461594	146.440000
225.554245	146.380000
225.646912	146.440000
225.739578	146.900000
225.832230	147.160000
225.924896	146.180000
226.017548	146.260000
226.110199	146.540000
226.202866	145.920000
226.295532	145.640000
226.388184	145.400000
226.480850	145.000000
226.573517	144.540000
226.666168	144.620000
226.758835	145.160000
226.851501	145.980000
226.944183	146.200000
227.036850	145.880000
227.129517	146.340000
227.222183	146.180000
227.314850	146.100000
227.407516	146.100000
227.500198	146.920000
227.592865	146.400000
227.685532	145.940000
227.778214	145.680000
227.870880	146.040000
227.963562	146.440000
228.056229	146.720000
228.148926	146.680000
228.241592	147.400000
228.334274	147.160000
228.426956	146.360000
228.519638	146.480000
228.612305	146.280000
228.704987	145.960000
228.797668	146.300000
228.890350	146.380000
228.983032	145.720000
229.075714	146.520000
229.168396	146.220000
229.261108	145.480000
229.353790	145.600000
229.446472	146.100000
229.539169	145.860000
229.631851	145.840000
229.724533	146.020000
229.817230	146.060000
229.909912	146.980000
230.002609	146.740000
230.095306	146.740000
230.187988	147.120000
230.280685	147.000000
230.373383	145.460000
230.466095	145.800000
230.558792	145.980000
230.651474	145.820000
230.744171	145.560000
230.836868	146.100000
230.929581	145.720000
231.022278	145.960000
231.114975	145.720000
231.207672	145.920000
231.300369	146.140000
231.393082	146.460000
231.485779	146.020000
231.578506	146.120000
231.671204	146.040000
231.763916	145.920000
231.856613	145.840000
231.949326	146.300000
232.042023	146.380000
232.134735	146.480000
232.227448	146.300000
232.320160	146.600000
232.412872	146.240000
232.505585	146.840000
232.598297	147.120000
232.691010	146.980000
232.783722	146.680000
232.876450	147.200000
232.969162	146.620000
233.061874	146.120000
233.154587	146.020000
233.247314	146.140000
233.340027	145.480000
233.432739	145.980000
233.525467	145.940000
233.618179	146.600000
233.710907	146.480000
233.803635	147.200000
233.896347	146.740000
233.989090	147.520000
234.081818	147.200000
234.174545	147.080000
234.267258	146.300000
234.359985	146.460000
234.452713	146.080000
234.545441	146.020000
234.638168	145.860000
234.730896	146.440000
234.823639	146.420000
234.916367	146.640000
235.009094	146.820000
235.101822	147.140000
235.194580	147.020000
235.287308	146.900000
235.380051	146.440000
235.472778	146.500000
235.565521	146.700000
235.658249	146.540000
235.750992	146.520000
235.843719	146.400000
235.936462	146.340000
236.029205	145.880000
236.121948	145.520000
236.214691	146.080000
236.307449	146.860000
236.400192	146.600000
236.492935	146.600000
236.585678	147.120000
236.678421	146.680000
236.771164	146.420000
236.863907	146.980000
236.956665	147.240000
237.049408	148.880000
237.142151	148.560000
237.234909	149.080000
237.327652	148.640000
237.420410	148.300000
237.513153	146.900000
237.605927	146.760000
237.698669	146.120000
237.791428	145.700000
237.884186	146.260000
237.976944	145.440000
238.069702	146.060000
238.162445	145.720000
238.255203	146.040000
238.347961	146.220000
238.440720	146.780000
238.533478	146.400000
238.626266	146.320000
238.719025	146.460000
238.811783	146.140000
238.904541	145.680000
238.997314	145.640000
239.090073	145.300000
239.182831	145.320000
239.275604	145.780000
239.368362	145.820000
239.461136	146.080000
239.553909	146.220000
239.646667	146.200000
239.739441	145.840000
239.832214	146.240000
239.925003	146.300000
240.017761	146.860000
240.110535	147.400000
240.203308	146.500000
240.296082	146.520000
240.388855	146.260000
240.481628	146.220000
240.574417	146.220000
240.667191	147.120000
240.759964	146.680000
240.852737	146.640000
240.945526	146.520000
241.038315	146.380000
241.131088	146.180000
241.223877	146.800000
241.316650	146.620000
241.409439	147.120000
241.502228	146.500000
241.595001	147.100000
241.687790	146.720000
241.780579	146.920000
241.873367	146.720000
241.966141	146.880000
242.058929	146.260000
242.151718	146.860000
242.244507	146.900000
242.337311	146.320000
242.430099	146.780000
242.522903	146.940000
242.615692	146.160000
242.708481	146.440000
242.801270	146.980000
242.894073	146.680000
242.986862	146.540000
243.079651	147.200000
243.172455	147.020000
243.265244	147.180000
243.358063	146.640000
243.450867	146.860000
243.543655	146.420000
243.636459	146.140000
243.729263	146.200000
243.822067	146.780000
243.914856	147.080000
244.007660	147.140000
244.100464	147.360000
244.193268	146.620000
244.286072	146.280000
244.378876	145.640000
244.471680	145.580000
244.564499	145.800000
244.657318	146.560000
244.750122	146.900000
244.842926	146.320000
244.935745	146.600000
245.028549	145.940000
245.121368	145.220000
245.214172	144.880000
245.306992	145.800000
245.399796	145.320000
245.492615	145.880000
245.585434	146.060000
245.678253	146.400000
245.771072	145.840000
245.863892	146.380000
245.956711	146.380000
246.049530	146.200000
246.142349	145.760000
246.235168	146.120000
246.327988	146.420000
246.420807	146.200000
246.513626	146.400000
246.606445	146.440000
246.699280	146.480000
246.792099	146.180000
246.884918	145.960000
246.977753	145.760000
247.070587	145.920000
247.163422	145.520000
247.256241	145.380000
247.349075	145.940000
247.441895	146.060000
247.534729	145.780000
247.627563	145.880000
247.720383	146.420000
247.813217	146.240000
247.906052	146.280000
247.998886	146.660000
248.091736	146.660000
248.184570	146.140000
248.277405	146.040000
248.370239	146.880000
248.463074	147.580000
248.555908	147.940000
248.648743	147.780000
248.741592	147.800000
248.834427	146.940000
248.927261	145.740000
249.020111	146.280000
249.112946	147.160000
249.205795	146.780000
249.298630	146.920000
249.391495	147.240000
249.484344	146.640000
249.577179	146.000000
249.670029	146.460000
249.762878	147.000000
249.855728	147.200000
249.948563	147.180000
250.041412	146.760000
250.134262	146.860000
250.227112	146.440000
250.319962	146.440000
250.412827	146.500000
250.505692	146.360000
250.598541	146.280000
250.691391	146.220000
250.784241	146.180000
250.877106	146.320000
250.969955	146.200000
251.062805	146.640000
251.155670	147.260000
251.248520	147.420000
251.341385	147.280000
251.434235	147.440000
251.527100	146.860000
251.619965	146.340000
251.712814	146.720000
251.805695	146.680000
251.898560	146.900000
251.991425	147.300000
252.084290	147.280000
252.177155	146.360000
252.270020	146.300000
252.362885	146.360000
252.455750	146.360000
252.548615	146.180000
252.641479	146.500000
252.734360	146.280000
252.827240	146.140000
252.920105	146.080000
253.012970	146.160000
253.105850	146.080000
253.198715	145.940000
253.291595	146.060000
253.384460	145.420000
253.477341	145.140000
253.570221	145.440000
253.663086	145.340000
253.755966	145.780000
253.848846	145.920000
253.941727	146.380000
254.034592	146.200000
254.127472	146.000000
254.220367	145.860000
254.313248	146.320000
254.406128	145.800000
254.499008	146.080000
254.591904	147.120000
254.684784	147.680000
254.777664	147.440000
254.870544	147.400000
254.963440	147.160000
255.056335	147.140000
255.149216	146.340000
255.242111	147.020000
255.334991	147.380000
255.427887	147.640000
255.520767	147.500000
255.613663	147.800000
255.706558	147.040000
255.799438	146.820000
255.892334	146.180000
255.985229	145.700000
256.078125	145.300000
256.171021	145.300000
256.263916	145.920000
256.356812	146.520000
256.449707	147.000000
256.542603	147.180000
256.635498	147.540000
256.728394	147.040000
256.821289	146.520000
256.914215	146.560000
257.007080	146.680000
257.100006	146.660000
257.192932	147.060000
257.285828	147.300000
257.378723	147.140000
257.471619	146.980000
257.564545	146.620000
257.657440	146.440000
257.750336	147.140000
257.843262	146.740000
257.936157	147.640000
258.029053	147.960000
258.121979	148.140000
258.214874	147.600000
258.307800	147.620000
258.400696	146.480000
258.493622	146.260000
258.586517	145.500000
258.679443	145.540000
258.772339	145.320000
258.865265	145.200000
258.958160	145.120000
259.051086	146.240000
259.144012	146.140000
259.236938	146.960000
259.329834	147.260000
259.422791	147.080000
259.515717	146.100000
259.608612	146.020000
259.701538	145.840000
259.794464	145.600000
259.887390	145.640000
259.980316	145.920000
260.073212	145.760000
260.166138	144.860000
260.259064	145.420000
260.351990	145.920000
260.444916	145.640000
260.537842	146.100000
260.630768	147.100000
260.723694	147.000000
260.816620	146.720000
260.909546	146.680000
261.002472	146.200000
261.095398	145.480000
261.188354	145.280000
261.281281	144.640000
261.374207	145.080000
261.467133	145.820000
261.560089	146.100000
261.653015	146.100000
261.745972	147.280000
261.838867	147.620000
261.931824	147.600000
262.024780	147.180000
262.117706	147.600000
262.210663	147.280000
262.303589	146.900000
262.396515	146.420000
262.489471	147.460000
262.582397	147.000000
262.675354	146.760000
262.768280	146.620000
262.861237	146.820000
262.954163	146.560000
263.047119	146.580000
263.140045	146.400000
263.233002	146.600000
263.325958	146.440000
263.418884	145.880000
263.511841	146.000000
263.604797	146.240000
263.697723	146.160000
263.790680	146.200000
263.883636	147.100000
263.976593	146.800000
264.069550	146.660000
264.162476	146.580000
264.255463	146.580000
264.348419	146.000000
264.441376	146.580000
264.534332	146.460000
264.627289	146.460000
264.720245	147.000000
264.813202	146.620000
264.906158	146.540000
264.999115	147.180000
265.092072	147.060000
265.185028	147.120000
265.277985	147.640000
265.370941	147.340000
265.463898	146.560000
265.556854	146.500000
265.649811	145.600000
265.742798	145.500000
265.835754	145.680000
265.928711	146.360000
266.021667	146.200000
266.114655	146.440000
266.207611	146.880000
266.300568	146.100000
266.393585	145.400000
266.486511	145.840000
266.579498	145.420000
266.672485	144.980000
266.765442	145.300000
266.858429	146.080000
266.951385	145.800000
267.044342	145.860000
267.137329	145.900000
267.230316	146.120000
267.323273	145.480000
267.416260	146.200000
267.509216	146.460000
267.602203	146.380000
267.695160	146.860000
267.788147	147.040000
267.881134	146.200000
267.974091	146.360000
268.067078	146.220000
268.160065	145.980000
268.253052	145.720000
268.346008	145.860000
268.438995	145.520000
268.531982	145.560000
268.624969	145.140000
268.717987	145.500000
268.810944	145.660000
268.903961	145.920000
268.996948	145.580000
269.089905	146.200000
269.182892	146.180000
269.275879	146.320000
269.368866	145.820000
269.461853	146.260000
269.554871	146.120000
269.647858	146.240000
269.740845	146.560000
269.833832	147.180000
269.926819	146.840000
270.019806	146.800000
270.112793	146.400000
270.205811	145.980000
270.298798	145.840000
270.391785	146.480000
270.484772	145.980000
270.577789	146.160000
270.670776	146.020000
270.763763	145.780000
270.856750	145.500000
270.949768	145.640000
271.042786	145.880000
271.135773	145.820000
271.228790	146.380000
271.321808	146.000000
271.414795	145.780000
271.507782	145.180000
271.600800	145.260000
271.693817	145.000000
271.786804	145.480000
271.879822	145.960000
271.972809	146.360000
272.065826	146.760000
272.158844	146.300000
272.251831	146.900000
272.344849	146.680000
272.437866	146.460000
272.530853	146.240000
272.623871	146.860000
272.716888	145.820000
272.809906	146.220000
272.902893	146.400000
272.995911	146.020000
273.088928	145.940000
273.181946	146.280000
273.274963	145.940000
273.367981	145.860000
273.460999	146.320000
273.554047	146.640000
273.647003	147.160000
273.740051	147.320000
273.833069	147.640000
273.926086	147.560000
274.019135	147.240000
274.112152	146.660000
274.205170	146.580000
274.298187	146.880000
274.391205	146.700000
274.484222	146.540000
274.577240	146.580000
274.670258	146.640000
274.763306	146.380000
274.856323	146.780000
274.949341	146.920000
275.042358	147.380000
275.135406	147.320000
275.228424	147.180000
275.321442	146.880000
275.414490	146.680000
275.507507	146.740000
275.600525	147.040000
275.693573	146.760000
275.786591	146.600000
275.879669	147.080000
275.972656	146.520000
276.065735	146.420000
276.158752	147.040000
276.251801	147.640000
276.344818	147.360000
276.437866	147.760000
276.530884	147.380000
276.623932	146.740000
276.716980	146.580000
276.809998	146.600000
276.903046	146.360000
276.996094	147.480000
277.089111	148.000000
277.182159	148.400000
277.275208	148.000000
277.368256	147.880000
277.461304	147.120000
277.554321	146.520000
277.647369	146.220000
277.740417	146.520000
277.833466	146.260000
277.926514	146.080000
278.019562	146.680000
278.112610	146.100000
278.205688	146.280000
278.298706	146.820000
278.391785	146.400000
278.484833	145.980000
278.577881	145.760000
278.670929	145.820000
278.763977	145.660000
278.857025	146.560000
278.950073	146.620000
279.043121	146.780000
279.136169	146.520000
279.229248	146.340000
279.322296	145.900000
279.415344	145.660000
279.508392	145.760000
279.601440	145.920000
279.694519	145.980000
279.787567	145.840000
279.880615	145.780000
279.973694	145.540000
280.066742	145.540000
280.159790	145.680000
280.252869	145.500000
280.345917	145.580000
280.438995	145.760000
280.532074	145.500000
280.625122	145.760000
280.718201	146.840000
280.811279	147.100000
280.904327	147.340000
280.997406	147.680000
281.090454	147.820000
281.183533	146.620000
281.276581	146.380000
281.369659	145.880000
281.462738	145.940000
281.555786	145.960000
281.648865	146.380000
281.741943	146.480000
281.835022	147.400000
281.928070	146.820000
282.021149	146.180000
282.114227	146.080000
282.207306	146.220000
282.300385	146.100000
282.393433	146.660000
282.486511	146.900000
282.579590	147.180000
282.672668	147.360000
282.765747	146.800000
282.858856	146.280000
282.951904	146.440000
283.045013	146.560000
283.138062	146.560000
283.231171	146.880000
283.324249	147.340000
283.417328	147.400000
283.510406	147.080000
283.603485	146.860000
283.696564	146.980000
283.789642	146.820000
283.882751	146.300000
283.975830	146.760000
284.068909	146.520000
284.161987	146.880000
284.255066	146.260000
284.348175	146.320000
284.441254	146.100000
284.534332	146.540000
284.627441	145.940000
284.720520	146.020000
284.813599	146.360000
284.906708	146.460000
284.999786	145.680000
285.092896	145.360000
285.185974	146.680000
285.279053	146.200000
285.372192	146.320000
285.465240	147.400000
285.558380	147.440000
285.651459	146.720000
285.744568	147.480000
285.837677	146.900000
285.930756	146.460000
286.023865	146.660000
286.116943	146.400000
286.210052	146.500000
286.303162	146.780000
286.396240	146.640000
286.489349	146.260000
286.582458	146.680000
286.675568	146.100000
286.768646	145.800000
286.861755	146.320000
286.954865	147.140000
287.047974	146.660000
287.141083	146.400000
287.234161	146.480000
287.327271	146.200000
287.420380	146.340000
287.513519	146.200000
287.606598	146.460000
287.699738	146.660000
287.792816	146.540000
287.885956	146.180000
287.979034	146.460000
288.072174	146.500000
288.165283	146.180000
288.258392	146.420000
288.351501	145.920000
288.444611	145.820000
288.537720	145.860000
288.630859	145.880000
288.723969	145.600000
288.817078	146.240000
288.910187	146.560000
289.003296	146.100000
289.096436	145.960000
289.189545	145.920000
289.282654	145.280000
289.375763	145.480000
289.468903	146.440000
289.562012	146.900000
289.655121	147.060000
289.748260	147.340000
289.841400	147.620000
289.934509	147.280000
290.027649	147.280000
290.120728	147.000000
290.213898	147.220000
290.306976	146.540000
290.400146	146.500000
290.493256	146.260000
290.586395	146.300000
290.679535	146.280000
290.772644	146.180000
290.865784	145.560000
290.958893	145.280000
291.052032	145.080000
291.145172	145.140000
291.238281	145.100000
291.331421	145.280000
291.424561	145.780000
291.517670	145.980000
291.610809	146.080000
291.703949	145.980000
291.797089	146.300000
291.890228	145.800000
291.983337	145.780000
292.076477	145.380000
292.169617	145.840000
292.262756	145.660000
292.355927	145.600000
292.449036	145.360000
292.542206	145.460000
292.635315	145.420000
292.728485	145.600000
292.821625	145.400000
292.914764	146.600000
293.007904	146.780000
293.101044	146.900000
293.194183	146.920000
293.287323	147.500000
293.380463	146.760000
293.473602	146.320000
293.566742	146.300000
293.659882	146.560000
293.753021	146.640000
293.846191	146.580000
293.939331	146.480000
294.032471	146.300000
294.125610	145.840000
294.218781	146.300000
294.311920	146.860000
294.405060	147.200000
294.498230	147.100000
294.591370	147.280000
294.684540	146.300000
294.777679	145.600000
294.870850	145.940000
294.963959	145.860000
295.057159	145.760000
295.150299	146.280000
295.243469	146.160000
295.336609	145.400000
295.429779	145.480000
295.522919	145.900000
295.616089	145.900000
295.709229	146.600000
295.802399	146.760000
295.895569	146.340000
295.988708	145.980000
296.081879	145.960000
296.175018	145.240000
296.268188	145.420000
296.361359	146.200000
296.454529	146.540000
296.547668	146.640000
296.640839	146.960000
296.734009	146.920000
296.827179	146.720000
296.920319	146.840000
297.013519	146.500000
297.106659	146.860000
297.199860	146.780000
297.292999	146.780000
297.386200	146.260000
297.479309	146.100000
297.572510	145.720000
297.665680	145.420000
297.758850	145.280000
297.852020	145.180000
297.945190	145.060000
298.038361	144.600000
298.131531	145.580000
298.224701	145.360000
298.317871	145.060000
298.411072	144.780000
298.504242	144.920000
298.597412	144.220000
298.690582	144.600000
298.783752	144.820000
298.876923	145.740000
298.970093	146.000000
299.063293	146.620000
299.156464	146.780000
299.249634	146.860000
299.342834	146.860000
299.436005	147.080000
299.529205	146.760000
299.622345	146.580000
299.715576	146.120000
299.808716	145.440000
299.901917	145.480000
299.995117	145.700000
300.088287	145.840000
300.181488	145.940000
300.274658	146.120000
300.367828	145.800000
300.461029	145.700000
300.554199	145.960000
300.647400	146.380000
300.740601	146.740000
300.833771	146.620000
300.926971	146.920000
301.020142	146.000000
301.113342	145.860000
301.206512	145.540000
301.299713	145.760000
301.392914	145.340000
301.486084	146.040000
301.579285	145.940000
301.672516	146.600000
301.765686	146.580000
301.858887	146.560000
301.952057	146.280000
302.045288	146.300000
302.138458	145.980000
302.231659	145.540000
302.324860	145.660000
302.418060	145.440000
302.511261	145.540000
302.604462	145.580000
302.697662	145.480000
302.790863	145.560000
302.884064	145.300000
302.977264	145.480000
303.070465	145.680000
303.163666	146.640000
303.256866	146.580000
303.350067	147.140000
303.443268	147.160000
303.536469	147.020000
303.629669	146.380000
303.722870	146.500000
303.816071	146.000000
303.909271	146.020000
304.002472	145.420000
304.095673	145.340000
304.188934	144.520000
304.282104	145.740000
304.375336	145.760000
304.468506	146.120000
304.561768	146.320000
304.654968	147.100000
304.748169	146.240000
304.841370	145.900000
304.934601	146.140000
305.027802	145.860000
305.121002	145.460000
305.214233	145.820000
305.307434	145.680000
305.400665	146.120000
305.493866	145.960000
