Model Number: SPM-002-B   
Serial Number: 70087108
Firmware Version: 004.15.4
Exposure Time: 100000.000000us
Data Taken on: 11-12-2020 19:38:16.685
Wavelength	Amplitude
221.570786	0.000000
221.663406	0.000000
221.756027	0.000000
221.848648	0.000000
221.941269	0.000000
222.033905	0.000000
222.126526	0.000000
222.219162	0.000000
222.311798	0.000000
222.404419	0.000000
222.497055	0.000000
222.589676	0.000000
222.682312	0.000000
222.774933	0.000000
222.867569	0.000000
222.960205	0.000000
223.052841	0.000000
223.145462	0.000000
223.238098	0.000000
223.330734	0.000000
223.423386	0.000000
223.516022	0.000000
223.608658	0.000000
223.701309	0.000000
223.793945	0.000000
223.886581	0.000000
223.979218	0.000000
224.071869	0.000000
224.164505	0.000000
224.257156	0.000000
224.349792	0.000000
224.442444	0.000000
224.535095	0.000000
224.627747	0.000000
224.720398	0.000000
224.813034	0.000000
224.905685	0.000000
224.998337	145.820000
225.090988	145.240000
225.183640	145.380000
225.276291	145.460000
225.368942	145.920000
225.461594	146.560000
225.554245	147.040000
225.646912	146.860000
225.739578	147.200000
225.832230	147.440000
225.924896	146.340000
226.017548	146.720000
226.110199	147.340000
226.202866	146.620000
226.295532	146.240000
226.388184	146.340000
226.480850	145.520000
226.573517	144.820000
226.666168	145.440000
226.758835	146.020000
226.851501	146.520000
226.944183	146.960000
227.036850	146.780000
227.129517	147.020000
227.222183	146.780000
227.314850	146.720000
227.407516	146.740000
227.500198	147.560000
227.592865	146.760000
227.685532	146.480000
227.778214	146.320000
227.870880	146.740000
227.963562	146.800000
228.056229	147.500000
228.148926	147.380000
228.241592	148.040000
228.334274	147.420000
228.426956	147.040000
228.519638	146.980000
228.612305	146.760000
228.704987	146.340000
228.797668	146.500000
228.890350	146.500000
228.983032	146.060000
229.075714	146.960000
229.168396	146.800000
229.261108	146.420000
229.353790	146.400000
229.446472	146.540000
229.539169	145.880000
229.631851	145.680000
229.724533	146.080000
229.817230	146.440000
229.909912	147.280000
230.002609	147.380000
230.095306	147.420000
230.187988	147.460000
230.280685	147.200000
230.373383	146.020000
230.466095	145.880000
230.558792	146.040000
230.651474	145.880000
230.744171	145.560000
230.836868	145.740000
230.929581	146.200000
231.022278	146.400000
231.114975	146.560000
231.207672	146.560000
231.300369	147.020000
231.393082	147.020000
231.485779	146.680000
231.578506	146.660000
231.671204	146.900000
231.763916	146.840000
231.856613	146.780000
231.949326	147.300000
232.042023	146.940000
232.134735	146.820000
232.227448	146.460000
232.320160	146.460000
232.412872	146.080000
232.505585	147.040000
232.598297	147.460000
232.691010	147.420000
232.783722	147.100000
232.876450	147.680000
232.969162	147.040000
233.061874	146.480000
233.154587	146.240000
233.247314	146.460000
233.340027	145.720000
233.432739	145.960000
233.525467	145.720000
233.618179	146.180000
233.710907	145.660000
233.803635	146.200000
233.896347	145.920000
233.989090	146.900000
234.081818	146.760000
234.174545	147.500000
234.267258	147.060000
234.359985	147.480000
234.452713	147.080000
234.545441	147.020000
234.638168	146.840000
234.730896	147.160000
234.823639	146.840000
234.916367	147.020000
235.009094	147.040000
235.101822	146.860000
235.194580	146.760000
235.287308	146.840000
235.380051	146.140000
235.472778	146.320000
235.565521	147.040000
235.658249	146.700000
235.750992	146.660000
235.843719	146.840000
235.936462	147.220000
236.029205	146.160000
236.121948	146.140000
236.214691	146.440000
236.307449	147.180000
236.400192	146.840000
236.492935	147.060000
236.585678	147.260000
236.678421	147.160000
236.771164	146.860000
236.863907	146.960000
236.956665	147.000000
237.049408	148.600000
237.142151	148.040000
237.234909	148.300000
237.327652	148.520000
237.420410	148.220000
237.513153	146.880000
237.605927	147.040000
237.698669	146.540000
237.791428	145.660000
237.884186	146.360000
237.976944	145.740000
238.069702	146.000000
238.162445	145.520000
238.255203	145.940000
238.347961	146.000000
238.440720	146.400000
238.533478	146.160000
238.626266	146.160000
238.719025	146.320000
238.811783	146.160000
238.904541	145.700000
238.997314	145.620000
239.090073	145.660000
239.182831	146.100000
239.275604	146.820000
239.368362	146.780000
239.461136	147.100000
239.553909	147.200000
239.646667	146.560000
239.739441	145.760000
239.832214	146.360000
239.925003	146.300000
240.017761	147.140000
240.110535	147.920000
240.203308	147.780000
240.296082	148.000000
240.388855	147.880000
240.481628	147.620000
240.574417	147.220000
240.667191	147.260000
240.759964	146.820000
240.852737	146.760000
240.945526	146.320000
241.038315	146.140000
241.131088	146.020000
241.223877	146.380000
241.316650	146.080000
241.409439	146.620000
241.502228	146.100000
241.595001	146.880000
241.687790	146.360000
241.780579	146.700000
241.873367	146.600000
241.966141	147.620000
242.058929	146.840000
242.151718	147.280000
242.244507	147.620000
242.337311	147.000000
242.430099	146.560000
242.522903	146.800000
242.615692	146.260000
242.708481	145.860000
242.801270	146.500000
242.894073	146.540000
242.986862	146.560000
243.079651	147.180000
243.172455	147.100000
243.265244	146.900000
243.358063	146.420000
243.450867	146.580000
243.543655	146.320000
243.636459	146.440000
243.729263	146.740000
243.822067	147.300000
243.914856	147.380000
244.007660	147.460000
244.100464	147.460000
244.193268	146.960000
244.286072	146.600000
244.378876	146.180000
244.471680	146.180000
244.564499	146.340000
244.657318	147.020000
244.750122	147.480000
244.842926	147.220000
244.935745	147.300000
245.028549	146.920000
245.121368	146.360000
245.214172	146.300000
245.306992	146.880000
245.399796	146.760000
245.492615	146.980000
245.585434	146.720000
245.678253	146.440000
245.771072	146.180000
245.863892	146.480000
245.956711	146.800000
246.049530	147.000000
246.142349	146.700000
246.235168	146.940000
246.327988	147.280000
246.420807	147.020000
246.513626	147.180000
246.606445	147.320000
246.699280	147.100000
246.792099	146.420000
246.884918	146.020000
246.977753	145.540000
247.070587	145.700000
247.163422	145.800000
247.256241	145.900000
247.349075	146.460000
247.441895	146.920000
247.534729	146.980000
247.627563	146.840000
247.720383	147.580000
247.813217	147.600000
247.906052	147.400000
247.998886	147.240000
248.091736	147.160000
248.184570	146.760000
248.277405	146.680000
248.370239	147.360000
248.463074	148.320000
248.555908	148.700000
248.648743	148.340000
248.741592	148.200000
248.834427	147.640000
248.927261	146.540000
249.020111	146.740000
249.112946	147.440000
249.205795	147.120000
249.298630	147.240000
249.391495	147.420000
249.484344	147.140000
249.577179	146.540000
249.670029	146.880000
249.762878	147.220000
249.855728	147.080000
249.948563	147.020000
250.041412	146.820000
250.134262	146.820000
250.227112	146.800000
250.319962	147.040000
250.412827	147.060000
250.505692	146.760000
250.598541	146.840000
250.691391	146.280000
250.784241	146.420000
250.877106	146.320000
250.969955	146.240000
251.062805	146.640000
251.155670	147.220000
251.248520	146.760000
251.341385	147.080000
251.434235	147.120000
251.527100	146.520000
251.619965	146.080000
251.712814	147.060000
251.805695	146.920000
251.898560	147.140000
251.991425	147.580000
252.084290	147.900000
252.177155	146.780000
252.270020	146.720000
252.362885	146.860000
252.455750	146.620000
252.548615	146.160000
252.641479	146.120000
252.734360	145.660000
252.827240	145.260000
252.920105	145.180000
253.012970	145.060000
253.105850	145.340000
253.198715	145.420000
253.291595	145.580000
253.384460	145.640000
253.477341	145.660000
253.570221	145.940000
253.663086	145.580000
253.755966	146.340000
253.848846	146.240000
253.941727	146.560000
254.034592	146.320000
254.127472	146.240000
254.220367	146.060000
254.313248	146.240000
254.406128	145.620000
254.499008	146.000000
254.591904	147.240000
254.684784	147.480000
254.777664	147.540000
254.870544	147.600000
254.963440	147.580000
255.056335	147.260000
255.149216	146.800000
255.242111	147.160000
255.334991	147.720000
255.427887	147.520000
255.520767	147.400000
255.613663	147.700000
255.706558	147.100000
255.799438	146.820000
255.892334	146.620000
255.985229	146.580000
256.078125	146.400000
256.171021	146.200000
256.263916	146.600000
256.356812	146.820000
256.449707	147.020000
256.542603	146.780000
256.635498	147.540000
256.728394	147.200000
256.821289	146.880000
256.914215	147.080000
257.007080	147.240000
257.100006	147.040000
257.192932	147.320000
257.285828	147.660000
257.378723	147.160000
257.471619	146.880000
257.564545	146.600000
257.657440	146.700000
257.750336	147.120000
257.843262	146.940000
257.936157	148.200000
258.029053	148.120000
258.121979	147.900000
258.214874	147.320000
258.307800	147.400000
258.400696	145.980000
258.493622	146.300000
258.586517	145.780000
258.679443	146.360000
258.772339	146.100000
258.865265	146.080000
258.958160	145.720000
259.051086	146.760000
259.144012	146.420000
259.236938	147.280000
259.329834	147.700000
259.422791	147.640000
259.515717	147.020000
259.608612	146.540000
259.701538	146.560000
259.794464	146.460000
259.887390	146.500000
259.980316	146.200000
260.073212	146.240000
260.166138	145.060000
260.259064	145.440000
260.351990	146.060000
260.444916	146.320000
260.537842	146.960000
260.630768	148.000000
260.723694	147.700000
260.816620	147.320000
260.909546	147.440000
261.002472	146.980000
261.095398	146.280000
261.188354	146.100000
261.281281	145.700000
261.374207	145.700000
261.467133	146.320000
261.560089	146.640000
261.653015	146.660000
261.745972	147.240000
261.838867	147.400000
261.931824	147.500000
262.024780	146.980000
262.117706	146.940000
262.210663	147.060000
262.303589	146.960000
262.396515	146.700000
262.489471	147.640000
262.582397	147.980000
262.675354	147.120000
262.768280	147.080000
262.861237	147.060000
262.954163	146.620000
263.047119	146.720000
263.140045	146.980000
263.233002	147.020000
263.325958	146.600000
263.418884	146.360000
263.511841	146.360000
263.604797	146.260000
263.697723	145.980000
263.790680	146.020000
263.883636	146.240000
263.976593	145.620000
264.069550	146.100000
264.162476	146.060000
264.255463	146.180000
264.348419	146.060000
264.441376	146.680000
264.534332	146.120000
264.627289	146.320000
264.720245	146.760000
264.813202	146.680000
264.906158	146.620000
264.999115	147.160000
265.092072	147.280000
265.185028	147.780000
265.277985	147.840000
265.370941	147.840000
265.463898	147.520000
265.556854	147.180000
265.649811	146.020000
265.742798	146.300000
265.835754	146.040000
265.928711	146.500000
266.021667	146.580000
266.114655	147.020000
266.207611	147.140000
266.300568	146.860000
266.393585	146.340000
266.486511	146.620000
266.579498	145.840000
266.672485	145.780000
266.765442	145.900000
266.858429	146.620000
266.951385	146.220000
267.044342	146.520000
267.137329	146.600000
267.230316	146.820000
267.323273	146.000000
267.416260	146.660000
267.509216	146.840000
267.602203	146.520000
267.695160	147.080000
267.788147	147.460000
267.881134	146.900000
267.974091	146.740000
268.067078	146.580000
268.160065	146.180000
268.253052	146.100000
268.346008	146.060000
268.438995	146.300000
268.531982	146.520000
268.624969	146.220000
268.717987	146.400000
268.810944	146.480000
268.903961	146.380000
268.996948	146.120000
269.089905	146.640000
269.182892	146.640000
269.275879	147.060000
269.368866	146.620000
269.461853	147.120000
269.554871	146.640000
269.647858	146.460000
269.740845	146.640000
269.833832	147.120000
269.926819	146.440000
270.019806	146.420000
270.112793	146.300000
270.205811	146.260000
270.298798	146.220000
270.391785	147.200000
270.484772	146.960000
270.577789	147.120000
270.670776	146.700000
270.763763	146.720000
270.856750	146.620000
270.949768	146.660000
271.042786	146.680000
271.135773	146.660000
271.228790	146.980000
271.321808	146.320000
271.414795	146.120000
271.507782	145.960000
271.600800	145.700000
271.693817	145.460000
271.786804	145.780000
271.879822	146.300000
271.972809	146.220000
272.065826	146.780000
272.158844	146.140000
272.251831	146.860000
272.344849	146.720000
272.437866	146.500000
272.530853	146.500000
272.623871	147.040000
272.716888	145.860000
272.809906	146.380000
272.902893	146.580000
272.995911	146.120000
273.088928	146.140000
273.181946	146.640000
273.274963	145.960000
273.367981	145.980000
273.460999	146.180000
273.554047	146.480000
273.647003	146.820000
273.740051	146.980000
273.833069	147.420000
273.926086	147.680000
274.019135	147.320000
274.112152	146.920000
274.205170	147.080000
274.298187	147.180000
274.391205	146.620000
274.484222	146.700000
274.577240	146.820000
274.670258	146.600000
274.763306	146.200000
274.856323	146.640000
274.949341	146.900000
275.042358	147.240000
275.135406	147.380000
275.228424	147.400000
275.321442	147.140000
275.414490	146.540000
275.507507	146.640000
275.600525	146.880000
275.693573	146.460000
275.786591	146.380000
275.879669	146.840000
275.972656	146.240000
276.065735	145.920000
276.158752	146.460000
276.251801	147.140000
276.344818	147.020000
276.437866	147.420000
276.530884	147.340000
276.623932	146.700000
276.716980	146.560000
276.809998	146.640000
276.903046	146.600000
276.996094	147.360000
277.089111	148.100000
277.182159	148.360000
277.275208	147.860000
277.368256	147.520000
277.461304	147.080000
277.554321	146.580000
277.647369	146.420000
277.740417	146.680000
277.833466	146.720000
277.926514	146.540000
278.019562	147.200000
278.112610	146.340000
278.205688	146.640000
278.298706	146.900000
278.391785	146.760000
278.484833	146.120000
278.577881	146.400000
278.670929	146.560000
278.763977	146.440000
278.857025	147.020000
278.950073	147.180000
279.043121	147.000000
279.136169	146.960000
279.229248	146.720000
279.322296	146.360000
279.415344	146.420000
279.508392	146.560000
279.601440	146.440000
279.694519	146.160000
279.787567	146.280000
279.880615	146.140000
279.973694	146.140000
280.066742	146.120000
280.159790	146.480000
280.252869	145.900000
280.345917	146.060000
280.438995	146.200000
280.532074	146.040000
280.625122	146.360000
280.718201	147.700000
280.811279	147.680000
280.904327	147.520000
280.997406	147.640000
281.090454	147.320000
281.183533	146.200000
281.276581	145.980000
281.369659	145.960000
281.462738	145.920000
281.555786	146.080000
281.648865	146.420000
281.741943	146.500000
281.835022	147.140000
281.928070	147.080000
282.021149	147.280000
282.114227	147.320000
282.207306	147.300000
282.300385	147.360000
282.393433	147.520000
282.486511	147.060000
282.579590	147.340000
282.672668	147.400000
282.765747	146.440000
282.858856	146.080000
282.951904	146.420000
283.045013	146.560000
283.138062	147.180000
283.231171	147.680000
283.324249	148.040000
283.417328	148.100000
283.510406	147.480000
283.603485	146.880000
283.696564	147.020000
283.789642	147.080000
283.882751	146.700000
283.975830	147.180000
284.068909	147.060000
284.161987	147.460000
284.255066	147.080000
284.348175	147.480000
284.441254	147.240000
284.534332	147.580000
284.627441	146.820000
284.720520	146.600000
284.813599	146.060000
284.906708	146.120000
284.999786	145.580000
285.092896	145.680000
285.185974	146.820000
285.279053	146.600000
285.372192	146.460000
285.465240	147.420000
285.558380	147.500000
285.651459	146.940000
285.744568	148.420000
285.837677	148.220000
285.930756	147.860000
286.023865	147.980000
286.116943	147.680000
286.210052	147.160000
286.303162	147.420000
286.396240	147.160000
286.489349	147.000000
286.582458	146.900000
286.675568	146.580000
286.768646	146.480000
286.861755	146.840000
286.954865	147.380000
287.047974	147.080000
287.141083	146.840000
287.234161	146.600000
287.327271	146.500000
287.420380	146.720000
287.513519	146.900000
287.606598	146.980000
287.699738	147.340000
287.792816	146.840000
287.885956	146.240000
287.979034	146.400000
288.072174	146.500000
288.165283	146.320000
288.258392	146.920000
288.351501	146.360000
288.444611	146.740000
288.537720	146.680000
288.630859	146.680000
288.723969	146.520000
288.817078	147.260000
288.910187	146.880000
289.003296	146.920000
289.096436	146.700000
289.189545	146.620000
289.282654	146.040000
289.375763	146.640000
289.468903	146.740000
289.562012	146.940000
289.655121	146.860000
289.748260	147.000000
289.841400	146.880000
289.934509	146.680000
290.027649	146.900000
290.120728	146.540000
290.213898	146.520000
290.306976	146.140000
290.400146	145.940000
290.493256	145.600000
290.586395	146.060000
290.679535	146.420000
290.772644	146.360000
290.865784	146.040000
290.958893	145.820000
291.052032	145.560000
291.145172	145.220000
291.238281	145.180000
291.331421	145.700000
291.424561	146.380000
291.517670	146.080000
291.610809	146.400000
291.703949	146.020000
291.797089	145.920000
291.890228	145.480000
291.983337	145.900000
292.076477	145.840000
292.169617	146.520000
292.262756	146.600000
292.355927	146.580000
292.449036	146.160000
292.542206	146.100000
292.635315	146.060000
292.728485	146.160000
292.821625	145.720000
292.914764	147.060000
293.007904	147.080000
293.101044	146.980000
293.194183	146.960000
293.287323	147.620000
293.380463	146.820000
293.473602	146.720000
293.566742	147.020000
293.659882	147.260000
293.753021	147.360000
293.846191	147.320000
293.939331	146.860000
294.032471	146.520000
294.125610	146.300000
294.218781	146.400000
294.311920	146.500000
294.405060	146.860000
294.498230	146.900000
294.591370	146.900000
294.684540	146.060000
294.777679	145.720000
294.870850	146.000000
294.963959	145.760000
295.057159	145.580000
295.150299	146.080000
295.243469	146.240000
295.336609	145.640000
295.429779	145.860000
295.522919	146.240000
295.616089	146.600000
295.709229	147.000000
295.802399	147.220000
295.895569	146.880000
295.988708	146.580000
296.081879	146.480000
296.175018	145.960000
296.268188	146.300000
296.361359	147.000000
296.454529	146.920000
296.547668	146.820000
296.640839	147.380000
296.734009	147.020000
296.827179	146.900000
296.920319	147.320000
297.013519	146.960000
297.106659	146.920000
297.199860	146.800000
297.292999	146.660000
297.386200	146.280000
297.479309	146.140000
297.572510	145.540000
297.665680	145.340000
297.758850	145.540000
297.852020	145.580000
297.945190	145.560000
298.038361	145.220000
298.131531	146.460000
298.224701	145.880000
298.317871	145.680000
298.411072	145.660000
298.504242	145.940000
298.597412	145.220000
298.690582	145.700000
298.783752	145.720000
298.876923	146.280000
298.970093	146.620000
299.063293	146.760000
299.156464	146.820000
299.249634	147.360000
299.342834	147.140000
299.436005	147.480000
299.529205	147.480000
299.622345	147.420000
299.715576	146.500000
299.808716	146.380000
299.901917	146.180000
299.995117	146.480000
300.088287	146.580000
300.181488	146.840000
300.274658	146.780000
300.367828	146.820000
300.461029	146.460000
300.554199	146.700000
300.647400	146.840000
300.740601	147.280000
300.833771	146.860000
300.926971	147.320000
301.020142	146.580000
301.113342	146.540000
301.206512	146.140000
301.299713	146.620000
301.392914	146.500000
301.486084	147.380000
301.579285	147.480000
301.672516	148.140000
301.765686	147.500000
301.858887	147.220000
301.952057	146.680000
302.045288	146.740000
302.138458	146.300000
302.231659	146.440000
302.324860	146.300000
302.418060	146.180000
302.511261	146.080000
302.604462	146.580000
302.697662	146.640000
302.790863	146.540000
302.884064	146.120000
302.977264	146.220000
303.070465	146.100000
303.163666	146.820000
303.256866	147.240000
303.350067	147.720000
303.443268	147.780000
303.536469	147.700000
303.629669	147.180000
303.722870	147.340000
303.816071	146.940000
303.909271	146.660000
304.002472	145.900000
304.095673	145.420000
304.188934	144.720000
304.282104	145.880000
304.375336	146.320000
304.468506	146.380000
304.561768	146.480000
304.654968	147.100000
304.748169	146.140000
304.841370	145.680000
304.934601	146.120000
305.027802	146.280000
305.121002	145.880000
305.214233	146.240000
305.307434	146.200000
305.400665	146.980000
305.493866	146.720000
