Model Number: SPM-002-B   
Serial Number: 70087108
Firmware Version: 004.15.4
Exposure Time: 100000.000000us
Data Taken on: 11-12-2020 19:38:06.254
Wavelength	Amplitude
221.570786	0.000000
221.663406	0.000000
221.756027	0.000000
221.848648	0.000000
221.941269	0.000000
222.033905	0.000000
222.126526	0.000000
222.219162	0.000000
222.311798	0.000000
222.404419	0.000000
222.497055	0.000000
222.589676	0.000000
222.682312	0.000000
222.774933	0.000000
222.867569	0.000000
222.960205	0.000000
223.052841	0.000000
223.145462	0.000000
223.238098	0.000000
223.330734	0.000000
223.423386	0.000000
223.516022	0.000000
223.608658	0.000000
223.701309	0.000000
223.793945	0.000000
223.886581	0.000000
223.979218	0.000000
224.071869	0.000000
224.164505	0.000000
224.257156	0.000000
224.349792	0.000000
224.442444	0.000000
224.535095	0.000000
224.627747	0.000000
224.720398	0.000000
224.813034	0.000000
224.905685	0.000000
224.998337	145.700000
225.090988	145.440000
225.183640	144.980000
225.276291	144.660000
225.368942	145.320000
225.461594	145.740000
225.554245	146.180000
225.646912	146.380000
225.739578	146.720000
225.832230	146.880000
225.924896	145.920000
226.017548	146.260000
226.110199	146.820000
226.202866	146.360000
226.295532	145.840000
226.388184	146.180000
226.480850	145.600000
226.573517	145.100000
226.666168	145.620000
226.758835	146.260000
226.851501	146.660000
226.944183	146.960000
227.036850	146.420000
227.129517	146.260000
227.222183	146.220000
227.314850	146.180000
227.407516	146.160000
227.500198	147.200000
227.592865	146.640000
227.685532	146.060000
227.778214	145.860000
227.870880	146.080000
227.963562	146.020000
228.056229	146.580000
228.148926	146.700000
228.241592	147.200000
228.334274	146.800000
228.426956	146.340000
228.519638	146.340000
228.612305	146.220000
228.704987	145.960000
228.797668	146.080000
228.890350	146.040000
228.983032	145.620000
229.075714	146.100000
229.168396	146.100000
229.261108	145.760000
229.353790	145.840000
229.446472	146.420000
229.539169	146.080000
229.631851	145.340000
229.724533	145.780000
229.817230	146.080000
229.909912	146.740000
230.002609	146.820000
230.095306	146.900000
230.187988	146.760000
230.280685	146.620000
230.373383	145.120000
230.466095	145.040000
230.558792	145.940000
230.651474	146.040000
230.744171	145.760000
230.836868	146.180000
230.929581	146.280000
231.022278	146.000000
231.114975	146.100000
231.207672	145.680000
231.300369	146.000000
231.393082	146.420000
231.485779	146.140000
231.578506	145.560000
231.671204	146.340000
231.763916	146.340000
231.856613	146.060000
231.949326	146.400000
232.042023	146.680000
232.134735	146.160000
232.227448	145.960000
232.320160	145.860000
232.412872	145.720000
232.505585	146.480000
232.598297	147.060000
232.691010	146.840000
232.783722	146.560000
232.876450	147.080000
232.969162	146.580000
233.061874	146.000000
233.154587	146.020000
233.247314	146.380000
233.340027	145.760000
233.432739	146.220000
233.525467	146.260000
233.618179	146.600000
233.710907	145.980000
233.803635	146.440000
233.896347	146.480000
233.989090	147.100000
234.081818	146.740000
234.174545	147.460000
234.267258	146.660000
234.359985	146.160000
234.452713	145.980000
234.545441	145.960000
234.638168	145.520000
234.730896	146.180000
234.823639	145.980000
234.916367	146.160000
235.009094	146.580000
235.101822	146.900000
235.194580	146.580000
235.287308	146.940000
235.380051	146.260000
235.472778	146.200000
235.565521	146.540000
235.658249	146.120000
235.750992	145.900000
235.843719	146.460000
235.936462	146.820000
236.029205	146.160000
236.121948	146.240000
236.214691	146.500000
236.307449	146.600000
236.400192	146.060000
236.492935	145.900000
236.585678	146.080000
236.678421	146.040000
236.771164	145.820000
236.863907	146.240000
236.956665	146.760000
237.049408	148.260000
237.142151	147.540000
237.234909	148.260000
237.327652	148.100000
237.420410	147.620000
237.513153	146.800000
237.605927	147.040000
237.698669	146.340000
237.791428	145.700000
237.884186	146.540000
237.976944	145.980000
238.069702	146.540000
238.162445	146.280000
238.255203	146.700000
238.347961	146.560000
238.440720	146.420000
238.533478	145.900000
238.626266	145.680000
238.719025	146.140000
238.811783	145.700000
238.904541	145.920000
238.997314	146.040000
239.090073	145.800000
239.182831	145.460000
239.275604	146.400000
239.368362	145.880000
239.461136	145.600000
239.553909	145.760000
239.646667	145.440000
239.739441	144.860000
239.832214	145.440000
239.925003	145.620000
240.017761	146.200000
240.110535	146.760000
240.203308	146.240000
240.296082	146.120000
240.388855	145.980000
240.481628	146.000000
240.574417	146.200000
240.667191	146.640000
240.759964	146.300000
240.852737	146.680000
240.945526	146.120000
241.038315	145.560000
241.131088	145.600000
241.223877	145.920000
241.316650	145.380000
241.409439	145.780000
241.502228	145.460000
241.595001	145.680000
241.687790	145.640000
241.780579	145.900000
241.873367	146.040000
241.966141	146.600000
242.058929	145.880000
242.151718	146.140000
242.244507	146.440000
242.337311	145.740000
242.430099	146.020000
242.522903	146.500000
242.615692	145.900000
242.708481	145.820000
242.801270	146.640000
242.894073	146.140000
242.986862	145.740000
243.079651	146.320000
243.172455	146.080000
243.265244	145.940000
243.358063	145.560000
243.450867	146.080000
243.543655	145.800000
243.636459	146.040000
243.729263	146.160000
243.822067	146.480000
243.914856	146.980000
244.007660	146.960000
244.100464	146.920000
244.193268	146.700000
244.286072	146.920000
244.378876	145.900000
244.471680	145.900000
244.564499	146.020000
244.657318	146.520000
244.750122	146.600000
244.842926	146.560000
244.935745	146.980000
245.028549	146.940000
245.121368	146.540000
245.214172	146.380000
245.306992	146.980000
245.399796	146.520000
245.492615	146.260000
245.585434	146.100000
245.678253	146.020000
245.771072	145.820000
245.863892	146.400000
245.956711	146.680000
246.049530	146.440000
246.142349	146.580000
246.235168	146.540000
246.327988	146.640000
246.420807	146.600000
246.513626	146.880000
246.606445	146.180000
246.699280	146.060000
246.792099	145.820000
246.884918	145.280000
246.977753	144.900000
247.070587	145.460000
247.163422	145.360000
247.256241	145.340000
247.349075	145.820000
247.441895	146.060000
247.534729	146.180000
247.627563	145.960000
247.720383	146.420000
247.813217	146.320000
247.906052	146.120000
247.998886	146.000000
248.091736	146.600000
248.184570	146.040000
248.277405	146.160000
248.370239	147.260000
248.463074	148.100000
248.555908	147.860000
248.648743	147.780000
248.741592	147.760000
248.834427	146.740000
248.927261	145.680000
249.020111	146.180000
249.112946	146.640000
249.205795	146.380000
249.298630	146.540000
249.391495	146.680000
249.484344	146.140000
249.577179	145.820000
249.670029	145.980000
249.762878	146.680000
249.855728	146.620000
249.948563	146.520000
250.041412	146.080000
250.134262	146.520000
250.227112	146.540000
250.319962	147.040000
250.412827	147.020000
250.505692	146.980000
250.598541	146.860000
250.691391	146.040000
250.784241	145.820000
250.877106	146.020000
250.969955	146.000000
251.062805	146.300000
251.155670	147.000000
251.248520	146.700000
251.341385	146.840000
251.434235	146.880000
251.527100	146.360000
251.619965	146.000000
251.712814	147.100000
251.805695	146.840000
251.898560	147.040000
251.991425	147.300000
252.084290	147.300000
252.177155	146.000000
252.270020	145.960000
252.362885	145.640000
252.455750	145.480000
252.548615	145.420000
252.641479	145.480000
252.734360	145.340000
252.827240	145.500000
252.920105	145.460000
253.012970	144.880000
253.105850	145.380000
253.198715	145.480000
253.291595	145.560000
253.384460	145.360000
253.477341	145.720000
253.570221	145.600000
253.663086	145.720000
253.755966	146.360000
253.848846	145.960000
253.941727	146.160000
254.034592	146.020000
254.127472	145.360000
254.220367	145.400000
254.313248	145.820000
254.406128	145.260000
254.499008	145.760000
254.591904	146.780000
254.684784	146.640000
254.777664	146.840000
254.870544	146.560000
254.963440	146.000000
255.056335	146.100000
255.149216	145.860000
255.242111	146.440000
255.334991	147.200000
255.427887	147.480000
255.520767	147.100000
255.613663	147.120000
255.706558	146.260000
255.799438	146.040000
255.892334	145.860000
255.985229	145.520000
256.078125	145.260000
256.171021	145.460000
256.263916	145.800000
256.356812	146.080000
256.449707	146.500000
256.542603	146.400000
256.635498	146.800000
256.728394	146.700000
256.821289	145.980000
256.914215	145.900000
257.007080	146.260000
257.100006	146.220000
257.192932	146.440000
257.285828	147.280000
257.378723	146.960000
257.471619	146.580000
257.564545	146.100000
257.657440	146.100000
257.750336	146.060000
257.843262	146.060000
257.936157	147.360000
258.029053	147.560000
258.121979	147.640000
258.214874	147.440000
258.307800	147.180000
258.400696	145.880000
258.493622	145.920000
258.586517	145.120000
258.679443	145.620000
258.772339	145.580000
258.865265	145.560000
258.958160	145.280000
259.051086	146.060000
259.144012	145.240000
259.236938	146.440000
259.329834	146.580000
259.422791	146.240000
259.515717	145.820000
259.608612	145.880000
259.701538	145.500000
259.794464	145.420000
259.887390	145.600000
259.980316	145.140000
260.073212	144.940000
260.166138	144.120000
260.259064	144.360000
260.351990	145.040000
260.444916	145.200000
260.537842	145.820000
260.630768	146.740000
260.723694	146.560000
260.816620	146.300000
260.909546	146.460000
261.002472	145.880000
261.095398	144.880000
261.188354	145.100000
261.281281	144.600000
261.374207	144.720000
261.467133	145.680000
261.560089	146.360000
261.653015	145.980000
261.745972	147.000000
261.838867	147.240000
261.931824	147.100000
262.024780	146.500000
262.117706	146.760000
262.210663	146.640000
262.303589	146.380000
262.396515	146.040000
262.489471	147.300000
262.582397	147.180000
262.675354	146.440000
262.768280	146.500000
262.861237	146.380000
262.954163	145.680000
263.047119	146.040000
263.140045	146.020000
263.233002	145.820000
263.325958	145.620000
263.418884	145.220000
263.511841	145.160000
263.604797	145.240000
263.697723	145.440000
263.790680	145.540000
263.883636	146.180000
263.976593	145.860000
264.069550	145.900000
264.162476	145.480000
264.255463	145.620000
264.348419	144.980000
264.441376	145.360000
264.534332	145.220000
264.627289	145.720000
264.720245	145.960000
264.813202	146.040000
264.906158	146.060000
264.999115	146.500000
265.092072	146.300000
265.185028	146.740000
265.277985	147.000000
265.370941	146.680000
265.463898	146.420000
265.556854	146.180000
265.649811	145.540000
265.742798	145.640000
265.835754	145.560000
265.928711	146.040000
266.021667	146.300000
266.114655	146.060000
266.207611	146.220000
266.300568	145.820000
266.393585	145.180000
266.486511	145.780000
266.579498	145.300000
266.672485	144.780000
266.765442	145.120000
266.858429	145.600000
266.951385	144.780000
267.044342	145.380000
267.137329	145.520000
267.230316	145.620000
267.323273	145.200000
267.416260	145.760000
267.509216	145.380000
267.602203	145.620000
267.695160	146.000000
267.788147	146.340000
267.881134	145.840000
267.974091	146.360000
268.067078	145.940000
268.160065	145.660000
268.253052	145.280000
268.346008	145.480000
268.438995	145.360000
268.531982	145.740000
268.624969	145.440000
268.717987	145.940000
268.810944	145.640000
268.903961	145.580000
268.996948	145.140000
269.089905	145.740000
269.182892	145.560000
269.275879	146.580000
269.368866	146.200000
269.461853	146.440000
269.554871	146.520000
269.647858	146.560000
269.740845	146.460000
269.833832	147.220000
269.926819	146.900000
270.019806	146.680000
270.112793	146.480000
270.205811	146.480000
270.298798	145.780000
270.391785	146.680000
270.484772	146.380000
270.577789	146.380000
270.670776	145.780000
270.763763	145.920000
270.856750	145.680000
270.949768	145.620000
271.042786	145.700000
271.135773	145.580000
271.228790	145.880000
271.321808	145.260000
271.414795	144.920000
271.507782	144.840000
271.600800	144.880000
271.693817	144.880000
271.786804	145.420000
271.879822	146.040000
271.972809	145.900000
272.065826	146.440000
272.158844	145.860000
272.251831	146.200000
272.344849	146.220000
272.437866	145.780000
272.530853	145.840000
272.623871	146.380000
272.716888	145.580000
272.809906	145.720000
272.902893	146.280000
272.995911	145.460000
273.088928	145.720000
273.181946	146.140000
273.274963	145.740000
273.367981	145.460000
273.460999	145.980000
273.554047	146.120000
273.647003	146.500000
273.740051	146.800000
273.833069	147.360000
273.926086	147.540000
274.019135	147.260000
274.112152	146.720000
274.205170	146.640000
274.298187	146.660000
274.391205	145.920000
274.484222	145.980000
274.577240	146.020000
274.670258	145.720000
274.763306	145.200000
274.856323	146.060000
274.949341	146.040000
275.042358	146.200000
275.135406	146.280000
275.228424	146.420000
275.321442	145.900000
275.414490	145.680000
275.507507	145.920000
275.600525	146.220000
275.693573	146.080000
275.786591	145.600000
275.879669	145.440000
275.972656	145.500000
276.065735	145.460000
276.158752	146.000000
276.251801	147.340000
276.344818	147.420000
276.437866	147.120000
276.530884	147.200000
276.623932	146.320000
276.716980	145.960000
276.809998	146.280000
276.903046	146.380000
276.996094	146.440000
277.089111	147.660000
277.182159	147.940000
277.275208	147.340000
277.368256	147.380000
277.461304	147.100000
277.554321	145.800000
277.647369	145.360000
277.740417	145.440000
277.833466	145.140000
277.926514	145.320000
278.019562	146.420000
278.112610	145.780000
278.205688	146.160000
278.298706	146.240000
278.391785	145.840000
278.484833	145.080000
278.577881	145.380000
278.670929	145.540000
278.763977	145.920000
278.857025	146.480000
278.950073	146.680000
279.043121	146.720000
279.136169	146.360000
279.229248	145.560000
279.322296	145.380000
279.415344	145.300000
279.508392	144.820000
279.601440	145.060000
279.694519	145.360000
279.787567	145.100000
279.880615	145.360000
279.973694	145.500000
280.066742	145.320000
280.159790	145.580000
280.252869	145.400000
280.345917	145.220000
280.438995	145.600000
280.532074	145.440000
280.625122	145.500000
280.718201	146.560000
280.811279	146.480000
280.904327	146.200000
280.997406	146.520000
281.090454	146.320000
281.183533	145.480000
281.276581	145.660000
281.369659	145.680000
281.462738	145.460000
281.555786	145.700000
281.648865	145.860000
281.741943	145.700000
281.835022	146.400000
281.928070	146.560000
282.021149	146.120000
282.114227	146.220000
282.207306	146.240000
282.300385	146.020000
282.393433	146.160000
282.486511	146.300000
282.579590	146.780000
282.672668	147.240000
282.765747	146.680000
282.858856	146.120000
282.951904	146.480000
283.045013	146.400000
283.138062	146.560000
283.231171	147.000000
283.324249	147.640000
283.417328	147.660000
283.510406	147.080000
283.603485	146.560000
283.696564	146.220000
283.789642	146.320000
283.882751	146.020000
283.975830	146.620000
284.068909	146.480000
284.161987	147.220000
284.255066	146.140000
284.348175	146.320000
284.441254	145.860000
284.534332	146.160000
284.627441	145.560000
284.720520	145.760000
284.813599	145.500000
284.906708	145.820000
284.999786	145.440000
285.092896	145.240000
285.185974	146.500000
285.279053	145.920000
285.372192	145.540000
285.465240	145.980000
285.558380	146.060000
285.651459	145.240000
285.744568	146.460000
285.837677	146.180000
285.930756	146.260000
286.023865	146.400000
286.116943	146.080000
286.210052	145.520000
286.303162	145.980000
286.396240	145.720000
286.489349	145.380000
286.582458	146.000000
286.675568	145.900000
286.768646	145.460000
286.861755	145.700000
286.954865	146.700000
287.047974	146.060000
287.141083	146.080000
287.234161	146.140000
287.327271	145.800000
287.420380	146.120000
287.513519	146.300000
287.606598	146.060000
287.699738	146.340000
287.792816	146.420000
287.885956	145.720000
287.979034	145.740000
288.072174	146.140000
288.165283	145.340000
288.258392	145.560000
288.351501	144.920000
288.444611	145.180000
288.537720	145.880000
288.630859	146.520000
288.723969	146.120000
288.817078	146.520000
288.910187	146.400000
289.003296	145.320000
289.096436	145.100000
289.189545	145.280000
289.282654	144.820000
289.375763	145.120000
289.468903	145.880000
289.562012	146.020000
289.655121	146.320000
289.748260	146.700000
289.841400	146.620000
289.934509	146.400000
290.027649	146.760000
290.120728	146.260000
290.213898	146.500000
290.306976	146.540000
290.400146	146.100000
290.493256	145.900000
290.586395	146.240000
290.679535	146.140000
290.772644	145.940000
290.865784	145.480000
290.958893	144.940000
291.052032	144.760000
291.145172	144.700000
291.238281	144.060000
291.331421	144.740000
291.424561	145.200000
291.517670	144.940000
291.610809	145.260000
291.703949	145.580000
291.797089	145.540000
291.890228	145.320000
291.983337	145.300000
292.076477	144.760000
292.169617	145.100000
292.262756	145.120000
292.355927	144.800000
292.449036	145.000000
292.542206	145.280000
292.635315	145.120000
292.728485	145.380000
292.821625	145.500000
292.914764	146.340000
293.007904	146.560000
293.101044	146.520000
293.194183	146.000000
293.287323	146.640000
293.380463	145.760000
293.473602	145.540000
293.566742	146.180000
293.659882	146.700000
293.753021	146.440000
293.846191	146.580000
293.939331	146.000000
294.032471	145.500000
294.125610	145.180000
294.218781	145.600000
294.311920	146.000000
294.405060	146.720000
294.498230	146.660000
294.591370	146.620000
294.684540	145.820000
294.777679	145.040000
294.870850	145.280000
294.963959	145.140000
295.057159	145.100000
295.150299	145.420000
295.243469	145.640000
295.336609	144.740000
295.429779	144.660000
295.522919	145.180000
295.616089	145.220000
295.709229	145.840000
295.802399	146.520000
295.895569	146.400000
295.988708	146.140000
296.081879	146.300000
296.175018	145.440000
296.268188	145.160000
296.361359	145.920000
296.454529	145.860000
296.547668	145.380000
296.640839	146.240000
296.734009	146.140000
296.827179	145.780000
296.920319	146.020000
297.013519	146.020000
297.106659	145.700000
297.199860	145.800000
297.292999	145.640000
297.386200	145.200000
297.479309	145.300000
297.572510	145.100000
297.665680	144.680000
297.758850	144.960000
297.852020	145.320000
297.945190	145.200000
298.038361	144.940000
298.131531	146.180000
298.224701	145.920000
298.317871	145.460000
298.411072	145.320000
298.504242	145.120000
298.597412	144.640000
298.690582	145.000000
298.783752	145.260000
298.876923	145.740000
298.970093	146.180000
299.063293	146.080000
299.156464	146.560000
299.249634	146.600000
299.342834	146.300000
299.436005	146.800000
299.529205	146.740000
299.622345	146.100000
299.715576	145.960000
299.808716	146.140000
299.901917	145.820000
299.995117	146.120000
300.088287	146.600000
300.181488	146.160000
300.274658	146.420000
300.367828	146.520000
300.461029	146.020000
300.554199	146.200000
300.647400	146.540000
300.740601	146.680000
300.833771	146.520000
300.926971	146.700000
301.020142	145.680000
301.113342	145.580000
301.206512	145.260000
301.299713	145.480000
301.392914	145.560000
301.486084	146.100000
301.579285	145.860000
301.672516	146.820000
301.765686	146.540000
301.858887	146.360000
301.952057	146.300000
302.045288	146.860000
302.138458	145.860000
302.231659	145.960000
302.324860	145.900000
302.418060	145.520000
302.511261	145.240000
302.604462	145.380000
302.697662	145.140000
302.790863	145.360000
302.884064	145.300000
302.977264	145.240000
303.070465	145.640000
303.163666	146.200000
303.256866	146.300000
303.350067	146.580000
303.443268	146.620000
303.536469	146.340000
303.629669	145.520000
303.722870	145.520000
303.816071	145.380000
303.909271	145.680000
304.002472	145.000000
304.095673	145.000000
304.188934	144.280000
304.282104	145.120000
304.375336	144.880000
304.468506	145.360000
304.561768	145.520000
304.654968	146.200000
304.748169	145.600000
304.841370	145.600000
304.934601	145.480000
305.027802	145.300000
305.121002	144.940000
305.214233	144.720000
305.307434	144.560000
305.400665	145.240000
305.493866	145.100000
