Model Number: SPM-002-B   
Serial Number: 70087108
Firmware Version: 004.15.4
Exposure Time: 100000.000000us
Data Taken on: 11-12-2020 19:38:21.632
Wavelength	Amplitude
221.570786	0.000000
221.663406	0.000000
221.756027	0.000000
221.848648	0.000000
221.941269	0.000000
222.033905	0.000000
222.126526	0.000000
222.219162	0.000000
222.311798	0.000000
222.404419	0.000000
222.497055	0.000000
222.589676	0.000000
222.682312	0.000000
222.774933	0.000000
222.867569	0.000000
222.960205	0.000000
223.052841	0.000000
223.145462	0.000000
223.238098	0.000000
223.330734	0.000000
223.423386	0.000000
223.516022	0.000000
223.608658	0.000000
223.701309	0.000000
223.793945	0.000000
223.886581	0.000000
223.979218	0.000000
224.071869	0.000000
224.164505	0.000000
224.257156	0.000000
224.349792	0.000000
224.442444	0.000000
224.535095	0.000000
224.627747	0.000000
224.720398	0.000000
224.813034	0.000000
224.905685	0.000000
224.998337	145.940000
225.090988	145.620000
225.183640	145.380000
225.276291	145.020000
225.368942	145.540000
225.461594	146.320000
225.554245	146.620000
225.646912	146.660000
225.739578	147.440000
225.832230	147.700000
225.924896	146.640000
226.017548	146.740000
226.110199	147.320000
226.202866	146.580000
226.295532	146.240000
226.388184	146.440000
226.480850	146.020000
226.573517	145.320000
226.666168	145.740000
226.758835	146.040000
226.851501	146.220000
226.944183	146.480000
227.036850	146.220000
227.129517	146.040000
227.222183	146.100000
227.314850	146.140000
227.407516	146.100000
227.500198	147.020000
227.592865	146.600000
227.685532	146.120000
227.778214	145.720000
227.870880	145.980000
227.963562	146.380000
228.056229	147.000000
228.148926	146.920000
228.241592	147.800000
228.334274	147.260000
228.426956	146.540000
228.519638	146.600000
228.612305	146.420000
228.704987	146.060000
228.797668	146.340000
228.890350	146.480000
228.983032	145.780000
229.075714	146.660000
229.168396	146.300000
229.261108	146.120000
229.353790	145.800000
229.446472	146.080000
229.539169	145.680000
229.631851	145.560000
229.724533	145.700000
229.817230	145.940000
229.909912	146.840000
230.002609	146.720000
230.095306	146.920000
230.187988	147.020000
230.280685	146.640000
230.373383	145.560000
230.466095	145.440000
230.558792	145.560000
230.651474	145.520000
230.744171	145.760000
230.836868	145.820000
230.929581	146.040000
231.022278	145.920000
231.114975	146.100000
231.207672	146.000000
231.300369	146.360000
231.393082	146.420000
231.485779	146.520000
231.578506	146.300000
231.671204	146.280000
231.763916	146.280000
231.856613	146.140000
231.949326	146.100000
232.042023	145.860000
232.134735	146.140000
232.227448	145.840000
232.320160	146.180000
232.412872	146.300000
232.505585	147.300000
232.598297	147.300000
232.691010	147.100000
232.783722	146.880000
232.876450	147.460000
232.969162	146.880000
233.061874	146.640000
233.154587	146.660000
233.247314	146.720000
233.340027	146.020000
233.432739	146.400000
233.525467	146.340000
233.618179	147.120000
233.710907	146.760000
233.803635	147.420000
233.896347	147.000000
233.989090	147.620000
234.081818	147.120000
234.174545	147.380000
234.267258	146.580000
234.359985	146.740000
234.452713	146.520000
234.545441	146.160000
234.638168	145.800000
234.730896	146.080000
234.823639	145.860000
234.916367	146.140000
235.009094	146.800000
235.101822	147.260000
235.194580	147.360000
235.287308	147.340000
235.380051	146.600000
235.472778	146.400000
235.565521	146.620000
235.658249	146.140000
235.750992	146.460000
235.843719	146.740000
235.936462	146.940000
236.029205	146.480000
236.121948	146.460000
236.214691	146.620000
236.307449	147.120000
236.400192	146.920000
236.492935	146.720000
236.585678	147.000000
236.678421	146.840000
236.771164	146.540000
236.863907	146.860000
236.956665	147.240000
237.049408	148.880000
237.142151	148.040000
237.234909	148.620000
237.327652	148.660000
237.420410	148.360000
237.513153	147.380000
237.605927	147.800000
237.698669	146.940000
237.791428	146.440000
237.884186	147.180000
237.976944	146.540000
238.069702	147.200000
238.162445	146.740000
238.255203	146.480000
238.347961	146.460000
238.440720	146.260000
238.533478	145.620000
238.626266	145.920000
238.719025	146.400000
238.811783	146.080000
238.904541	146.200000
238.997314	146.220000
239.090073	146.260000
239.182831	146.160000
239.275604	146.940000
239.368362	146.640000
239.461136	146.660000
239.553909	146.500000
239.646667	146.320000
239.739441	145.760000
239.832214	146.480000
239.925003	146.760000
240.017761	147.780000
240.110535	148.360000
240.203308	147.760000
240.296082	147.600000
240.388855	147.300000
240.481628	146.640000
240.574417	146.800000
240.667191	147.220000
240.759964	146.580000
240.852737	146.520000
240.945526	146.200000
241.038315	145.580000
241.131088	145.540000
241.223877	146.020000
241.316650	145.760000
241.409439	146.480000
241.502228	146.100000
241.595001	146.220000
241.687790	146.300000
241.780579	146.540000
241.873367	146.400000
241.966141	146.820000
242.058929	146.400000
242.151718	146.340000
242.244507	146.600000
242.337311	145.740000
242.430099	146.180000
242.522903	146.400000
242.615692	146.100000
242.708481	146.060000
242.801270	146.860000
242.894073	146.640000
242.986862	146.620000
243.079651	147.320000
243.172455	147.120000
243.265244	147.120000
243.358063	146.640000
243.450867	147.020000
243.543655	146.600000
243.636459	146.720000
243.729263	146.840000
243.822067	147.280000
243.914856	147.620000
244.007660	147.820000
244.100464	148.080000
244.193268	147.800000
244.286072	147.480000
244.378876	146.300000
244.471680	145.760000
244.564499	145.780000
244.657318	146.380000
244.750122	147.040000
244.842926	146.940000
244.935745	147.420000
245.028549	147.040000
245.121368	146.420000
245.214172	145.960000
245.306992	146.800000
245.399796	146.780000
245.492615	147.000000
245.585434	147.260000
245.678253	147.260000
245.771072	147.180000
245.863892	147.520000
245.956711	147.720000
246.049530	147.460000
246.142349	147.300000
246.235168	147.300000
246.327988	147.520000
246.420807	147.200000
246.513626	147.040000
246.606445	146.960000
246.699280	146.640000
246.792099	146.020000
246.884918	145.620000
246.977753	145.440000
247.070587	145.780000
247.163422	146.020000
247.256241	145.920000
247.349075	146.560000
247.441895	146.900000
247.534729	146.740000
247.627563	146.460000
247.720383	147.360000
247.813217	147.260000
247.906052	147.020000
247.998886	147.120000
248.091736	147.320000
248.184570	146.540000
248.277405	146.500000
248.370239	147.600000
248.463074	148.220000
248.555908	148.380000
248.648743	148.100000
248.741592	148.060000
248.834427	147.340000
248.927261	146.400000
249.020111	146.800000
249.112946	147.520000
249.205795	147.220000
249.298630	147.320000
249.391495	147.480000
249.484344	146.880000
249.577179	146.640000
249.670029	146.880000
249.762878	147.180000
249.855728	147.420000
249.948563	147.500000
250.041412	147.400000
250.134262	147.700000
250.227112	147.180000
250.319962	146.960000
250.412827	146.900000
250.505692	146.260000
250.598541	145.960000
250.691391	146.080000
250.784241	146.140000
250.877106	146.360000
250.969955	146.620000
251.062805	147.040000
251.155670	147.420000
251.248520	147.320000
251.341385	147.340000
251.434235	147.000000
251.527100	146.620000
251.619965	146.000000
251.712814	146.540000
251.805695	146.360000
251.898560	146.800000
251.991425	147.180000
252.084290	147.700000
252.177155	146.860000
252.270020	146.740000
252.362885	146.740000
252.455750	146.800000
252.548615	146.300000
252.641479	146.540000
252.734360	146.320000
252.827240	146.220000
252.920105	145.900000
253.012970	145.960000
253.105850	146.020000
253.198715	146.140000
253.291595	146.240000
253.384460	146.600000
253.477341	146.560000
253.570221	146.620000
253.663086	146.460000
253.755966	147.120000
253.848846	146.800000
253.941727	147.160000
254.034592	147.260000
254.127472	146.980000
254.220367	146.800000
254.313248	146.780000
254.406128	146.160000
254.499008	146.240000
254.591904	147.260000
254.684784	147.620000
254.777664	147.440000
254.870544	147.360000
254.963440	147.040000
255.056335	146.980000
255.149216	146.260000
255.242111	146.700000
255.334991	147.440000
255.427887	147.520000
255.520767	147.260000
255.613663	147.680000
255.706558	147.240000
255.799438	146.480000
255.892334	146.520000
255.985229	146.300000
256.078125	146.100000
256.171021	146.340000
256.263916	147.140000
256.356812	147.300000
256.449707	147.660000
256.542603	147.120000
256.635498	147.520000
256.728394	147.380000
256.821289	147.220000
256.914215	147.260000
257.007080	147.860000
257.100006	147.620000
257.192932	147.780000
257.285828	147.960000
257.378723	147.520000
257.471619	147.240000
257.564545	146.760000
257.657440	146.760000
257.750336	147.080000
257.843262	147.160000
257.936157	148.180000
258.029053	148.240000
258.121979	147.800000
258.214874	147.200000
258.307800	146.820000
258.400696	145.540000
258.493622	146.040000
258.586517	145.740000
258.679443	146.260000
258.772339	146.100000
258.865265	146.340000
258.958160	145.560000
259.051086	146.300000
259.144012	145.900000
259.236938	147.140000
259.329834	147.060000
259.422791	146.980000
259.515717	146.540000
259.608612	146.400000
259.701538	146.160000
259.794464	146.140000
259.887390	146.580000
259.980316	146.260000
260.073212	146.180000
260.166138	144.960000
260.259064	145.480000
260.351990	146.120000
260.444916	146.380000
260.537842	146.900000
260.630768	148.080000
260.723694	147.820000
260.816620	147.340000
260.909546	147.280000
261.002472	146.820000
261.095398	146.300000
261.188354	146.320000
261.281281	145.840000
261.374207	146.220000
261.467133	146.960000
261.560089	147.180000
261.653015	146.780000
261.745972	147.660000
261.838867	147.640000
261.931824	147.580000
262.024780	146.940000
262.117706	147.180000
262.210663	147.360000
262.303589	147.380000
262.396515	147.620000
262.489471	148.980000
262.582397	149.220000
262.675354	148.460000
262.768280	148.340000
262.861237	147.920000
262.954163	147.480000
263.047119	147.480000
263.140045	147.180000
263.233002	147.260000
263.325958	147.140000
263.418884	146.440000
263.511841	146.600000
263.604797	146.780000
263.697723	146.940000
263.790680	146.580000
263.883636	147.260000
263.976593	146.960000
264.069550	147.480000
264.162476	146.820000
264.255463	147.340000
264.348419	146.840000
264.441376	147.060000
264.534332	146.380000
264.627289	146.700000
264.720245	146.880000
264.813202	146.880000
264.906158	146.840000
264.999115	147.440000
265.092072	147.580000
265.185028	147.980000
265.277985	148.260000
265.370941	148.480000
265.463898	147.980000
265.556854	147.640000
265.649811	146.680000
265.742798	146.740000
265.835754	146.540000
265.928711	147.080000
266.021667	147.320000
266.114655	147.480000
266.207611	147.460000
266.300568	146.960000
266.393585	146.480000
266.486511	146.720000
266.579498	146.040000
266.672485	146.160000
266.765442	146.240000
266.858429	146.640000
266.951385	146.040000
267.044342	146.700000
267.137329	146.660000
267.230316	146.900000
267.323273	146.500000
267.416260	147.600000
267.509216	147.340000
267.602203	147.180000
267.695160	147.700000
267.788147	147.820000
267.881134	146.940000
267.974091	147.260000
268.067078	147.200000
268.160065	146.620000
268.253052	146.520000
268.346008	146.740000
268.438995	146.660000
268.531982	146.700000
268.624969	146.580000
268.717987	147.000000
268.810944	146.820000
268.903961	146.880000
268.996948	146.500000
269.089905	147.000000
269.182892	147.160000
269.275879	147.360000
269.368866	146.800000
269.461853	147.240000
269.554871	147.120000
269.647858	147.080000
269.740845	147.440000
269.833832	148.120000
269.926819	147.640000
270.019806	147.680000
270.112793	147.120000
270.205811	146.960000
270.298798	146.620000
270.391785	147.440000
270.484772	147.080000
270.577789	147.440000
270.670776	146.900000
270.763763	147.160000
270.856750	147.020000
270.949768	146.980000
271.042786	147.000000
271.135773	147.180000
271.228790	147.320000
271.321808	146.620000
271.414795	146.200000
271.507782	145.700000
271.600800	145.600000
271.693817	145.520000
271.786804	146.300000
271.879822	146.980000
271.972809	147.260000
272.065826	147.940000
272.158844	147.420000
272.251831	147.560000
272.344849	147.660000
272.437866	147.460000
272.530853	147.320000
272.623871	147.820000
272.716888	146.880000
272.809906	147.040000
272.902893	147.040000
272.995911	146.160000
273.088928	146.220000
273.181946	146.960000
273.274963	146.280000
273.367981	146.220000
273.460999	146.860000
273.554047	146.960000
273.647003	147.080000
273.740051	147.380000
273.833069	147.740000
273.926086	147.580000
274.019135	147.160000
274.112152	146.820000
274.205170	146.760000
274.298187	146.800000
274.391205	146.340000
274.484222	146.440000
274.577240	146.480000
274.670258	146.460000
274.763306	146.220000
274.856323	147.100000
274.949341	147.200000
275.042358	147.440000
275.135406	147.340000
275.228424	147.280000
275.321442	147.100000
275.414490	146.700000
275.507507	146.880000
275.600525	147.220000
275.693573	147.160000
275.786591	146.960000
275.879669	147.220000
275.972656	146.980000
276.065735	146.880000
276.158752	147.400000
276.251801	148.140000
276.344818	148.320000
276.437866	148.260000
276.530884	148.060000
276.623932	147.400000
276.716980	146.900000
276.809998	146.780000
276.903046	146.680000
276.996094	147.580000
277.089111	148.180000
277.182159	148.440000
277.275208	148.100000
277.368256	148.300000
277.461304	147.500000
277.554321	146.760000
277.647369	146.660000
277.740417	146.800000
277.833466	146.580000
277.926514	146.620000
278.019562	147.360000
278.112610	146.680000
278.205688	147.020000
278.298706	147.120000
278.391785	147.020000
278.484833	146.640000
278.577881	146.580000
278.670929	146.840000
278.763977	146.880000
278.857025	147.360000
278.950073	147.520000
279.043121	147.580000
279.136169	147.180000
279.229248	146.800000
279.322296	146.680000
279.415344	146.500000
279.508392	146.720000
279.601440	146.800000
279.694519	146.760000
279.787567	146.540000
279.880615	146.520000
279.973694	146.280000
280.066742	146.260000
280.159790	146.400000
280.252869	146.380000
280.345917	146.320000
280.438995	146.480000
280.532074	146.280000
280.625122	146.920000
280.718201	147.720000
280.811279	148.020000
280.904327	148.180000
280.997406	148.340000
281.090454	148.020000
281.183533	147.060000
281.276581	146.900000
281.369659	146.420000
281.462738	146.540000
281.555786	146.500000
281.648865	146.620000
281.741943	146.340000
281.835022	147.040000
281.928070	146.700000
282.021149	146.360000
282.114227	146.680000
282.207306	146.780000
282.300385	146.880000
282.393433	147.320000
282.486511	147.480000
282.579590	147.600000
282.672668	148.020000
282.765747	147.240000
282.858856	146.700000
282.951904	146.920000
283.045013	146.840000
283.138062	146.780000
283.231171	147.540000
283.324249	148.120000
283.417328	147.960000
283.510406	147.320000
283.603485	147.220000
283.696564	147.080000
283.789642	146.980000
283.882751	146.720000
283.975830	147.740000
284.068909	147.400000
284.161987	147.700000
284.255066	147.120000
284.348175	147.340000
284.441254	146.660000
284.534332	147.140000
284.627441	146.560000
284.720520	146.540000
284.813599	146.560000
284.906708	146.860000
284.999786	146.400000
285.092896	146.240000
285.185974	147.520000
285.279053	147.180000
285.372192	146.720000
285.465240	147.600000
285.558380	147.640000
285.651459	146.740000
285.744568	147.660000
285.837677	147.520000
285.930756	147.020000
286.023865	147.020000
286.116943	146.500000
286.210052	146.240000
286.303162	146.440000
286.396240	146.220000
286.489349	146.300000
286.582458	146.800000
286.675568	146.240000
286.768646	146.300000
286.861755	147.000000
286.954865	147.600000
287.047974	147.220000
287.141083	147.160000
287.234161	146.840000
287.327271	146.280000
287.420380	146.220000
287.513519	146.340000
287.606598	146.300000
287.699738	146.760000
287.792816	146.580000
287.885956	146.200000
287.979034	146.120000
288.072174	146.440000
288.165283	146.380000
288.258392	146.560000
288.351501	146.140000
288.444611	146.800000
288.537720	147.020000
288.630859	146.760000
288.723969	146.840000
288.817078	147.460000
288.910187	147.240000
289.003296	146.940000
289.096436	146.640000
289.189545	146.280000
289.282654	145.640000
289.375763	145.760000
289.468903	146.100000
289.562012	146.460000
289.655121	146.560000
289.748260	146.680000
289.841400	146.740000
289.934509	146.540000
290.027649	146.660000
290.120728	146.620000
290.213898	146.740000
290.306976	146.720000
290.400146	146.800000
290.493256	146.480000
290.586395	146.980000
290.679535	147.600000
290.772644	147.280000
290.865784	146.560000
290.958893	146.680000
291.052032	146.220000
291.145172	145.940000
291.238281	145.700000
291.331421	145.900000
291.424561	146.200000
291.517670	145.860000
291.610809	145.720000
291.703949	145.560000
291.797089	146.000000
291.890228	145.640000
291.983337	146.020000
292.076477	145.900000
292.169617	146.520000
292.262756	146.260000
292.355927	146.180000
292.449036	145.820000
292.542206	146.340000
292.635315	146.180000
292.728485	146.580000
292.821625	146.280000
292.914764	147.380000
293.007904	146.860000
293.101044	146.940000
293.194183	146.600000
293.287323	147.000000
293.380463	146.480000
293.473602	146.380000
293.566742	146.720000
293.659882	147.420000
293.753021	147.740000
293.846191	147.680000
293.939331	147.660000
294.032471	147.020000
294.125610	146.580000
294.218781	146.660000
294.311920	146.820000
294.405060	146.880000
294.498230	147.040000
294.591370	146.860000
294.684540	146.320000
294.777679	145.840000
294.870850	146.200000
294.963959	146.040000
295.057159	146.060000
295.150299	146.400000
295.243469	146.760000
295.336609	146.300000
295.429779	146.440000
295.522919	146.980000
295.616089	147.060000
295.709229	147.340000
295.802399	147.540000
295.895569	147.100000
295.988708	146.660000
296.081879	146.880000
296.175018	146.240000
296.268188	146.300000
296.361359	146.860000
296.454529	146.820000
296.547668	146.560000
296.640839	147.280000
296.734009	146.760000
296.827179	146.880000
296.920319	147.260000
297.013519	147.100000
297.106659	146.920000
297.199860	147.460000
297.292999	147.640000
297.386200	147.260000
297.479309	147.000000
297.572510	146.860000
297.665680	146.320000
297.758850	146.380000
297.852020	146.460000
297.945190	146.500000
298.038361	146.280000
298.131531	147.440000
298.224701	146.800000
298.317871	146.420000
298.411072	146.360000
298.504242	146.180000
298.597412	145.400000
298.690582	145.860000
298.783752	145.960000
298.876923	146.560000
298.970093	146.680000
299.063293	147.100000
299.156464	147.420000
299.249634	147.660000
299.342834	147.520000
299.436005	147.700000
299.529205	147.180000
299.622345	146.860000
299.715576	146.160000
299.808716	145.880000
299.901917	145.920000
299.995117	146.420000
300.088287	146.520000
300.181488	146.620000
300.274658	146.400000
300.367828	146.400000
300.461029	146.440000
300.554199	146.520000
300.647400	146.820000
300.740601	147.560000
300.833771	147.320000
300.926971	147.140000
301.020142	146.340000
301.113342	146.160000
301.206512	145.880000
301.299713	146.280000
301.392914	146.380000
301.486084	147.180000
301.579285	147.360000
301.672516	147.720000
301.765686	147.620000
301.858887	147.640000
301.952057	147.360000
302.045288	147.380000
302.138458	147.280000
302.231659	146.820000
302.324860	146.640000
302.418060	146.340000
302.511261	146.000000
302.604462	146.000000
302.697662	145.980000
302.790863	145.880000
302.884064	145.940000
302.977264	146.100000
303.070465	146.020000
303.163666	147.140000
303.256866	147.480000
303.350067	147.400000
303.443268	147.620000
303.536469	147.560000
303.629669	146.720000
303.722870	146.580000
303.816071	146.720000
303.909271	146.720000
304.002472	146.100000
304.095673	146.080000
304.188934	145.220000
304.282104	146.020000
304.375336	145.900000
304.468506	146.100000
304.561768	145.860000
304.654968	146.840000
304.748169	146.100000
304.841370	146.180000
304.934601	146.720000
305.027802	146.600000
305.121002	146.360000
305.214233	146.440000
305.307434	146.560000
305.400665	146.760000
305.493866	146.700000
