Model Number: SPM-002-B   
Serial Number: 70087108
Firmware Version: 004.15.4
Exposure Time: 100000.000000us
Data Taken on: 11-12-2020 19:38:32.228
Wavelength	Amplitude
221.570786	0.000000
221.663406	0.000000
221.756027	0.000000
221.848648	0.000000
221.941269	0.000000
222.033905	0.000000
222.126526	0.000000
222.219162	0.000000
222.311798	0.000000
222.404419	0.000000
222.497055	0.000000
222.589676	0.000000
222.682312	0.000000
222.774933	0.000000
222.867569	0.000000
222.960205	0.000000
223.052841	0.000000
223.145462	0.000000
223.238098	0.000000
223.330734	0.000000
223.423386	0.000000
223.516022	0.000000
223.608658	0.000000
223.701309	0.000000
223.793945	0.000000
223.886581	0.000000
223.979218	0.000000
224.071869	0.000000
224.164505	0.000000
224.257156	0.000000
224.349792	0.000000
224.442444	0.000000
224.535095	0.000000
224.627747	0.000000
224.720398	0.000000
224.813034	0.000000
224.905685	0.000000
224.998337	145.660000
225.090988	145.560000
225.183640	145.300000
225.276291	144.800000
225.368942	145.080000
225.461594	145.820000
225.554245	145.800000
225.646912	145.760000
225.739578	146.500000
225.832230	146.980000
225.924896	146.240000
226.017548	146.940000
226.110199	147.740000
226.202866	147.240000
226.295532	147.160000
226.388184	147.180000
226.480850	146.500000
226.573517	145.780000
226.666168	145.880000
226.758835	145.900000
226.851501	146.320000
226.944183	146.500000
227.036850	146.160000
227.129517	146.100000
227.222183	145.980000
227.314850	145.720000
227.407516	145.760000
227.500198	146.720000
227.592865	146.460000
227.685532	146.460000
227.778214	146.160000
227.870880	146.420000
227.963562	146.400000
228.056229	146.740000
228.148926	146.560000
228.241592	147.360000
228.334274	147.000000
228.426956	146.760000
228.519638	146.540000
228.612305	146.400000
228.704987	145.960000
228.797668	145.960000
228.890350	145.600000
228.983032	145.360000
229.075714	145.940000
229.168396	146.100000
229.261108	146.040000
229.353790	146.040000
229.446472	146.440000
229.539169	146.100000
229.631851	145.540000
229.724533	145.780000
229.817230	146.160000
229.909912	146.800000
230.002609	146.740000
230.095306	146.980000
230.187988	146.660000
230.280685	146.460000
230.373383	145.440000
230.466095	145.120000
230.558792	145.260000
230.651474	145.280000
230.744171	145.140000
230.836868	145.080000
230.929581	145.560000
231.022278	145.680000
231.114975	145.980000
231.207672	145.760000
231.300369	146.440000
231.393082	146.560000
231.485779	146.300000
231.578506	146.160000
231.671204	146.660000
231.763916	146.300000
231.856613	146.180000
231.949326	146.360000
232.042023	146.300000
232.134735	146.020000
232.227448	145.780000
232.320160	146.200000
232.412872	146.020000
232.505585	146.700000
232.598297	147.180000
232.691010	147.480000
232.783722	146.980000
232.876450	147.800000
232.969162	147.120000
233.061874	146.640000
233.154587	146.220000
233.247314	146.380000
233.340027	145.340000
233.432739	145.960000
233.525467	145.620000
233.618179	146.020000
233.710907	145.820000
233.803635	146.280000
233.896347	145.880000
233.989090	146.620000
234.081818	146.400000
234.174545	146.740000
234.267258	146.500000
234.359985	146.420000
234.452713	146.160000
234.545441	146.260000
234.638168	145.840000
234.730896	146.120000
234.823639	146.100000
234.916367	146.600000
235.009094	146.580000
235.101822	146.600000
235.194580	146.480000
235.287308	146.240000
235.380051	145.580000
235.472778	146.100000
235.565521	146.500000
235.658249	146.400000
235.750992	146.860000
235.843719	147.000000
235.936462	146.840000
236.029205	146.320000
236.121948	146.160000
236.214691	146.120000
236.307449	146.580000
236.400192	146.220000
236.492935	146.480000
236.585678	146.420000
236.678421	146.040000
236.771164	146.000000
236.863907	146.340000
236.956665	146.240000
237.049408	147.840000
237.142151	147.860000
237.234909	148.160000
237.327652	148.160000
237.420410	148.020000
237.513153	147.140000
237.605927	147.300000
237.698669	146.540000
237.791428	146.000000
237.884186	146.840000
237.976944	146.300000
238.069702	146.540000
238.162445	146.440000
238.255203	146.800000
238.347961	146.620000
238.440720	146.840000
238.533478	146.560000
238.626266	146.520000
238.719025	146.400000
238.811783	145.840000
238.904541	145.540000
238.997314	145.440000
239.090073	145.180000
239.182831	145.660000
239.275604	146.600000
239.368362	146.440000
239.461136	146.880000
239.553909	147.060000
239.646667	146.440000
239.739441	146.000000
239.832214	146.680000
239.925003	146.580000
240.017761	147.000000
240.110535	147.800000
240.203308	147.260000
240.296082	146.840000
240.388855	146.800000
240.481628	147.000000
240.574417	146.740000
240.667191	147.160000
240.759964	147.100000
240.852737	146.800000
240.945526	146.480000
241.038315	146.080000
241.131088	146.000000
241.223877	146.200000
241.316650	145.800000
241.409439	146.320000
241.502228	146.420000
241.595001	146.620000
241.687790	146.740000
241.780579	147.240000
241.873367	146.880000
241.966141	147.220000
242.058929	146.800000
242.151718	146.520000
242.244507	147.040000
242.337311	146.340000
242.430099	146.600000
242.522903	146.880000
242.615692	146.660000
242.708481	146.180000
242.801270	147.200000
242.894073	147.020000
242.986862	146.980000
243.079651	147.620000
243.172455	147.580000
243.265244	147.220000
243.358063	146.360000
243.450867	146.780000
243.543655	146.580000
243.636459	146.540000
243.729263	147.000000
243.822067	147.440000
243.914856	147.300000
244.007660	147.320000
244.100464	147.200000
244.193268	146.360000
244.286072	146.540000
244.378876	145.820000
244.471680	145.500000
244.564499	146.000000
244.657318	147.040000
244.750122	147.380000
244.842926	147.500000
244.935745	147.960000
245.028549	147.260000
245.121368	146.660000
245.214172	146.360000
245.306992	146.760000
245.399796	146.320000
245.492615	146.520000
245.585434	146.240000
245.678253	146.040000
245.771072	145.940000
245.863892	146.380000
245.956711	146.540000
246.049530	146.340000
246.142349	146.100000
246.235168	146.060000
246.327988	146.180000
246.420807	146.120000
246.513626	146.440000
246.606445	146.280000
246.699280	146.240000
246.792099	146.180000
246.884918	145.880000
246.977753	145.520000
247.070587	146.000000
247.163422	145.780000
247.256241	145.500000
247.349075	146.100000
247.441895	146.380000
247.534729	146.240000
247.627563	146.460000
247.720383	147.020000
247.813217	146.800000
247.906052	146.600000
247.998886	146.680000
248.091736	146.660000
248.184570	146.300000
248.277405	146.200000
248.370239	147.160000
248.463074	147.900000
248.555908	148.060000
248.648743	147.800000
248.741592	148.040000
248.834427	147.420000
248.927261	146.640000
249.020111	146.820000
249.112946	147.560000
249.205795	147.420000
249.298630	147.520000
249.391495	147.280000
249.484344	146.980000
249.577179	146.640000
249.670029	146.640000
249.762878	147.100000
249.855728	147.240000
249.948563	147.160000
250.041412	146.140000
250.134262	146.600000
250.227112	146.300000
250.319962	146.500000
250.412827	146.500000
250.505692	147.060000
250.598541	146.900000
250.691391	146.600000
250.784241	146.440000
250.877106	146.580000
250.969955	146.340000
251.062805	146.600000
251.155670	146.780000
251.248520	146.920000
251.341385	147.240000
251.434235	147.060000
251.527100	146.640000
251.619965	146.360000
251.712814	147.040000
251.805695	146.620000
251.898560	147.200000
251.991425	147.200000
252.084290	147.580000
252.177155	146.780000
252.270020	146.960000
252.362885	146.920000
252.455750	146.920000
252.548615	146.380000
252.641479	146.100000
252.734360	145.400000
252.827240	145.120000
252.920105	145.360000
253.012970	145.600000
253.105850	145.760000
253.198715	146.080000
253.291595	146.240000
253.384460	145.800000
253.477341	145.900000
253.570221	146.080000
253.663086	146.220000
253.755966	146.820000
253.848846	147.060000
253.941727	147.400000
254.034592	147.360000
254.127472	146.720000
254.220367	146.600000
254.313248	146.880000
254.406128	146.020000
254.499008	146.220000
254.591904	147.160000
254.684784	147.440000
254.777664	147.140000
254.870544	147.160000
254.963440	146.920000
255.056335	146.940000
255.149216	146.220000
255.242111	146.700000
255.334991	147.440000
255.427887	147.680000
255.520767	147.480000
255.613663	147.800000
255.706558	147.000000
255.799438	146.620000
255.892334	146.400000
255.985229	146.400000
256.078125	146.260000
256.171021	146.560000
256.263916	147.100000
256.356812	147.380000
256.449707	147.340000
256.542603	147.080000
256.635498	147.480000
256.728394	146.900000
256.821289	146.360000
256.914215	146.840000
257.007080	147.200000
257.100006	146.940000
257.192932	147.420000
257.285828	147.880000
257.378723	147.560000
257.471619	147.420000
257.564545	146.880000
257.657440	146.840000
257.750336	147.120000
257.843262	146.640000
257.936157	147.720000
258.029053	148.280000
258.121979	148.120000
258.214874	147.840000
258.307800	147.880000
258.400696	146.740000
258.493622	146.760000
258.586517	146.180000
258.679443	146.280000
258.772339	146.000000
258.865265	145.860000
258.958160	145.300000
259.051086	146.160000
259.144012	145.860000
259.236938	147.100000
259.329834	147.420000
259.422791	147.500000
259.515717	146.660000
259.608612	146.520000
259.701538	146.120000
259.794464	145.920000
259.887390	145.920000
259.980316	146.120000
260.073212	146.400000
260.166138	145.440000
260.259064	145.580000
260.351990	146.300000
260.444916	146.260000
260.537842	146.320000
260.630768	147.060000
260.723694	147.020000
260.816620	146.840000
260.909546	147.020000
261.002472	146.460000
261.095398	146.260000
261.188354	146.100000
261.281281	145.640000
261.374207	145.800000
261.467133	146.940000
261.560089	147.160000
261.653015	146.760000
261.745972	147.440000
261.838867	147.700000
261.931824	147.500000
262.024780	147.040000
262.117706	147.820000
262.210663	147.700000
262.303589	147.380000
262.396515	146.980000
262.489471	147.960000
262.582397	147.520000
262.675354	146.740000
262.768280	146.880000
262.861237	147.140000
262.954163	146.700000
263.047119	146.940000
263.140045	147.180000
263.233002	147.020000
263.325958	146.620000
263.418884	145.960000
263.511841	145.820000
263.604797	145.740000
263.697723	145.920000
263.790680	146.040000
263.883636	146.820000
263.976593	146.620000
264.069550	147.020000
264.162476	146.540000
264.255463	146.700000
264.348419	146.460000
264.441376	146.880000
264.534332	146.220000
264.627289	146.700000
264.720245	146.920000
264.813202	146.480000
264.906158	146.760000
264.999115	147.420000
265.092072	147.100000
265.185028	147.460000
265.277985	147.800000
265.370941	147.540000
265.463898	147.300000
265.556854	147.400000
265.649811	146.160000
265.742798	146.320000
265.835754	146.120000
265.928711	146.460000
266.021667	146.540000
266.114655	147.100000
266.207611	147.220000
266.300568	147.020000
266.393585	146.360000
266.486511	146.480000
266.579498	145.900000
266.672485	145.680000
266.765442	145.900000
266.858429	146.540000
266.951385	145.920000
267.044342	146.140000
267.137329	146.120000
267.230316	146.340000
267.323273	145.920000
267.416260	146.940000
267.509216	147.140000
267.602203	147.100000
267.695160	147.220000
267.788147	147.380000
267.881134	146.400000
267.974091	146.900000
268.067078	146.780000
268.160065	146.420000
268.253052	146.400000
268.346008	146.740000
268.438995	146.040000
268.531982	146.420000
268.624969	146.300000
268.717987	146.700000
268.810944	146.800000
268.903961	147.120000
268.996948	146.420000
269.089905	146.920000
269.182892	146.600000
269.275879	146.720000
269.368866	146.240000
269.461853	146.640000
269.554871	146.440000
269.647858	146.560000
269.740845	146.840000
269.833832	147.500000
269.926819	147.020000
270.019806	146.860000
270.112793	146.240000
270.205811	146.140000
270.298798	145.860000
270.391785	146.820000
270.484772	146.720000
270.577789	147.240000
270.670776	146.780000
270.763763	146.640000
270.856750	146.480000
270.949768	146.260000
271.042786	146.060000
271.135773	146.240000
271.228790	146.840000
271.321808	146.640000
271.414795	146.620000
271.507782	146.380000
271.600800	146.000000
271.693817	145.660000
271.786804	145.820000
271.879822	146.220000
271.972809	146.440000
272.065826	147.200000
272.158844	146.800000
272.251831	147.360000
272.344849	147.400000
272.437866	147.080000
272.530853	146.700000
272.623871	147.320000
272.716888	146.080000
272.809906	146.380000
272.902893	146.500000
272.995911	146.160000
273.088928	145.800000
273.181946	146.240000
273.274963	145.720000
273.367981	145.800000
273.460999	146.100000
273.554047	146.440000
273.647003	147.140000
273.740051	147.140000
273.833069	147.600000
273.926086	147.800000
274.019135	147.540000
274.112152	147.000000
274.205170	147.120000
274.298187	146.920000
274.391205	146.440000
274.484222	146.720000
274.577240	146.720000
274.670258	146.620000
274.763306	146.420000
274.856323	146.780000
274.949341	146.520000
275.042358	146.760000
275.135406	146.680000
275.228424	146.800000
275.321442	146.820000
275.414490	146.500000
275.507507	146.400000
275.600525	146.640000
275.693573	146.360000
275.786591	145.940000
275.879669	146.300000
275.972656	145.780000
276.065735	145.640000
276.158752	146.400000
276.251801	147.280000
276.344818	147.440000
276.437866	147.660000
276.530884	147.640000
276.623932	146.860000
276.716980	146.600000
276.809998	146.240000
276.903046	146.320000
276.996094	147.020000
277.089111	147.620000
277.182159	148.040000
277.275208	148.080000
277.368256	147.960000
277.461304	147.700000
277.554321	146.900000
277.647369	146.820000
277.740417	146.840000
277.833466	146.860000
277.926514	146.560000
278.019562	147.580000
278.112610	146.560000
278.205688	146.840000
278.298706	147.060000
278.391785	146.820000
278.484833	146.080000
278.577881	146.320000
278.670929	146.400000
278.763977	146.440000
278.857025	146.940000
278.950073	147.420000
279.043121	147.320000
279.136169	147.140000
279.229248	146.820000
279.322296	146.880000
279.415344	146.580000
279.508392	146.480000
279.601440	146.640000
279.694519	146.800000
279.787567	146.500000
279.880615	146.240000
279.973694	146.060000
280.066742	145.700000
280.159790	145.660000
280.252869	145.460000
280.345917	145.680000
280.438995	145.980000
280.532074	145.900000
280.625122	146.080000
280.718201	146.600000
280.811279	146.720000
280.904327	146.660000
280.997406	146.920000
281.090454	147.020000
281.183533	146.680000
281.276581	146.560000
281.369659	146.440000
281.462738	146.420000
281.555786	146.420000
281.648865	146.460000
281.741943	146.120000
281.835022	146.820000
281.928070	146.600000
282.021149	146.180000
282.114227	146.160000
282.207306	146.460000
282.300385	146.540000
282.393433	146.680000
282.486511	146.920000
282.579590	147.000000
282.672668	147.500000
282.765747	146.960000
282.858856	146.660000
282.951904	146.920000
283.045013	147.180000
283.138062	147.220000
283.231171	147.320000
283.324249	147.840000
283.417328	147.720000
283.510406	147.300000
283.603485	147.020000
283.696564	147.060000
283.789642	147.240000
283.882751	147.060000
283.975830	147.780000
284.068909	147.120000
284.161987	147.660000
284.255066	146.780000
284.348175	146.800000
284.441254	146.180000
284.534332	147.140000
284.627441	146.600000
284.720520	147.000000
284.813599	147.040000
284.906708	147.300000
284.999786	146.460000
285.092896	146.180000
285.185974	147.080000
285.279053	146.780000
285.372192	146.660000
285.465240	147.480000
285.558380	147.360000
285.651459	146.680000
285.744568	147.500000
285.837677	147.320000
285.930756	147.220000
286.023865	147.420000
286.116943	147.120000
286.210052	147.080000
286.303162	147.160000
286.396240	146.680000
286.489349	146.580000
286.582458	147.060000
286.675568	146.540000
286.768646	146.460000
286.861755	146.900000
286.954865	147.820000
287.047974	147.040000
287.141083	146.940000
287.234161	146.800000
287.327271	146.560000
287.420380	146.500000
287.513519	146.880000
287.606598	146.900000
287.699738	147.200000
287.792816	146.980000
287.885956	146.560000
287.979034	146.300000
288.072174	146.500000
288.165283	146.180000
288.258392	146.680000
288.351501	146.280000
288.444611	146.660000
288.537720	146.920000
288.630859	146.800000
288.723969	146.740000
288.817078	147.260000
288.910187	147.300000
289.003296	146.720000
289.096436	146.680000
289.189545	146.560000
289.282654	146.040000
289.375763	146.240000
289.468903	146.940000
289.562012	147.680000
289.655121	147.660000
289.748260	147.960000
289.841400	148.080000
289.934509	147.700000
290.027649	147.480000
290.120728	147.280000
290.213898	147.160000
290.306976	146.820000
290.400146	147.020000
290.493256	146.340000
290.586395	146.780000
290.679535	147.120000
290.772644	146.880000
290.865784	146.040000
290.958893	146.460000
291.052032	146.240000
291.145172	146.140000
291.238281	146.220000
291.331421	146.780000
291.424561	146.900000
291.517670	146.680000
291.610809	146.680000
291.703949	146.300000
291.797089	146.460000
291.890228	145.940000
291.983337	146.140000
292.076477	145.900000
292.169617	146.520000
292.262756	146.300000
292.355927	146.380000
292.449036	145.920000
292.542206	146.300000
292.635315	146.340000
292.728485	146.540000
292.821625	146.760000
292.914764	147.900000
293.007904	147.820000
293.101044	147.620000
293.194183	147.440000
293.287323	147.520000
293.380463	146.820000
293.473602	146.420000
293.566742	146.840000
293.659882	147.300000
293.753021	147.460000
293.846191	147.200000
293.939331	147.140000
294.032471	146.700000
294.125610	146.280000
294.218781	146.700000
294.311920	147.180000
294.405060	147.220000
294.498230	147.140000
294.591370	147.260000
294.684540	146.380000
294.777679	145.880000
294.870850	146.140000
294.963959	146.120000
295.057159	145.820000
295.150299	146.380000
295.243469	146.580000
295.336609	146.360000
295.429779	146.740000
295.522919	147.260000
295.616089	147.160000
295.709229	147.340000
295.802399	147.820000
295.895569	147.100000
295.988708	146.600000
296.081879	146.640000
296.175018	146.080000
296.268188	145.640000
296.361359	146.300000
296.454529	146.660000
296.547668	146.240000
296.640839	146.880000
296.734009	146.680000
296.827179	146.500000
296.920319	146.540000
297.013519	146.480000
297.106659	146.400000
297.199860	146.480000
297.292999	146.520000
297.386200	146.200000
297.479309	146.180000
297.572510	146.100000
297.665680	145.840000
297.758850	145.740000
297.852020	145.880000
297.945190	145.960000
298.038361	145.500000
298.131531	146.540000
298.224701	146.540000
298.317871	146.160000
298.411072	145.800000
298.504242	145.720000
298.597412	145.300000
298.690582	145.460000
298.783752	145.600000
298.876923	146.260000
298.970093	146.780000
299.063293	146.720000
299.156464	147.300000
299.249634	147.540000
299.342834	147.880000
299.436005	147.920000
299.529205	147.940000
299.622345	147.380000
299.715576	146.800000
299.808716	146.300000
299.901917	146.120000
299.995117	146.240000
300.088287	146.400000
300.181488	146.540000
300.274658	146.380000
300.367828	146.520000
300.461029	146.380000
300.554199	146.640000
300.647400	146.780000
300.740601	147.280000
300.833771	147.140000
300.926971	147.220000
301.020142	146.580000
301.113342	146.300000
301.206512	146.120000
301.299713	146.600000
301.392914	146.760000
301.486084	147.320000
301.579285	147.600000
301.672516	147.900000
301.765686	147.560000
301.858887	147.300000
301.952057	147.080000
302.045288	146.660000
302.138458	146.420000
302.231659	146.360000
302.324860	146.580000
302.418060	146.180000
302.511261	146.420000
302.604462	146.600000
302.697662	146.260000
302.790863	146.160000
302.884064	146.080000
302.977264	146.280000
303.070465	146.560000
303.163666	147.500000
303.256866	147.300000
303.350067	147.400000
303.443268	147.600000
303.536469	147.440000
303.629669	146.520000
303.722870	146.740000
303.816071	146.820000
303.909271	146.740000
304.002472	146.060000
304.095673	146.040000
304.188934	145.420000
304.282104	146.200000
304.375336	146.000000
304.468506	146.020000
304.561768	146.120000
304.654968	146.940000
304.748169	146.100000
304.841370	145.880000
304.934601	146.300000
305.027802	146.140000
305.121002	145.580000
305.214233	145.820000
305.307434	146.140000
305.400665	146.440000
305.493866	146.300000
