Model Number: SPM-002-B   
Serial Number: 70087108
Firmware Version: 004.15.4
Exposure Time: 100000.000000us
Data Taken on: 11-12-2020 19:38:42.332
Wavelength	Amplitude
221.570786	0.000000
221.663406	0.000000
221.756027	0.000000
221.848648	0.000000
221.941269	0.000000
222.033905	0.000000
222.126526	0.000000
222.219162	0.000000
222.311798	0.000000
222.404419	0.000000
222.497055	0.000000
222.589676	0.000000
222.682312	0.000000
222.774933	0.000000
222.867569	0.000000
222.960205	0.000000
223.052841	0.000000
223.145462	0.000000
223.238098	0.000000
223.330734	0.000000
223.423386	0.000000
223.516022	0.000000
223.608658	0.000000
223.701309	0.000000
223.793945	0.000000
223.886581	0.000000
223.979218	0.000000
224.071869	0.000000
224.164505	0.000000
224.257156	0.000000
224.349792	0.000000
224.442444	0.000000
224.535095	0.000000
224.627747	0.000000
224.720398	0.000000
224.813034	0.000000
224.905685	0.000000
224.998337	146.360000
225.090988	145.780000
225.183640	145.820000
225.276291	145.620000
225.368942	145.980000
225.461594	146.660000
225.554245	147.180000
225.646912	147.060000
225.739578	147.720000
225.832230	147.840000
225.924896	146.940000
226.017548	147.140000
226.110199	147.640000
226.202866	146.860000
226.295532	146.360000
226.388184	146.600000
226.480850	146.020000
226.573517	145.760000
226.666168	146.080000
226.758835	146.540000
226.851501	147.140000
226.944183	147.380000
227.036850	147.000000
227.129517	146.780000
227.222183	146.760000
227.314850	146.520000
227.407516	146.700000
227.500198	147.500000
227.592865	147.620000
227.685532	147.320000
227.778214	147.000000
227.870880	147.200000
227.963562	147.540000
228.056229	147.640000
228.148926	147.720000
228.241592	148.340000
228.334274	148.020000
228.426956	147.580000
228.519638	147.640000
228.612305	146.940000
228.704987	146.800000
228.797668	146.820000
228.890350	146.300000
228.983032	145.800000
229.075714	147.020000
229.168396	146.720000
229.261108	146.360000
229.353790	146.560000
229.446472	146.940000
229.539169	146.300000
229.631851	146.080000
229.724533	146.440000
229.817230	146.660000
229.909912	147.300000
230.002609	147.460000
230.095306	147.580000
230.187988	147.600000
230.280685	147.360000
230.373383	146.500000
230.466095	146.280000
230.558792	146.440000
230.651474	146.540000
230.744171	146.740000
230.836868	146.940000
230.929581	147.380000
231.022278	147.580000
231.114975	147.340000
231.207672	147.220000
231.300369	147.580000
231.393082	147.280000
231.485779	146.940000
231.578506	147.040000
231.671204	147.060000
231.763916	146.980000
231.856613	146.800000
231.949326	147.200000
232.042023	147.140000
232.134735	146.980000
232.227448	146.520000
232.320160	147.020000
232.412872	146.640000
232.505585	147.340000
232.598297	147.720000
232.691010	147.680000
232.783722	147.180000
232.876450	147.960000
232.969162	147.460000
233.061874	147.180000
233.154587	146.980000
233.247314	147.500000
233.340027	146.540000
233.432739	146.840000
233.525467	146.480000
233.618179	146.940000
233.710907	146.520000
233.803635	147.020000
233.896347	146.720000
233.989090	147.640000
234.081818	147.260000
234.174545	147.340000
234.267258	146.760000
234.359985	146.760000
234.452713	146.120000
234.545441	146.020000
234.638168	145.500000
234.730896	146.240000
234.823639	145.920000
234.916367	146.580000
235.009094	146.780000
235.101822	147.020000
235.194580	146.620000
235.287308	146.840000
235.380051	146.020000
235.472778	146.100000
235.565521	146.520000
235.658249	146.220000
235.750992	146.180000
235.843719	146.340000
235.936462	146.660000
236.029205	146.180000
236.121948	146.200000
236.214691	146.620000
236.307449	147.200000
236.400192	146.840000
236.492935	146.920000
236.585678	147.240000
236.678421	146.860000
236.771164	146.660000
236.863907	147.060000
236.956665	147.200000
237.049408	148.680000
237.142151	148.560000
237.234909	149.200000
237.327652	149.220000
237.420410	148.840000
237.513153	147.600000
237.605927	147.500000
237.698669	146.600000
237.791428	145.860000
237.884186	146.400000
237.976944	145.940000
238.069702	146.360000
238.162445	145.980000
238.255203	146.300000
238.347961	146.700000
238.440720	146.840000
238.533478	146.680000
238.626266	146.720000
238.719025	147.000000
238.811783	146.540000
238.904541	146.400000
238.997314	146.280000
239.090073	146.420000
239.182831	146.720000
239.275604	147.620000
239.368362	147.600000
239.461136	147.700000
239.553909	147.860000
239.646667	147.380000
239.739441	146.680000
239.832214	147.000000
239.925003	147.240000
240.017761	147.640000
240.110535	148.280000
240.203308	147.680000
240.296082	147.680000
240.388855	147.360000
240.481628	147.440000
240.574417	147.300000
240.667191	147.860000
240.759964	147.560000
240.852737	147.740000
240.945526	147.140000
241.038315	147.080000
241.131088	147.100000
241.223877	147.200000
241.316650	146.860000
241.409439	147.300000
241.502228	146.620000
241.595001	146.920000
241.687790	147.060000
241.780579	147.160000
241.873367	147.200000
241.966141	147.680000
242.058929	147.080000
242.151718	147.520000
242.244507	147.780000
242.337311	147.140000
242.430099	147.460000
242.522903	147.700000
242.615692	146.740000
242.708481	147.140000
242.801270	147.580000
242.894073	147.700000
242.986862	147.900000
243.079651	148.840000
243.172455	148.180000
243.265244	148.420000
243.358063	147.800000
243.450867	148.080000
243.543655	147.960000
243.636459	148.100000
243.729263	148.140000
243.822067	148.240000
243.914856	148.080000
244.007660	147.960000
244.100464	147.620000
244.193268	146.960000
244.286072	146.880000
244.378876	146.320000
244.471680	145.780000
244.564499	146.160000
244.657318	147.120000
244.750122	147.380000
244.842926	147.220000
244.935745	147.740000
245.028549	147.560000
245.121368	147.080000
245.214172	146.960000
245.306992	147.400000
245.399796	147.120000
245.492615	147.180000
245.585434	147.060000
245.678253	147.000000
245.771072	146.980000
245.863892	147.480000
245.956711	147.680000
246.049530	147.440000
246.142349	147.300000
246.235168	147.400000
246.327988	147.360000
246.420807	147.080000
246.513626	147.220000
246.606445	147.240000
246.699280	146.940000
246.792099	146.840000
246.884918	146.560000
246.977753	146.220000
247.070587	146.240000
247.163422	146.080000
247.256241	146.040000
247.349075	146.500000
247.441895	146.620000
247.534729	146.760000
247.627563	146.980000
247.720383	147.680000
247.813217	147.860000
247.906052	148.020000
247.998886	147.840000
248.091736	147.740000
248.184570	146.980000
248.277405	146.820000
248.370239	147.800000
248.463074	148.480000
248.555908	148.760000
248.648743	148.660000
248.741592	148.740000
248.834427	147.780000
248.927261	146.680000
249.020111	147.000000
249.112946	147.500000
249.205795	147.160000
249.298630	147.240000
249.391495	147.600000
249.484344	147.220000
249.577179	147.160000
249.670029	147.320000
249.762878	147.860000
249.855728	148.220000
249.948563	148.180000
250.041412	147.340000
250.134262	147.640000
250.227112	147.520000
250.319962	147.360000
250.412827	147.440000
250.505692	147.700000
250.598541	147.560000
250.691391	147.240000
250.784241	147.300000
250.877106	147.540000
250.969955	147.460000
251.062805	147.640000
251.155670	147.860000
251.248520	147.440000
251.341385	147.120000
251.434235	146.860000
251.527100	146.380000
251.619965	145.900000
251.712814	147.020000
251.805695	147.200000
251.898560	147.780000
251.991425	148.280000
252.084290	149.000000
252.177155	147.820000
252.270020	147.600000
252.362885	147.360000
252.455750	147.320000
252.548615	146.740000
252.641479	147.120000
252.734360	146.980000
252.827240	146.860000
252.920105	146.840000
253.012970	146.640000
253.105850	146.340000
253.198715	146.240000
253.291595	146.140000
253.384460	145.620000
253.477341	145.640000
253.570221	145.800000
253.663086	145.500000
253.755966	146.220000
253.848846	146.420000
253.941727	146.700000
254.034592	146.680000
254.127472	146.620000
254.220367	146.260000
254.313248	146.660000
254.406128	146.300000
254.499008	146.600000
254.591904	147.660000
254.684784	148.080000
254.777664	147.580000
254.870544	147.200000
254.963440	146.820000
255.056335	146.400000
255.149216	146.280000
255.242111	147.020000
255.334991	147.920000
255.427887	148.240000
255.520767	148.240000
255.613663	148.040000
255.706558	147.240000
255.799438	146.940000
255.892334	146.700000
255.985229	146.480000
256.078125	146.380000
256.171021	146.620000
256.263916	147.020000
256.356812	147.460000
256.449707	147.840000
256.542603	147.540000
256.635498	148.100000
256.728394	147.860000
256.821289	147.580000
256.914215	147.720000
257.007080	148.220000
257.100006	148.040000
257.192932	148.460000
257.285828	148.700000
257.378723	148.440000
257.471619	148.180000
257.564545	147.500000
257.657440	147.160000
257.750336	147.180000
257.843262	147.080000
257.936157	148.020000
258.029053	148.620000
258.121979	148.480000
258.214874	148.220000
258.307800	147.860000
258.400696	146.720000
258.493622	146.520000
258.586517	145.960000
258.679443	146.080000
258.772339	145.960000
258.865265	146.100000
258.958160	145.560000
259.051086	146.480000
259.144012	146.420000
259.236938	147.260000
259.329834	147.520000
259.422791	147.940000
259.515717	147.180000
259.608612	146.760000
259.701538	146.680000
259.794464	146.480000
259.887390	146.480000
259.980316	146.460000
260.073212	146.760000
260.166138	146.080000
260.259064	146.480000
260.351990	146.780000
260.444916	146.740000
260.537842	147.100000
260.630768	147.840000
260.723694	147.560000
260.816620	147.340000
260.909546	147.580000
261.002472	147.060000
261.095398	146.400000
261.188354	146.360000
261.281281	146.100000
261.374207	146.160000
261.467133	146.860000
261.560089	147.080000
261.653015	147.020000
261.745972	147.440000
261.838867	147.640000
261.931824	147.480000
262.024780	146.980000
262.117706	146.920000
262.210663	146.940000
262.303589	146.900000
262.396515	146.840000
262.489471	147.800000
262.582397	147.880000
262.675354	147.420000
262.768280	147.400000
262.861237	147.160000
262.954163	146.780000
263.047119	146.820000
263.140045	146.760000
263.233002	146.680000
263.325958	146.500000
263.418884	146.240000
263.511841	146.380000
263.604797	146.740000
263.697723	146.780000
263.790680	146.960000
263.883636	147.760000
263.976593	147.480000
264.069550	147.360000
264.162476	147.120000
264.255463	147.120000
264.348419	146.620000
264.441376	147.060000
264.534332	146.900000
264.627289	147.120000
264.720245	147.580000
264.813202	147.120000
264.906158	147.240000
264.999115	147.460000
265.092072	147.200000
265.185028	147.540000
265.277985	148.020000
265.370941	147.440000
265.463898	147.100000
265.556854	147.340000
265.649811	146.120000
265.742798	146.020000
265.835754	146.240000
265.928711	146.980000
266.021667	146.820000
266.114655	147.300000
266.207611	147.520000
266.300568	147.080000
266.393585	146.340000
266.486511	146.800000
266.579498	146.220000
266.672485	146.080000
266.765442	146.120000
266.858429	146.880000
266.951385	146.260000
267.044342	146.660000
267.137329	146.640000
267.230316	147.100000
267.323273	146.260000
267.416260	147.260000
267.509216	147.300000
267.602203	147.080000
267.695160	147.420000
267.788147	147.760000
267.881134	146.980000
267.974091	147.160000
268.067078	147.320000
268.160065	146.880000
268.253052	146.560000
268.346008	146.500000
268.438995	146.340000
268.531982	146.240000
268.624969	146.100000
268.717987	146.760000
268.810944	146.920000
268.903961	146.840000
268.996948	146.660000
269.089905	147.160000
269.182892	147.260000
269.275879	147.320000
269.368866	147.340000
269.461853	147.740000
269.554871	147.480000
269.647858	147.180000
269.740845	147.600000
269.833832	147.700000
269.926819	147.180000
270.019806	147.180000
270.112793	146.560000
270.205811	146.300000
270.298798	146.040000
270.391785	146.940000
270.484772	146.580000
270.577789	146.960000
270.670776	146.900000
270.763763	146.860000
270.856750	146.820000
270.949768	146.560000
271.042786	146.740000
271.135773	146.600000
271.228790	147.160000
271.321808	146.400000
271.414795	146.660000
271.507782	146.340000
271.600800	146.200000
271.693817	146.060000
271.786804	146.480000
271.879822	146.820000
271.972809	147.000000
272.065826	147.660000
272.158844	147.080000
272.251831	147.600000
272.344849	147.440000
272.437866	147.140000
272.530853	146.960000
272.623871	147.420000
272.716888	146.320000
272.809906	147.000000
272.902893	147.060000
272.995911	146.320000
273.088928	146.180000
273.181946	146.620000
273.274963	145.780000
273.367981	146.060000
273.460999	146.760000
273.554047	147.480000
273.647003	148.080000
273.740051	148.220000
273.833069	148.740000
273.926086	148.520000
274.019135	148.060000
274.112152	147.460000
274.205170	147.600000
274.298187	147.420000
274.391205	147.160000
274.484222	147.100000
274.577240	147.160000
274.670258	146.800000
274.763306	146.480000
274.856323	146.920000
274.949341	146.880000
275.042358	147.360000
275.135406	147.200000
275.228424	147.120000
275.321442	146.640000
275.414490	146.120000
275.507507	146.020000
275.600525	146.480000
275.693573	146.240000
275.786591	146.180000
275.879669	146.620000
275.972656	146.200000
276.065735	146.200000
276.158752	146.640000
276.251801	147.580000
276.344818	147.560000
276.437866	147.720000
276.530884	147.380000
276.623932	147.000000
276.716980	146.660000
276.809998	146.720000
276.903046	146.700000
276.996094	147.720000
277.089111	148.540000
277.182159	148.960000
277.275208	148.900000
277.368256	148.920000
277.461304	148.400000
277.554321	147.340000
277.647369	146.760000
277.740417	146.580000
277.833466	146.320000
277.926514	145.940000
278.019562	146.800000
278.112610	146.280000
278.205688	146.480000
278.298706	146.760000
278.391785	146.840000
278.484833	146.220000
278.577881	146.460000
278.670929	146.820000
278.763977	146.820000
278.857025	147.220000
278.950073	147.400000
279.043121	147.380000
279.136169	147.260000
279.229248	147.120000
279.322296	146.860000
279.415344	146.460000
279.508392	146.440000
279.601440	146.280000
279.694519	146.260000
279.787567	146.160000
279.880615	146.460000
279.973694	146.120000
280.066742	146.200000
280.159790	146.220000
280.252869	146.040000
280.345917	146.000000
280.438995	146.200000
280.532074	145.880000
280.625122	146.320000
280.718201	147.180000
280.811279	147.260000
280.904327	147.460000
280.997406	147.800000
281.090454	147.560000
281.183533	146.860000
281.276581	146.680000
281.369659	146.600000
281.462738	146.560000
281.555786	146.580000
281.648865	146.680000
281.741943	146.780000
281.835022	147.180000
281.928070	146.980000
282.021149	146.840000
282.114227	146.660000
282.207306	146.860000
282.300385	146.860000
282.393433	146.840000
282.486511	146.860000
282.579590	147.320000
282.672668	147.440000
282.765747	146.980000
282.858856	146.820000
282.951904	146.920000
283.045013	146.920000
283.138062	147.280000
283.231171	147.820000
283.324249	148.360000
283.417328	148.360000
283.510406	147.900000
283.603485	147.420000
283.696564	146.980000
283.789642	146.640000
283.882751	146.420000
283.975830	147.060000
284.068909	146.660000
284.161987	147.140000
284.255066	146.860000
284.348175	146.920000
284.441254	146.500000
284.534332	147.100000
284.627441	146.660000
284.720520	146.600000
284.813599	146.700000
284.906708	146.600000
284.999786	145.940000
285.092896	145.900000
285.185974	146.760000
285.279053	146.180000
285.372192	146.400000
285.465240	147.380000
285.558380	147.460000
285.651459	146.980000
285.744568	147.740000
285.837677	147.300000
285.930756	146.980000
286.023865	146.980000
286.116943	146.940000
286.210052	147.040000
286.303162	147.360000
286.396240	147.140000
286.489349	147.060000
286.582458	147.320000
286.675568	146.580000
286.768646	146.300000
286.861755	146.520000
286.954865	147.080000
287.047974	146.620000
287.141083	146.900000
287.234161	146.980000
287.327271	146.540000
287.420380	146.660000
287.513519	146.780000
287.606598	146.700000
287.699738	147.000000
287.792816	147.140000
287.885956	146.760000
287.979034	146.660000
288.072174	146.720000
288.165283	146.500000
288.258392	146.540000
288.351501	145.740000
288.444611	146.120000
288.537720	146.860000
288.630859	146.800000
288.723969	147.280000
288.817078	148.300000
288.910187	147.960000
289.003296	147.380000
289.096436	147.220000
289.189545	147.020000
289.282654	146.440000
289.375763	146.840000
289.468903	147.020000
289.562012	147.440000
289.655121	147.420000
289.748260	147.640000
289.841400	148.000000
289.934509	147.840000
290.027649	147.980000
290.120728	147.560000
290.213898	147.300000
290.306976	146.720000
290.400146	146.620000
290.493256	145.940000
290.586395	146.120000
290.679535	146.540000
290.772644	146.400000
290.865784	145.940000
290.958893	146.240000
291.052032	145.940000
291.145172	145.600000
291.238281	145.360000
291.331421	145.720000
291.424561	145.900000
291.517670	146.040000
291.610809	146.500000
291.703949	146.580000
291.797089	146.600000
291.890228	146.340000
291.983337	146.140000
292.076477	145.660000
292.169617	145.880000
292.262756	145.960000
292.355927	145.580000
292.449036	145.600000
292.542206	145.940000
292.635315	146.080000
292.728485	146.320000
292.821625	146.340000
292.914764	147.660000
293.007904	147.420000
293.101044	147.240000
293.194183	147.080000
293.287323	147.340000
293.380463	146.260000
293.473602	146.220000
293.566742	146.440000
293.659882	146.680000
293.753021	147.000000
293.846191	147.000000
293.939331	146.620000
294.032471	146.400000
294.125610	146.060000
294.218781	146.220000
294.311920	146.760000
294.405060	146.840000
294.498230	146.800000
294.591370	146.900000
294.684540	146.120000
294.777679	145.620000
294.870850	146.320000
294.963959	146.520000
295.057159	146.300000
295.150299	146.820000
295.243469	146.680000
295.336609	146.080000
295.429779	145.860000
295.522919	146.300000
295.616089	146.380000
295.709229	147.200000
295.802399	147.440000
295.895569	147.240000
295.988708	146.920000
296.081879	147.000000
296.175018	146.160000
296.268188	146.060000
296.361359	146.680000
296.454529	147.120000
296.547668	146.780000
296.640839	147.200000
296.734009	147.220000
296.827179	147.120000
296.920319	146.940000
297.013519	146.820000
297.106659	146.840000
297.199860	146.900000
297.292999	146.740000
297.386200	146.440000
297.479309	146.440000
297.572510	146.280000
297.665680	146.040000
297.758850	146.260000
297.852020	146.480000
297.945190	146.520000
298.038361	146.100000
298.131531	146.960000
298.224701	146.620000
298.317871	146.260000
298.411072	146.040000
298.504242	146.160000
298.597412	145.560000
298.690582	145.900000
298.783752	145.980000
298.876923	146.500000
298.970093	146.420000
299.063293	146.420000
299.156464	146.400000
299.249634	146.640000
299.342834	146.520000
299.436005	146.940000
299.529205	146.920000
299.622345	147.080000
299.715576	146.400000
299.808716	146.080000
299.901917	146.140000
299.995117	146.340000
300.088287	146.280000
300.181488	146.120000
300.274658	146.200000
300.367828	146.140000
300.461029	146.180000
300.554199	146.320000
300.647400	147.020000
300.740601	147.360000
300.833771	147.080000
300.926971	147.540000
301.020142	146.980000
301.113342	146.700000
301.206512	146.480000
301.299713	147.040000
301.392914	146.560000
301.486084	146.940000
301.579285	146.880000
301.672516	147.400000
301.765686	146.940000
301.858887	146.840000
301.952057	146.680000
302.045288	146.560000
302.138458	146.260000
302.231659	146.080000
302.324860	146.060000
302.418060	145.640000
302.511261	145.860000
302.604462	146.040000
302.697662	146.020000
302.790863	145.740000
302.884064	145.620000
302.977264	145.640000
303.070465	145.940000
303.163666	146.500000
303.256866	147.060000
303.350067	147.480000
303.443268	147.560000
303.536469	147.220000
303.629669	146.520000
303.722870	146.420000
303.816071	146.200000
303.909271	146.460000
304.002472	145.700000
304.095673	145.840000
304.188934	145.020000
304.282104	145.780000
304.375336	145.500000
304.468506	146.000000
304.561768	145.700000
304.654968	146.440000
304.748169	145.680000
304.841370	145.580000
304.934601	145.840000
305.027802	145.820000
305.121002	145.600000
305.214233	145.820000
305.307434	146.120000
305.400665	146.500000
305.493866	146.540000
