Model Number: SPM-002-B   
Serial Number: 70087108
Firmware Version: 004.15.4
Exposure Time: 100000.000000us
Data Taken on: 11-12-2020 19:39:16.598
Wavelength	Amplitude
221.570786	0.000000
221.663406	0.000000
221.756027	0.000000
221.848648	0.000000
221.941269	0.000000
222.033905	0.000000
222.126526	0.000000
222.219162	0.000000
222.311798	0.000000
222.404419	0.000000
222.497055	0.000000
222.589676	0.000000
222.682312	0.000000
222.774933	0.000000
222.867569	0.000000
222.960205	0.000000
223.052841	0.000000
223.145462	0.000000
223.238098	0.000000
223.330734	0.000000
223.423386	0.000000
223.516022	0.000000
223.608658	0.000000
223.701309	0.000000
223.793945	0.000000
223.886581	0.000000
223.979218	0.000000
224.071869	0.000000
224.164505	0.000000
224.257156	0.000000
224.349792	0.000000
224.442444	0.000000
224.535095	0.000000
224.627747	0.000000
224.720398	0.000000
224.813034	0.000000
224.905685	0.000000
224.998337	145.720000
225.090988	145.420000
225.183640	145.080000
225.276291	145.020000
225.368942	145.480000
225.461594	146.000000
225.554245	146.300000
225.646912	146.380000
225.739578	146.700000
225.832230	147.100000
225.924896	146.120000
226.017548	146.300000
226.110199	147.160000
226.202866	146.580000
226.295532	146.300000
226.388184	146.320000
226.480850	145.700000
226.573517	145.000000
226.666168	145.280000
226.758835	145.900000
226.851501	146.260000
226.944183	146.620000
227.036850	146.280000
227.129517	145.860000
227.222183	145.580000
227.314850	145.680000
227.407516	145.920000
227.500198	146.660000
227.592865	146.640000
227.685532	146.080000
227.778214	146.160000
227.870880	146.160000
227.963562	146.480000
228.056229	147.080000
228.148926	147.020000
228.241592	147.460000
228.334274	147.080000
228.426956	146.640000
228.519638	146.380000
228.612305	146.140000
228.704987	145.720000
228.797668	146.300000
228.890350	146.000000
228.983032	145.220000
229.075714	146.220000
229.168396	145.960000
229.261108	145.300000
229.353790	145.320000
229.446472	146.020000
229.539169	145.580000
229.631851	145.520000
229.724533	145.900000
229.817230	146.300000
229.909912	147.200000
230.002609	147.040000
230.095306	147.380000
230.187988	147.100000
230.280685	146.980000
230.373383	146.000000
230.466095	145.980000
230.558792	146.040000
230.651474	146.020000
230.744171	145.960000
230.836868	146.020000
230.929581	146.500000
231.022278	146.320000
231.114975	146.640000
231.207672	146.340000
231.300369	146.340000
231.393082	146.260000
231.485779	146.080000
231.578506	145.760000
231.671204	145.920000
231.763916	145.980000
231.856613	145.860000
231.949326	146.520000
232.042023	146.700000
232.134735	146.860000
232.227448	146.700000
232.320160	146.800000
232.412872	146.660000
232.505585	147.220000
232.598297	147.200000
232.691010	147.160000
232.783722	146.880000
232.876450	147.120000
232.969162	146.440000
233.061874	146.100000
233.154587	145.980000
233.247314	146.220000
233.340027	145.720000
233.432739	146.240000
233.525467	146.380000
233.618179	147.140000
233.710907	147.080000
233.803635	147.500000
233.896347	147.340000
233.989090	147.920000
234.081818	147.360000
234.174545	147.480000
234.267258	146.840000
234.359985	146.620000
234.452713	146.260000
234.545441	146.200000
234.638168	145.820000
234.730896	146.420000
234.823639	146.520000
234.916367	146.920000
235.009094	146.940000
235.101822	147.260000
235.194580	147.040000
235.287308	147.000000
235.380051	146.180000
235.472778	146.420000
235.565521	146.700000
235.658249	146.220000
235.750992	146.420000
235.843719	146.800000
235.936462	147.220000
236.029205	146.700000
236.121948	146.440000
236.214691	146.440000
236.307449	146.740000
236.400192	145.960000
236.492935	145.780000
236.585678	146.280000
236.678421	146.420000
236.771164	146.380000
236.863907	147.060000
236.956665	147.300000
237.049408	148.480000
237.142151	147.960000
237.234909	148.540000
237.327652	148.460000
237.420410	148.300000
237.513153	147.340000
237.605927	147.160000
237.698669	146.360000
237.791428	145.900000
237.884186	146.480000
237.976944	146.040000
238.069702	146.620000
238.162445	146.400000
238.255203	146.320000
238.347961	146.340000
238.440720	146.580000
238.533478	146.180000
238.626266	146.100000
238.719025	146.760000
238.811783	146.460000
238.904541	146.240000
238.997314	145.900000
239.090073	145.840000
239.182831	145.480000
239.275604	146.180000
239.368362	145.880000
239.461136	146.420000
239.553909	146.340000
239.646667	146.160000
239.739441	145.440000
239.832214	145.860000
239.925003	145.780000
240.017761	146.440000
240.110535	146.900000
240.203308	146.600000
240.296082	146.800000
240.388855	146.860000
240.481628	146.800000
240.574417	146.860000
240.667191	147.240000
240.759964	146.680000
240.852737	146.820000
240.945526	146.380000
241.038315	145.780000
241.131088	145.780000
241.223877	146.400000
241.316650	145.820000
241.409439	146.180000
241.502228	146.080000
241.595001	146.500000
241.687790	146.080000
241.780579	146.340000
241.873367	146.420000
241.966141	146.800000
242.058929	146.160000
242.151718	146.360000
242.244507	146.720000
242.337311	146.040000
242.430099	146.400000
242.522903	146.600000
242.615692	146.460000
242.708481	146.480000
242.801270	146.920000
242.894073	146.860000
242.986862	146.560000
243.079651	147.200000
243.172455	146.920000
243.265244	147.080000
243.358063	146.380000
243.450867	147.120000
243.543655	146.680000
243.636459	146.920000
243.729263	147.300000
243.822067	147.740000
243.914856	148.160000
244.007660	148.100000
244.100464	147.640000
244.193268	146.840000
244.286072	146.600000
244.378876	145.560000
244.471680	145.180000
244.564499	145.880000
244.657318	146.600000
244.750122	146.860000
244.842926	146.560000
244.935745	147.160000
245.028549	146.400000
245.121368	146.020000
245.214172	145.940000
245.306992	146.420000
245.399796	146.160000
245.492615	146.540000
245.585434	146.440000
245.678253	146.320000
245.771072	146.260000
245.863892	146.840000
245.956711	146.720000
246.049530	146.480000
246.142349	146.420000
246.235168	146.460000
246.327988	146.380000
246.420807	146.440000
246.513626	146.640000
246.606445	146.460000
246.699280	146.420000
246.792099	145.980000
246.884918	145.500000
246.977753	145.100000
247.070587	145.600000
247.163422	145.580000
247.256241	145.640000
247.349075	146.220000
247.441895	146.340000
247.534729	146.140000
247.627563	145.760000
247.720383	146.180000
247.813217	146.060000
247.906052	145.980000
247.998886	145.980000
248.091736	146.280000
248.184570	146.040000
248.277405	146.120000
248.370239	147.400000
248.463074	148.120000
248.555908	148.280000
248.648743	148.060000
248.741592	147.940000
248.834427	146.860000
248.927261	145.860000
249.020111	146.080000
249.112946	146.560000
249.205795	146.380000
249.298630	146.540000
249.391495	146.640000
249.484344	146.420000
249.577179	146.480000
249.670029	146.840000
249.762878	147.500000
249.855728	147.560000
249.948563	147.380000
250.041412	146.660000
250.134262	146.860000
250.227112	146.800000
250.319962	146.780000
250.412827	146.760000
250.505692	146.440000
250.598541	146.040000
250.691391	145.320000
250.784241	145.440000
250.877106	145.580000
250.969955	145.680000
251.062805	146.660000
251.155670	147.580000
251.248520	147.460000
251.341385	147.720000
251.434235	147.920000
251.527100	147.000000
251.619965	146.180000
251.712814	146.980000
251.805695	146.700000
251.898560	146.860000
251.991425	147.200000
252.084290	147.800000
252.177155	146.820000
252.270020	146.760000
252.362885	146.860000
252.455750	146.700000
252.548615	146.100000
252.641479	146.260000
252.734360	146.100000
252.827240	145.900000
252.920105	146.000000
253.012970	145.760000
253.105850	145.860000
253.198715	145.980000
253.291595	145.880000
253.384460	145.660000
253.477341	145.840000
253.570221	145.780000
253.663086	145.440000
253.755966	146.160000
253.848846	145.820000
253.941727	146.160000
254.034592	146.260000
254.127472	145.960000
254.220367	145.520000
254.313248	145.860000
254.406128	145.340000
254.499008	145.660000
254.591904	146.740000
254.684784	147.580000
254.777664	147.720000
254.870544	147.900000
254.963440	147.560000
255.056335	147.540000
255.149216	146.600000
255.242111	146.800000
255.334991	147.080000
255.427887	147.040000
255.520767	146.600000
255.613663	147.000000
255.706558	146.240000
255.799438	145.900000
255.892334	145.780000
255.985229	145.740000
256.078125	145.460000
256.171021	145.920000
256.263916	146.560000
256.356812	146.700000
256.449707	146.920000
256.542603	146.700000
256.635498	147.220000
256.728394	146.820000
256.821289	146.480000
256.914215	146.620000
257.007080	146.940000
257.100006	146.400000
257.192932	146.640000
257.285828	147.000000
257.378723	146.680000
257.471619	146.460000
257.564545	146.220000
257.657440	146.280000
257.750336	146.440000
257.843262	146.300000
257.936157	147.180000
258.029053	147.360000
258.121979	147.300000
258.214874	147.240000
258.307800	147.200000
258.400696	146.420000
258.493622	146.620000
258.586517	145.860000
258.679443	145.960000
258.772339	145.340000
258.865265	145.160000
258.958160	144.460000
259.051086	145.380000
259.144012	145.340000
259.236938	146.620000
259.329834	146.740000
259.422791	147.060000
259.515717	146.420000
259.608612	145.980000
259.701538	145.900000
259.794464	145.960000
259.887390	146.100000
259.980316	145.780000
260.073212	145.880000
260.166138	145.000000
260.259064	145.140000
260.351990	145.680000
260.444916	146.080000
260.537842	146.560000
260.630768	147.340000
260.723694	147.300000
260.816620	146.740000
260.909546	146.700000
261.002472	146.040000
261.095398	145.380000
261.188354	145.340000
261.281281	145.080000
261.374207	144.840000
261.467133	145.760000
261.560089	146.280000
261.653015	146.060000
261.745972	146.900000
261.838867	147.580000
261.931824	147.260000
262.024780	146.740000
262.117706	146.920000
262.210663	146.780000
262.303589	146.540000
262.396515	146.700000
262.489471	147.460000
262.582397	147.520000
262.675354	147.000000
262.768280	147.080000
262.861237	146.880000
262.954163	146.680000
263.047119	146.720000
263.140045	146.600000
263.233002	146.340000
263.325958	146.180000
263.418884	145.900000
263.511841	145.740000
263.604797	146.000000
263.697723	146.180000
263.790680	145.960000
263.883636	146.360000
263.976593	146.160000
264.069550	146.240000
264.162476	145.980000
264.255463	146.320000
264.348419	145.860000
264.441376	146.180000
264.534332	145.640000
264.627289	145.580000
264.720245	145.740000
264.813202	145.420000
264.906158	145.580000
264.999115	146.300000
265.092072	146.340000
265.185028	146.680000
265.277985	147.160000
265.370941	146.740000
265.463898	146.420000
265.556854	146.220000
265.649811	145.380000
265.742798	145.280000
265.835754	145.660000
265.928711	146.320000
266.021667	146.520000
266.114655	146.940000
266.207611	147.380000
266.300568	146.660000
266.393585	145.880000
266.486511	146.160000
266.579498	145.460000
266.672485	144.920000
266.765442	145.360000
266.858429	145.780000
266.951385	145.320000
267.044342	145.760000
267.137329	145.760000
267.230316	146.120000
267.323273	145.540000
267.416260	146.420000
267.509216	146.080000
267.602203	146.100000
267.695160	146.280000
267.788147	146.600000
267.881134	145.800000
267.974091	146.320000
268.067078	146.180000
268.160065	145.780000
268.253052	145.760000
268.346008	146.060000
268.438995	145.640000
268.531982	146.080000
268.624969	146.000000
268.717987	146.280000
268.810944	146.040000
268.903961	146.220000
268.996948	145.860000
269.089905	146.060000
269.182892	145.940000
269.275879	146.420000
269.368866	146.280000
269.461853	146.420000
269.554871	146.360000
269.647858	146.380000
269.740845	146.380000
269.833832	146.920000
269.926819	146.720000
270.019806	146.740000
270.112793	146.240000
270.205811	146.120000
270.298798	145.820000
270.391785	146.520000
270.484772	146.060000
270.577789	146.520000
270.670776	146.160000
270.763763	145.760000
270.856750	145.520000
270.949768	145.520000
271.042786	145.320000
271.135773	145.520000
271.228790	146.080000
271.321808	145.500000
271.414795	145.340000
271.507782	145.080000
271.600800	144.880000
271.693817	144.800000
271.786804	145.760000
271.879822	146.060000
271.972809	146.180000
272.065826	146.560000
272.158844	146.200000
272.251831	146.220000
272.344849	146.760000
272.437866	146.540000
272.530853	146.740000
272.623871	147.040000
272.716888	145.880000
272.809906	145.780000
272.902893	146.100000
272.995911	145.500000
273.088928	145.260000
273.181946	145.900000
273.274963	145.460000
273.367981	145.480000
273.460999	145.900000
273.554047	146.460000
273.647003	146.980000
273.740051	147.100000
273.833069	147.240000
273.926086	147.300000
274.019135	146.840000
274.112152	146.200000
274.205170	146.180000
274.298187	146.380000
274.391205	145.840000
274.484222	146.200000
274.577240	146.320000
274.670258	146.060000
274.763306	145.860000
274.856323	146.580000
274.949341	146.460000
275.042358	146.480000
275.135406	146.760000
275.228424	146.900000
275.321442	146.660000
275.414490	146.080000
275.507507	146.600000
275.600525	147.180000
275.693573	146.820000
275.786591	146.480000
275.879669	146.880000
275.972656	146.600000
276.065735	146.140000
276.158752	146.640000
276.251801	147.320000
276.344818	147.580000
276.437866	147.340000
276.530884	147.180000
276.623932	146.360000
276.716980	146.200000
276.809998	146.040000
276.903046	146.340000
276.996094	147.020000
277.089111	148.040000
277.182159	148.380000
277.275208	147.960000
277.368256	147.960000
277.461304	147.580000
277.554321	146.480000
277.647369	146.160000
277.740417	146.260000
277.833466	146.040000
277.926514	145.820000
278.019562	146.780000
278.112610	146.180000
278.205688	146.720000
278.298706	146.620000
278.391785	146.700000
278.484833	145.820000
278.577881	145.880000
278.670929	145.960000
278.763977	146.180000
278.857025	146.200000
278.950073	146.240000
279.043121	146.300000
279.136169	146.000000
279.229248	145.540000
279.322296	145.720000
279.415344	146.000000
279.508392	145.840000
279.601440	146.020000
279.694519	146.040000
279.787567	145.400000
279.880615	145.300000
279.973694	145.360000
280.066742	145.160000
280.159790	145.340000
280.252869	145.600000
280.345917	145.600000
280.438995	145.580000
280.532074	145.660000
280.625122	146.080000
280.718201	147.000000
280.811279	147.320000
280.904327	147.500000
280.997406	147.980000
281.090454	147.900000
281.183533	146.980000
281.276581	146.880000
281.369659	146.720000
281.462738	146.160000
281.555786	146.200000
281.648865	146.460000
281.741943	146.360000
281.835022	147.120000
281.928070	146.880000
282.021149	146.600000
282.114227	146.580000
282.207306	146.540000
282.300385	146.500000
282.393433	147.000000
282.486511	147.080000
282.579590	147.340000
282.672668	147.640000
282.765747	146.640000
282.858856	145.940000
282.951904	146.300000
283.045013	146.080000
283.138062	146.000000
283.231171	146.520000
283.324249	147.260000
283.417328	147.040000
283.510406	146.960000
283.603485	147.020000
283.696564	146.800000
283.789642	146.880000
283.882751	146.500000
283.975830	147.000000
284.068909	146.820000
284.161987	147.640000
284.255066	146.860000
284.348175	147.160000
284.441254	146.760000
284.534332	146.800000
284.627441	146.320000
284.720520	146.200000
284.813599	146.020000
284.906708	146.180000
284.999786	145.840000
285.092896	145.480000
285.185974	146.440000
285.279053	146.200000
285.372192	146.080000
285.465240	146.780000
285.558380	146.740000
285.651459	146.520000
285.744568	147.460000
285.837677	147.060000
285.930756	146.640000
286.023865	146.700000
286.116943	146.400000
286.210052	146.160000
286.303162	146.460000
286.396240	146.460000
286.489349	146.640000
286.582458	146.980000
286.675568	146.300000
286.768646	146.200000
286.861755	146.740000
286.954865	147.080000
287.047974	146.260000
287.141083	146.400000
287.234161	146.080000
287.327271	145.720000
287.420380	146.120000
287.513519	146.440000
287.606598	146.380000
287.699738	146.960000
287.792816	146.960000
287.885956	146.280000
287.979034	146.580000
288.072174	146.800000
288.165283	146.540000
288.258392	146.500000
288.351501	146.360000
288.444611	146.320000
288.537720	146.880000
288.630859	146.760000
288.723969	147.020000
288.817078	147.300000
288.910187	147.200000
289.003296	146.500000
289.096436	145.980000
289.189545	145.340000
289.282654	144.880000
289.375763	145.340000
289.468903	145.620000
289.562012	146.080000
289.655121	146.440000
289.748260	146.560000
289.841400	146.520000
289.934509	146.160000
290.027649	146.440000
290.120728	146.380000
290.213898	146.640000
290.306976	146.240000
290.400146	146.680000
290.493256	146.260000
290.586395	146.320000
290.679535	146.340000
290.772644	146.340000
290.865784	145.520000
290.958893	145.760000
291.052032	145.700000
291.145172	145.520000
291.238281	145.260000
291.331421	145.680000
291.424561	146.200000
291.517670	146.000000
291.610809	146.220000
291.703949	146.320000
291.797089	146.340000
291.890228	145.760000
291.983337	145.960000
292.076477	145.840000
292.169617	146.040000
292.262756	146.360000
292.355927	146.240000
292.449036	146.120000
292.542206	146.060000
292.635315	145.980000
292.728485	146.000000
292.821625	145.780000
292.914764	146.420000
293.007904	146.640000
293.101044	146.520000
293.194183	146.200000
293.287323	146.580000
293.380463	146.060000
293.473602	145.980000
293.566742	146.600000
293.659882	147.400000
293.753021	147.360000
293.846191	147.520000
293.939331	147.300000
294.032471	146.820000
294.125610	146.080000
294.218781	146.560000
294.311920	146.800000
294.405060	147.020000
294.498230	147.020000
294.591370	147.180000
294.684540	146.460000
294.777679	145.720000
294.870850	146.000000
294.963959	145.900000
295.057159	145.660000
295.150299	146.000000
295.243469	146.220000
295.336609	145.400000
295.429779	145.640000
295.522919	145.920000
295.616089	145.640000
295.709229	145.860000
295.802399	146.020000
295.895569	145.860000
295.988708	145.940000
296.081879	146.500000
296.175018	146.340000
296.268188	146.600000
296.361359	146.880000
296.454529	146.840000
296.547668	146.360000
296.640839	146.700000
296.734009	146.400000
296.827179	146.300000
296.920319	146.360000
297.013519	146.360000
297.106659	146.440000
297.199860	146.560000
297.292999	146.580000
297.386200	146.160000
297.479309	146.280000
297.572510	145.960000
297.665680	145.960000
297.758850	146.140000
297.852020	146.160000
297.945190	146.020000
298.038361	145.740000
298.131531	146.580000
298.224701	145.980000
298.317871	146.160000
298.411072	145.860000
298.504242	145.840000
298.597412	145.200000
298.690582	145.580000
298.783752	145.320000
298.876923	145.780000
298.970093	146.080000
299.063293	146.400000
299.156464	146.840000
299.249634	147.280000
299.342834	147.460000
299.436005	147.700000
299.529205	147.480000
299.622345	147.140000
299.715576	146.640000
299.808716	146.480000
299.901917	146.420000
299.995117	146.620000
300.088287	146.640000
300.181488	146.700000
300.274658	146.580000
300.367828	146.380000
300.461029	146.060000
300.554199	146.420000
300.647400	146.320000
300.740601	146.640000
300.833771	146.860000
300.926971	147.180000
301.020142	146.300000
301.113342	146.580000
301.206512	146.640000
301.299713	146.660000
301.392914	146.680000
301.486084	147.300000
301.579285	147.060000
301.672516	147.200000
301.765686	146.800000
301.858887	146.580000
301.952057	146.520000
302.045288	146.600000
302.138458	146.340000
302.231659	146.160000
302.324860	146.160000
302.418060	146.060000
302.511261	145.980000
302.604462	146.220000
302.697662	146.360000
302.790863	145.960000
302.884064	145.660000
302.977264	145.860000
303.070465	145.940000
303.163666	146.300000
303.256866	146.900000
303.350067	147.340000
303.443268	147.040000
303.536469	146.880000
303.629669	146.600000
303.722870	146.660000
303.816071	146.240000
303.909271	146.400000
304.002472	145.800000
304.095673	145.520000
304.188934	144.940000
304.282104	145.820000
304.375336	145.760000
304.468506	145.780000
304.561768	145.940000
304.654968	146.420000
304.748169	145.700000
304.841370	145.540000
304.934601	146.140000
305.027802	146.100000
305.121002	145.600000
305.214233	145.640000
305.307434	146.020000
305.400665	146.600000
305.493866	146.300000
