Model Number: SPM-002-B   
Serial Number: 70087108
Firmware Version: 004.15.4
Exposure Time: 100000.000000us
Data Taken on: 11-12-2020 19:39:22.122
Wavelength	Amplitude
221.570786	0.000000
221.663406	0.000000
221.756027	0.000000
221.848648	0.000000
221.941269	0.000000
222.033905	0.000000
222.126526	0.000000
222.219162	0.000000
222.311798	0.000000
222.404419	0.000000
222.497055	0.000000
222.589676	0.000000
222.682312	0.000000
222.774933	0.000000
222.867569	0.000000
222.960205	0.000000
223.052841	0.000000
223.145462	0.000000
223.238098	0.000000
223.330734	0.000000
223.423386	0.000000
223.516022	0.000000
223.608658	0.000000
223.701309	0.000000
223.793945	0.000000
223.886581	0.000000
223.979218	0.000000
224.071869	0.000000
224.164505	0.000000
224.257156	0.000000
224.349792	0.000000
224.442444	0.000000
224.535095	0.000000
224.627747	0.000000
224.720398	0.000000
224.813034	0.000000
224.905685	0.000000
224.998337	145.540000
225.090988	144.900000
225.183640	144.820000
225.276291	144.460000
225.368942	145.080000
225.461594	145.840000
225.554245	146.500000
225.646912	146.340000
225.739578	147.340000
225.832230	147.440000
225.924896	146.280000
226.017548	146.560000
226.110199	147.240000
226.202866	146.160000
226.295532	146.100000
226.388184	146.260000
226.480850	145.540000
226.573517	144.740000
226.666168	145.140000
226.758835	145.300000
226.851501	146.120000
226.944183	146.340000
227.036850	146.120000
227.129517	146.320000
227.222183	146.240000
227.314850	145.900000
227.407516	146.320000
227.500198	147.080000
227.592865	146.440000
227.685532	146.100000
227.778214	145.760000
227.870880	145.540000
227.963562	145.840000
228.056229	146.560000
228.148926	146.700000
228.241592	147.760000
228.334274	147.520000
228.426956	146.980000
228.519638	146.960000
228.612305	146.640000
228.704987	146.140000
228.797668	146.160000
228.890350	145.980000
228.983032	145.220000
229.075714	145.940000
229.168396	145.740000
229.261108	145.440000
229.353790	145.800000
229.446472	146.380000
229.539169	146.040000
229.631851	145.560000
229.724533	145.960000
229.817230	145.920000
229.909912	146.580000
230.002609	146.560000
230.095306	146.820000
230.187988	146.720000
230.280685	146.500000
230.373383	145.500000
230.466095	145.240000
230.558792	145.680000
230.651474	145.760000
230.744171	145.840000
230.836868	145.820000
230.929581	146.200000
231.022278	145.860000
231.114975	145.800000
231.207672	145.360000
231.300369	145.880000
231.393082	146.000000
231.485779	145.940000
231.578506	145.940000
231.671204	146.260000
231.763916	146.260000
231.856613	145.940000
231.949326	146.280000
232.042023	146.080000
232.134735	146.000000
232.227448	145.360000
232.320160	145.700000
232.412872	145.560000
232.505585	146.440000
232.598297	147.180000
232.691010	147.500000
232.783722	147.040000
232.876450	147.520000
232.969162	147.060000
233.061874	146.160000
233.154587	145.900000
233.247314	146.160000
233.340027	145.600000
233.432739	145.840000
233.525467	145.780000
233.618179	146.320000
233.710907	145.980000
233.803635	146.440000
233.896347	146.180000
233.989090	147.140000
234.081818	147.040000
234.174545	147.460000
234.267258	146.780000
234.359985	146.780000
234.452713	146.240000
234.545441	145.860000
234.638168	145.420000
234.730896	145.980000
234.823639	146.160000
234.916367	146.560000
235.009094	147.000000
235.101822	147.100000
235.194580	146.800000
235.287308	146.460000
235.380051	145.540000
235.472778	145.680000
235.565521	146.120000
235.658249	145.840000
235.750992	146.100000
235.843719	146.460000
235.936462	146.080000
236.029205	145.820000
236.121948	145.680000
236.214691	145.820000
236.307449	146.460000
236.400192	146.340000
236.492935	146.260000
236.585678	146.740000
236.678421	146.580000
236.771164	146.220000
236.863907	146.940000
236.956665	146.940000
237.049408	148.280000
237.142151	147.880000
237.234909	148.400000
237.327652	148.140000
237.420410	148.140000
237.513153	147.040000
237.605927	147.060000
237.698669	146.240000
237.791428	145.620000
237.884186	146.140000
237.976944	145.400000
238.069702	145.820000
238.162445	145.700000
238.255203	145.880000
238.347961	145.660000
238.440720	145.820000
238.533478	145.580000
238.626266	145.620000
238.719025	145.980000
238.811783	145.640000
238.904541	145.600000
238.997314	145.320000
239.090073	145.140000
239.182831	145.180000
239.275604	146.060000
239.368362	145.980000
239.461136	146.140000
239.553909	146.100000
239.646667	145.720000
239.739441	145.200000
239.832214	145.620000
239.925003	145.900000
240.017761	146.500000
240.110535	147.020000
240.203308	146.640000
240.296082	146.800000
240.388855	146.600000
240.481628	146.640000
240.574417	146.700000
240.667191	147.100000
240.759964	146.560000
240.852737	146.460000
240.945526	145.940000
241.038315	145.560000
241.131088	145.180000
241.223877	145.500000
241.316650	145.300000
241.409439	145.680000
241.502228	145.280000
241.595001	145.720000
241.687790	145.600000
241.780579	145.740000
241.873367	145.780000
241.966141	146.280000
242.058929	145.700000
242.151718	145.960000
242.244507	146.240000
242.337311	145.780000
242.430099	146.360000
242.522903	146.920000
242.615692	146.580000
242.708481	146.540000
242.801270	147.140000
242.894073	146.720000
242.986862	146.620000
243.079651	147.320000
243.172455	146.960000
243.265244	146.900000
243.358063	146.680000
243.450867	147.120000
243.543655	146.880000
243.636459	147.240000
243.729263	147.500000
243.822067	147.360000
243.914856	147.360000
244.007660	147.340000
244.100464	147.100000
244.193268	146.580000
244.286072	146.800000
244.378876	146.060000
244.471680	145.800000
244.564499	146.380000
244.657318	147.040000
244.750122	146.960000
244.842926	146.780000
244.935745	147.040000
245.028549	146.440000
245.121368	146.060000
245.214172	146.020000
245.306992	146.320000
245.399796	145.760000
245.492615	145.940000
245.585434	145.720000
245.678253	145.780000
245.771072	145.780000
245.863892	146.500000
245.956711	146.840000
246.049530	146.840000
246.142349	146.820000
246.235168	147.060000
246.327988	147.100000
246.420807	146.620000
246.513626	146.680000
246.606445	146.400000
246.699280	146.280000
246.792099	145.940000
246.884918	145.800000
246.977753	145.660000
247.070587	146.280000
247.163422	146.160000
247.256241	146.140000
247.349075	146.640000
247.441895	146.580000
247.534729	146.120000
247.627563	146.100000
247.720383	146.620000
247.813217	146.160000
247.906052	146.240000
247.998886	146.480000
248.091736	146.500000
248.184570	145.940000
248.277405	146.440000
248.370239	147.180000
248.463074	147.820000
248.555908	148.220000
248.648743	148.260000
248.741592	148.160000
248.834427	147.640000
248.927261	146.660000
249.020111	147.080000
249.112946	147.740000
249.205795	147.380000
249.298630	147.380000
249.391495	147.660000
249.484344	146.960000
249.577179	146.820000
249.670029	147.140000
249.762878	147.480000
249.855728	147.580000
249.948563	147.620000
250.041412	146.960000
250.134262	147.360000
250.227112	147.440000
250.319962	147.120000
250.412827	147.080000
250.505692	146.840000
250.598541	146.600000
250.691391	146.040000
250.784241	146.100000
250.877106	146.360000
250.969955	146.400000
251.062805	146.600000
251.155670	147.060000
251.248520	146.820000
251.341385	146.820000
251.434235	146.900000
251.527100	146.660000
251.619965	146.120000
251.712814	147.120000
251.805695	147.100000
251.898560	147.340000
251.991425	147.280000
252.084290	147.620000
252.177155	146.800000
252.270020	146.280000
252.362885	146.240000
252.455750	146.180000
252.548615	145.580000
252.641479	145.580000
252.734360	145.440000
252.827240	145.300000
252.920105	145.400000
253.012970	145.660000
253.105850	145.620000
253.198715	145.700000
253.291595	145.980000
253.384460	145.480000
253.477341	145.440000
253.570221	145.720000
253.663086	145.720000
253.755966	146.300000
253.848846	146.620000
253.941727	146.700000
254.034592	146.360000
254.127472	146.080000
254.220367	145.500000
254.313248	145.660000
254.406128	145.320000
254.499008	145.580000
254.591904	146.400000
254.684784	146.940000
254.777664	146.960000
254.870544	146.880000
254.963440	146.920000
255.056335	146.820000
255.149216	146.180000
255.242111	146.560000
255.334991	146.800000
255.427887	146.700000
255.520767	146.600000
255.613663	146.880000
255.706558	145.880000
255.799438	145.800000
255.892334	145.420000
255.985229	145.520000
256.078125	145.320000
256.171021	145.760000
256.263916	146.200000
256.356812	146.640000
256.449707	146.660000
256.542603	146.340000
256.635498	147.080000
256.728394	146.720000
256.821289	146.380000
256.914215	146.360000
257.007080	146.760000
257.100006	146.480000
257.192932	147.200000
257.285828	147.740000
257.378723	147.300000
257.471619	147.140000
257.564545	146.320000
257.657440	146.100000
257.750336	146.220000
257.843262	146.320000
257.936157	147.260000
258.029053	148.100000
258.121979	147.860000
258.214874	147.600000
258.307800	147.600000
258.400696	146.520000
258.493622	146.320000
258.586517	145.680000
258.679443	145.700000
258.772339	145.420000
258.865265	145.400000
258.958160	144.820000
259.051086	145.760000
259.144012	145.460000
259.236938	146.340000
259.329834	146.860000
259.422791	147.060000
259.515717	146.380000
259.608612	146.320000
259.701538	146.120000
259.794464	145.640000
259.887390	145.460000
259.980316	145.560000
260.073212	145.540000
260.166138	144.980000
260.259064	145.600000
260.351990	146.460000
260.444916	146.780000
260.537842	147.340000
260.630768	147.840000
260.723694	147.420000
260.816620	146.940000
260.909546	146.640000
261.002472	146.020000
261.095398	145.420000
261.188354	145.360000
261.281281	144.960000
261.374207	145.340000
261.467133	146.040000
261.560089	146.560000
261.653015	146.520000
261.745972	147.300000
261.838867	147.340000
261.931824	147.440000
262.024780	146.900000
262.117706	147.100000
262.210663	147.080000
262.303589	147.040000
262.396515	147.080000
262.489471	147.980000
262.582397	147.760000
262.675354	147.060000
262.768280	146.840000
262.861237	146.540000
262.954163	146.140000
263.047119	146.320000
263.140045	146.620000
263.233002	146.680000
263.325958	146.560000
263.418884	146.400000
263.511841	146.380000
263.604797	146.220000
263.697723	146.200000
263.790680	146.220000
263.883636	146.880000
263.976593	146.680000
264.069550	146.780000
264.162476	146.540000
264.255463	146.560000
264.348419	145.880000
264.441376	146.220000
264.534332	145.720000
264.627289	146.040000
264.720245	146.800000
264.813202	146.420000
264.906158	146.340000
264.999115	147.040000
265.092072	146.780000
265.185028	146.640000
265.277985	147.400000
265.370941	147.280000
265.463898	147.120000
265.556854	146.980000
265.649811	145.840000
265.742798	145.700000
265.835754	145.760000
265.928711	145.920000
266.021667	146.060000
266.114655	146.800000
266.207611	146.720000
266.300568	146.420000
266.393585	146.120000
266.486511	146.420000
266.579498	145.540000
266.672485	145.240000
266.765442	145.000000
266.858429	145.440000
266.951385	145.080000
267.044342	145.440000
267.137329	145.460000
267.230316	146.000000
267.323273	145.460000
267.416260	146.040000
267.509216	145.960000
267.602203	145.780000
267.695160	145.800000
267.788147	146.080000
267.881134	145.440000
267.974091	145.920000
268.067078	146.180000
268.160065	146.140000
268.253052	145.880000
268.346008	146.280000
268.438995	145.960000
268.531982	145.920000
268.624969	145.620000
268.717987	146.180000
268.810944	145.860000
268.903961	146.040000
268.996948	146.020000
269.089905	146.720000
269.182892	146.480000
269.275879	147.080000
269.368866	146.520000
269.461853	146.720000
269.554871	146.280000
269.647858	146.000000
269.740845	146.160000
269.833832	146.760000
269.926819	146.420000
270.019806	146.400000
270.112793	146.260000
270.205811	145.880000
270.298798	145.700000
270.391785	146.480000
270.484772	146.360000
270.577789	146.840000
270.670776	146.520000
270.763763	146.540000
270.856750	146.380000
270.949768	146.080000
271.042786	146.020000
271.135773	146.240000
271.228790	146.660000
271.321808	146.200000
271.414795	146.140000
271.507782	145.600000
271.600800	145.080000
271.693817	144.960000
271.786804	145.360000
271.879822	145.680000
271.972809	145.960000
272.065826	146.780000
272.158844	146.500000
272.251831	147.100000
272.344849	147.280000
272.437866	146.900000
272.530853	146.740000
272.623871	146.780000
272.716888	145.340000
272.809906	145.540000
272.902893	145.560000
272.995911	144.860000
273.088928	144.920000
273.181946	145.440000
273.274963	144.880000
273.367981	145.180000
273.460999	145.600000
273.554047	145.680000
273.647003	146.060000
273.740051	146.420000
273.833069	146.860000
273.926086	146.980000
274.019135	146.920000
274.112152	146.640000
274.205170	146.700000
274.298187	146.760000
274.391205	146.520000
274.484222	146.500000
274.577240	146.520000
274.670258	146.040000
274.763306	145.540000
274.856323	145.840000
274.949341	145.800000
275.042358	146.140000
275.135406	146.080000
275.228424	146.180000
275.321442	146.120000
275.414490	146.060000
275.507507	146.120000
275.600525	146.840000
275.693573	146.700000
275.786591	146.240000
275.879669	146.440000
275.972656	145.900000
276.065735	145.620000
276.158752	146.020000
276.251801	146.780000
276.344818	146.640000
276.437866	147.000000
276.530884	146.680000
276.623932	146.080000
276.716980	146.240000
276.809998	145.940000
276.903046	145.900000
276.996094	147.000000
277.089111	147.760000
277.182159	147.840000
277.275208	148.220000
277.368256	147.980000
277.461304	147.180000
277.554321	146.440000
277.647369	146.100000
277.740417	145.960000
277.833466	146.040000
277.926514	145.880000
278.019562	146.660000
278.112610	146.100000
278.205688	146.220000
278.298706	146.380000
278.391785	146.520000
278.484833	145.760000
278.577881	145.900000
278.670929	146.260000
278.763977	146.400000
278.857025	146.600000
278.950073	147.000000
279.043121	146.820000
279.136169	146.600000
279.229248	146.160000
279.322296	146.320000
279.415344	145.920000
279.508392	145.920000
279.601440	145.800000
279.694519	145.560000
279.787567	145.160000
279.880615	145.100000
279.973694	145.180000
280.066742	145.280000
280.159790	145.740000
280.252869	145.740000
280.345917	146.200000
280.438995	146.340000
280.532074	146.120000
280.625122	146.440000
280.718201	147.180000
280.811279	147.080000
280.904327	147.360000
280.997406	147.620000
281.090454	147.520000
281.183533	146.820000
281.276581	146.740000
281.369659	146.200000
281.462738	146.360000
281.555786	146.420000
281.648865	146.500000
281.741943	146.360000
281.835022	146.900000
281.928070	146.140000
282.021149	145.700000
282.114227	145.440000
282.207306	145.560000
282.300385	145.760000
282.393433	146.100000
282.486511	146.100000
282.579590	146.720000
282.672668	147.020000
282.765747	146.120000
282.858856	145.760000
282.951904	146.080000
283.045013	146.180000
283.138062	146.280000
283.231171	147.160000
283.324249	147.760000
283.417328	147.740000
283.510406	147.220000
283.603485	146.940000
283.696564	146.640000
283.789642	146.480000
283.882751	146.020000
283.975830	146.580000
284.068909	146.300000
284.161987	146.700000
284.255066	146.520000
284.348175	147.100000
284.441254	146.980000
284.534332	147.560000
284.627441	146.920000
284.720520	146.840000
284.813599	146.740000
284.906708	146.680000
284.999786	146.080000
285.092896	146.080000
285.185974	147.160000
285.279053	146.640000
285.372192	146.720000
285.465240	147.500000
285.558380	147.460000
285.651459	146.580000
285.744568	147.560000
285.837677	147.040000
285.930756	146.640000
286.023865	146.880000
286.116943	146.580000
286.210052	146.500000
286.303162	146.680000
286.396240	146.540000
286.489349	146.440000
286.582458	146.900000
286.675568	146.420000
286.768646	146.540000
286.861755	146.920000
286.954865	147.680000
287.047974	147.300000
287.141083	146.680000
287.234161	146.360000
287.327271	146.540000
287.420380	146.400000
287.513519	146.300000
287.606598	146.700000
287.699738	147.020000
287.792816	146.340000
287.885956	146.000000
287.979034	146.280000
288.072174	146.600000
288.165283	146.420000
288.258392	146.860000
288.351501	146.240000
288.444611	146.500000
288.537720	146.820000
288.630859	146.700000
288.723969	146.800000
288.817078	147.180000
288.910187	146.680000
289.003296	145.600000
289.096436	145.500000
289.189545	145.180000
289.282654	144.960000
289.375763	145.800000
289.468903	146.640000
289.562012	147.080000
289.655121	146.840000
289.748260	146.920000
289.841400	146.880000
289.934509	146.800000
290.027649	146.680000
290.120728	146.840000
290.213898	146.800000
290.306976	146.340000
290.400146	146.140000
290.493256	145.760000
290.586395	146.000000
290.679535	146.680000
290.772644	146.740000
290.865784	146.000000
290.958893	146.120000
291.052032	146.060000
291.145172	145.560000
291.238281	145.240000
291.331421	146.060000
291.424561	146.440000
291.517670	146.060000
291.610809	146.380000
291.703949	146.360000
291.797089	146.400000
291.890228	145.960000
291.983337	146.220000
292.076477	146.120000
292.169617	146.380000
292.262756	146.240000
292.355927	146.380000
292.449036	146.120000
292.542206	146.180000
292.635315	146.280000
292.728485	146.640000
292.821625	146.240000
292.914764	147.340000
293.007904	147.320000
293.101044	147.300000
293.194183	146.920000
293.287323	147.260000
293.380463	146.560000
293.473602	146.360000
293.566742	146.400000
293.659882	146.800000
293.753021	146.840000
293.846191	146.380000
293.939331	145.900000
294.032471	145.660000
294.125610	144.900000
294.218781	145.220000
294.311920	145.760000
294.405060	146.400000
294.498230	146.380000
294.591370	146.740000
294.684540	146.000000
294.777679	145.600000
294.870850	145.800000
294.963959	145.700000
295.057159	145.400000
295.150299	145.860000
295.243469	145.940000
295.336609	145.080000
295.429779	145.220000
295.522919	145.880000
295.616089	145.600000
295.709229	146.120000
295.802399	146.380000
295.895569	146.160000
295.988708	145.760000
296.081879	146.260000
296.175018	145.940000
296.268188	146.320000
296.361359	146.900000
296.454529	147.080000
296.547668	146.980000
296.640839	146.900000
296.734009	146.680000
296.827179	146.440000
296.920319	146.800000
297.013519	146.240000
297.106659	146.580000
297.199860	146.700000
297.292999	146.680000
297.386200	146.400000
297.479309	146.580000
297.572510	146.180000
297.665680	145.880000
297.758850	145.760000
297.852020	145.420000
297.945190	145.520000
298.038361	145.400000
298.131531	146.180000
298.224701	146.220000
298.317871	146.140000
298.411072	145.620000
298.504242	145.360000
298.597412	144.760000
298.690582	144.840000
298.783752	145.200000
298.876923	145.780000
298.970093	146.100000
299.063293	146.420000
299.156464	146.680000
299.249634	146.700000
299.342834	147.020000
299.436005	147.220000
299.529205	147.020000
299.622345	146.980000
299.715576	146.340000
299.808716	145.980000
299.901917	145.900000
299.995117	146.300000
300.088287	146.340000
300.181488	146.380000
300.274658	146.180000
300.367828	146.180000
300.461029	145.960000
300.554199	146.200000
300.647400	146.460000
300.740601	147.420000
300.833771	147.100000
300.926971	147.000000
301.020142	146.040000
301.113342	145.920000
301.206512	145.000000
301.299713	145.360000
301.392914	145.280000
301.486084	145.880000
301.579285	146.160000
301.672516	146.780000
301.765686	146.780000
301.858887	146.980000
301.952057	146.940000
302.045288	146.800000
302.138458	146.440000
302.231659	146.060000
302.324860	145.960000
302.418060	145.580000
302.511261	145.400000
302.604462	145.840000
302.697662	145.580000
302.790863	145.480000
302.884064	145.400000
302.977264	145.800000
303.070465	145.840000
303.163666	146.880000
303.256866	147.000000
303.350067	147.320000
303.443268	147.200000
303.536469	147.280000
303.629669	146.600000
303.722870	146.560000
303.816071	146.080000
303.909271	145.820000
304.002472	144.780000
304.095673	144.820000
304.188934	144.200000
304.282104	145.460000
304.375336	145.460000
304.468506	145.740000
304.561768	145.720000
304.654968	146.580000
304.748169	145.840000
304.841370	145.700000
304.934601	146.080000
305.027802	145.960000
305.121002	145.520000
305.214233	145.560000
305.307434	145.660000
305.400665	146.020000
305.493866	145.920000
