Model Number: SPM-002-B   
Serial Number: 70087108
Firmware Version: 004.15.4
Exposure Time: 100000.000000us
Data Taken on: 11-12-2020 19:39:33.224
Wavelength	Amplitude
221.570786	0.000000
221.663406	0.000000
221.756027	0.000000
221.848648	0.000000
221.941269	0.000000
222.033905	0.000000
222.126526	0.000000
222.219162	0.000000
222.311798	0.000000
222.404419	0.000000
222.497055	0.000000
222.589676	0.000000
222.682312	0.000000
222.774933	0.000000
222.867569	0.000000
222.960205	0.000000
223.052841	0.000000
223.145462	0.000000
223.238098	0.000000
223.330734	0.000000
223.423386	0.000000
223.516022	0.000000
223.608658	0.000000
223.701309	0.000000
223.793945	0.000000
223.886581	0.000000
223.979218	0.000000
224.071869	0.000000
224.164505	0.000000
224.257156	0.000000
224.349792	0.000000
224.442444	0.000000
224.535095	0.000000
224.627747	0.000000
224.720398	0.000000
224.813034	0.000000
224.905685	0.000000
224.998337	145.900000
225.090988	145.620000
225.183640	145.280000
225.276291	144.980000
225.368942	145.240000
225.461594	145.420000
225.554245	145.660000
225.646912	145.960000
225.739578	146.460000
225.832230	146.760000
225.924896	146.120000
226.017548	146.580000
226.110199	146.940000
226.202866	146.180000
226.295532	145.880000
226.388184	146.080000
226.480850	145.320000
226.573517	145.040000
226.666168	145.720000
226.758835	146.100000
226.851501	146.560000
226.944183	146.880000
227.036850	146.180000
227.129517	146.300000
227.222183	146.360000
227.314850	146.160000
227.407516	146.520000
227.500198	147.780000
227.592865	147.220000
227.685532	146.720000
227.778214	146.800000
227.870880	146.820000
227.963562	147.040000
228.056229	147.400000
228.148926	147.480000
228.241592	147.800000
228.334274	147.620000
228.426956	146.660000
228.519638	146.840000
228.612305	146.440000
228.704987	146.240000
228.797668	145.900000
228.890350	146.060000
228.983032	145.240000
229.075714	146.180000
229.168396	145.700000
229.261108	145.440000
229.353790	145.060000
229.446472	145.380000
229.539169	144.960000
229.631851	144.440000
229.724533	145.080000
229.817230	145.780000
229.909912	146.760000
230.002609	146.660000
230.095306	147.300000
230.187988	146.900000
230.280685	146.400000
230.373383	145.260000
230.466095	145.200000
230.558792	145.560000
230.651474	145.600000
230.744171	145.600000
230.836868	145.820000
230.929581	146.040000
231.022278	145.640000
231.114975	145.940000
231.207672	145.740000
231.300369	146.020000
231.393082	146.240000
231.485779	146.160000
231.578506	146.080000
231.671204	146.440000
231.763916	146.400000
231.856613	146.200000
231.949326	146.560000
232.042023	146.460000
232.134735	146.260000
232.227448	146.080000
232.320160	146.440000
232.412872	146.460000
232.505585	147.360000
232.598297	147.800000
232.691010	147.440000
232.783722	146.740000
232.876450	147.260000
232.969162	146.460000
233.061874	146.020000
233.154587	146.160000
233.247314	146.720000
233.340027	145.900000
233.432739	146.360000
233.525467	146.200000
233.618179	146.580000
233.710907	146.000000
233.803635	146.540000
233.896347	146.100000
233.989090	146.840000
234.081818	146.520000
234.174545	146.560000
234.267258	145.980000
234.359985	146.140000
234.452713	145.740000
234.545441	145.580000
234.638168	145.420000
234.730896	145.820000
234.823639	145.580000
234.916367	145.820000
235.009094	146.280000
235.101822	146.460000
235.194580	146.040000
235.287308	146.040000
235.380051	145.500000
235.472778	145.580000
235.565521	146.000000
235.658249	145.960000
235.750992	146.160000
235.843719	146.260000
235.936462	146.040000
236.029205	145.520000
236.121948	145.380000
236.214691	145.580000
236.307449	146.260000
236.400192	145.840000
236.492935	145.680000
236.585678	145.860000
236.678421	145.500000
236.771164	145.120000
236.863907	145.920000
236.956665	146.280000
237.049408	147.640000
237.142151	147.440000
237.234909	148.100000
237.327652	147.960000
237.420410	147.720000
237.513153	146.680000
237.605927	146.620000
237.698669	145.840000
237.791428	145.240000
237.884186	146.000000
237.976944	145.340000
238.069702	145.520000
238.162445	145.300000
238.255203	145.760000
238.347961	145.740000
238.440720	146.000000
238.533478	145.920000
238.626266	146.120000
238.719025	146.180000
238.811783	146.000000
238.904541	146.220000
238.997314	146.400000
239.090073	146.020000
239.182831	146.160000
239.275604	146.780000
239.368362	146.520000
239.461136	146.660000
239.553909	146.640000
239.646667	146.140000
239.739441	145.600000
239.832214	145.960000
239.925003	146.020000
240.017761	146.780000
240.110535	147.340000
240.203308	146.900000
240.296082	146.860000
240.388855	146.600000
240.481628	146.540000
240.574417	146.460000
240.667191	146.700000
240.759964	146.460000
240.852737	146.580000
240.945526	145.900000
241.038315	145.720000
241.131088	146.000000
241.223877	146.100000
241.316650	145.700000
241.409439	145.920000
241.502228	145.880000
241.595001	146.160000
241.687790	146.060000
241.780579	146.360000
241.873367	146.940000
241.966141	146.960000
242.058929	145.940000
242.151718	146.380000
242.244507	146.680000
242.337311	145.860000
242.430099	146.400000
242.522903	146.900000
242.615692	146.280000
242.708481	146.240000
242.801270	146.840000
242.894073	146.380000
242.986862	146.460000
243.079651	147.500000
243.172455	147.100000
243.265244	146.820000
243.358063	146.120000
243.450867	146.260000
243.543655	145.420000
243.636459	145.660000
243.729263	146.280000
243.822067	147.140000
243.914856	147.280000
244.007660	147.580000
244.100464	147.260000
244.193268	146.500000
244.286072	146.020000
244.378876	145.520000
244.471680	145.240000
244.564499	145.620000
244.657318	146.280000
244.750122	146.820000
244.842926	146.560000
244.935745	146.960000
245.028549	146.300000
245.121368	145.960000
245.214172	146.040000
245.306992	146.460000
245.399796	145.720000
245.492615	146.080000
245.585434	145.880000
245.678253	145.320000
245.771072	144.880000
245.863892	145.860000
245.956711	146.080000
246.049530	145.960000
246.142349	145.720000
246.235168	146.060000
246.327988	146.200000
246.420807	145.940000
246.513626	145.920000
246.606445	145.860000
246.699280	145.960000
246.792099	145.400000
246.884918	145.060000
246.977753	145.180000
247.070587	145.560000
247.163422	145.560000
247.256241	145.300000
247.349075	146.040000
247.441895	145.980000
247.534729	145.740000
247.627563	145.280000
247.720383	145.980000
247.813217	145.580000
247.906052	145.720000
247.998886	145.680000
248.091736	145.680000
248.184570	145.320000
248.277405	145.440000
248.370239	146.180000
248.463074	147.220000
248.555908	147.600000
248.648743	147.400000
248.741592	147.520000
248.834427	146.620000
248.927261	145.580000
249.020111	145.680000
249.112946	146.660000
249.205795	146.340000
249.298630	146.900000
249.391495	147.080000
249.484344	146.860000
249.577179	146.220000
249.670029	146.200000
249.762878	146.200000
249.855728	146.460000
249.948563	146.440000
250.041412	145.860000
250.134262	146.200000
250.227112	146.300000
250.319962	146.240000
250.412827	146.280000
250.505692	146.240000
250.598541	146.140000
250.691391	145.480000
250.784241	145.320000
250.877106	145.660000
250.969955	145.760000
251.062805	146.220000
251.155670	147.140000
251.248520	147.220000
251.341385	147.160000
251.434235	147.000000
251.527100	146.660000
251.619965	145.940000
251.712814	146.740000
251.805695	146.800000
251.898560	147.340000
251.991425	147.220000
252.084290	147.460000
252.177155	146.520000
252.270020	146.280000
252.362885	145.820000
252.455750	146.080000
252.548615	145.900000
252.641479	145.660000
252.734360	145.500000
252.827240	145.660000
252.920105	145.240000
253.012970	144.860000
253.105850	145.020000
253.198715	144.580000
253.291595	144.720000
253.384460	144.740000
253.477341	144.900000
253.570221	145.040000
253.663086	145.380000
253.755966	145.860000
253.848846	145.920000
253.941727	146.320000
254.034592	146.320000
254.127472	145.880000
254.220367	145.700000
254.313248	145.880000
254.406128	145.300000
254.499008	145.520000
254.591904	146.800000
254.684784	147.080000
254.777664	146.940000
254.870544	147.120000
254.963440	146.840000
255.056335	146.440000
255.149216	145.940000
255.242111	146.620000
255.334991	146.900000
255.427887	147.060000
255.520767	146.780000
255.613663	147.060000
255.706558	145.940000
255.799438	145.660000
255.892334	145.520000
255.985229	145.580000
256.078125	145.180000
256.171021	145.560000
256.263916	145.940000
256.356812	146.240000
256.449707	146.460000
256.542603	146.500000
256.635498	147.040000
256.728394	146.900000
256.821289	146.580000
256.914215	146.620000
257.007080	146.800000
257.100006	146.700000
257.192932	146.960000
257.285828	147.180000
257.378723	146.940000
257.471619	146.760000
257.564545	146.340000
257.657440	146.100000
257.750336	146.440000
257.843262	146.000000
257.936157	147.220000
258.029053	147.620000
258.121979	147.760000
258.214874	147.280000
258.307800	147.300000
258.400696	146.040000
258.493622	145.920000
258.586517	145.140000
258.679443	145.440000
258.772339	145.520000
258.865265	145.620000
258.958160	145.260000
259.051086	146.400000
259.144012	146.240000
259.236938	146.900000
259.329834	147.160000
259.422791	146.840000
259.515717	146.040000
259.608612	145.840000
259.701538	145.640000
259.794464	145.220000
259.887390	145.500000
259.980316	145.720000
260.073212	145.420000
260.166138	144.500000
260.259064	144.920000
260.351990	145.620000
260.444916	145.580000
260.537842	146.260000
260.630768	147.300000
260.723694	147.140000
260.816620	146.480000
260.909546	146.280000
261.002472	145.880000
261.095398	145.160000
261.188354	145.340000
261.281281	145.020000
261.374207	145.180000
261.467133	145.840000
261.560089	146.340000
261.653015	145.820000
261.745972	146.900000
261.838867	147.200000
261.931824	147.200000
262.024780	146.560000
262.117706	147.120000
262.210663	147.000000
262.303589	146.720000
262.396515	146.500000
262.489471	147.720000
262.582397	147.360000
262.675354	146.440000
262.768280	146.460000
262.861237	146.300000
262.954163	145.740000
263.047119	145.800000
263.140045	145.820000
263.233002	145.960000
263.325958	146.080000
263.418884	145.660000
263.511841	145.800000
263.604797	146.200000
263.697723	146.140000
263.790680	146.180000
263.883636	147.020000
263.976593	146.920000
264.069550	147.060000
264.162476	146.780000
264.255463	146.620000
264.348419	146.080000
264.441376	146.300000
264.534332	145.720000
264.627289	146.120000
264.720245	146.460000
264.813202	145.940000
264.906158	145.920000
264.999115	146.440000
265.092072	146.060000
265.185028	146.240000
265.277985	146.840000
265.370941	146.760000
265.463898	146.480000
265.556854	146.560000
265.649811	145.440000
265.742798	145.320000
265.835754	145.340000
265.928711	145.920000
266.021667	145.800000
266.114655	146.400000
266.207611	146.540000
266.300568	146.060000
266.393585	145.340000
266.486511	145.940000
266.579498	145.120000
266.672485	145.040000
266.765442	144.820000
266.858429	145.360000
266.951385	144.880000
267.044342	145.360000
267.137329	145.120000
267.230316	145.800000
267.323273	145.280000
267.416260	145.860000
267.509216	145.680000
267.602203	145.960000
267.695160	145.940000
267.788147	146.200000
267.881134	145.400000
267.974091	146.060000
268.067078	145.920000
268.160065	145.900000
268.253052	145.760000
268.346008	146.080000
268.438995	145.580000
268.531982	145.660000
268.624969	145.220000
268.717987	145.680000
268.810944	145.700000
268.903961	145.900000
268.996948	145.660000
269.089905	146.000000
269.182892	146.080000
269.275879	146.300000
269.368866	145.820000
269.461853	146.240000
269.554871	146.220000
269.647858	146.000000
269.740845	146.040000
269.833832	146.540000
269.926819	145.780000
270.019806	145.880000
270.112793	145.420000
270.205811	145.540000
270.298798	145.140000
270.391785	146.100000
270.484772	145.800000
270.577789	146.100000
270.670776	145.480000
270.763763	145.900000
270.856750	145.480000
270.949768	145.300000
271.042786	145.420000
271.135773	145.700000
271.228790	146.160000
271.321808	146.000000
271.414795	146.080000
271.507782	145.680000
271.600800	145.280000
271.693817	144.900000
271.786804	145.360000
271.879822	145.380000
271.972809	145.420000
272.065826	146.160000
272.158844	145.580000
272.251831	145.980000
272.344849	146.280000
272.437866	145.860000
272.530853	145.640000
272.623871	146.020000
272.716888	144.820000
272.809906	144.940000
272.902893	145.280000
272.995911	144.820000
273.088928	144.820000
273.181946	145.340000
273.274963	145.000000
273.367981	144.860000
273.460999	145.200000
273.554047	145.780000
273.647003	146.240000
273.740051	146.260000
273.833069	147.000000
273.926086	146.820000
274.019135	146.420000
274.112152	146.240000
274.205170	146.360000
274.298187	146.220000
274.391205	145.900000
274.484222	145.740000
274.577240	145.560000
274.670258	145.280000
274.763306	144.940000
274.856323	145.800000
274.949341	145.660000
275.042358	145.920000
275.135406	145.980000
275.228424	146.240000
275.321442	145.740000
275.414490	145.740000
275.507507	146.040000
275.600525	146.400000
275.693573	146.260000
275.786591	146.180000
275.879669	146.440000
275.972656	145.760000
276.065735	145.660000
276.158752	146.140000
276.251801	146.900000
276.344818	147.060000
276.437866	146.980000
276.530884	146.800000
276.623932	146.100000
276.716980	145.680000
276.809998	145.660000
276.903046	146.240000
276.996094	147.060000
277.089111	147.780000
277.182159	148.160000
277.275208	147.880000
277.368256	147.240000
277.461304	146.880000
277.554321	146.060000
277.647369	145.900000
277.740417	145.980000
277.833466	146.240000
277.926514	145.680000
278.019562	146.440000
278.112610	145.560000
278.205688	145.680000
278.298706	145.440000
278.391785	145.500000
278.484833	144.840000
278.577881	144.960000
278.670929	144.840000
278.763977	145.080000
278.857025	145.580000
278.950073	145.820000
279.043121	145.900000
279.136169	145.840000
279.229248	145.680000
279.322296	145.500000
279.415344	144.960000
279.508392	145.080000
279.601440	145.500000
279.694519	145.220000
279.787567	145.100000
279.880615	145.280000
279.973694	145.200000
280.066742	144.800000
280.159790	145.200000
280.252869	144.980000
280.345917	145.380000
280.438995	145.700000
280.532074	145.760000
280.625122	146.180000
280.718201	146.920000
280.811279	146.860000
280.904327	146.840000
280.997406	147.140000
281.090454	146.760000
281.183533	146.020000
281.276581	145.960000
281.369659	145.440000
281.462738	145.460000
281.555786	145.540000
281.648865	145.600000
281.741943	145.580000
281.835022	146.600000
281.928070	146.120000
282.021149	145.960000
282.114227	146.040000
282.207306	145.940000
282.300385	145.820000
282.393433	146.200000
282.486511	146.080000
282.579590	146.520000
282.672668	146.920000
282.765747	146.300000
282.858856	145.640000
282.951904	145.960000
283.045013	146.060000
283.138062	146.060000
283.231171	146.380000
283.324249	147.360000
283.417328	147.380000
283.510406	146.680000
283.603485	146.460000
283.696564	146.020000
283.789642	145.540000
283.882751	145.440000
283.975830	146.100000
284.068909	145.860000
284.161987	146.900000
284.255066	146.500000
284.348175	146.600000
284.441254	146.280000
284.534332	146.880000
284.627441	146.280000
284.720520	146.380000
284.813599	146.380000
284.906708	146.260000
284.999786	145.500000
285.092896	145.000000
285.185974	146.100000
285.279053	145.480000
285.372192	145.560000
285.465240	146.400000
285.558380	146.500000
285.651459	145.680000
285.744568	146.760000
285.837677	146.460000
285.930756	146.100000
286.023865	146.340000
286.116943	146.220000
286.210052	145.920000
286.303162	146.280000
286.396240	146.080000
286.489349	145.860000
286.582458	146.320000
286.675568	145.940000
286.768646	145.580000
286.861755	146.200000
286.954865	146.920000
287.047974	146.300000
287.141083	146.600000
287.234161	146.620000
287.327271	146.400000
287.420380	146.640000
287.513519	146.520000
287.606598	146.120000
287.699738	146.580000
287.792816	146.220000
287.885956	145.700000
287.979034	145.740000
288.072174	145.920000
288.165283	145.360000
288.258392	145.640000
288.351501	144.980000
288.444611	145.240000
288.537720	145.540000
288.630859	145.780000
288.723969	145.780000
288.817078	146.180000
288.910187	146.100000
289.003296	145.240000
289.096436	145.120000
289.189545	145.000000
289.282654	144.720000
289.375763	145.180000
289.468903	146.100000
289.562012	146.300000
289.655121	146.240000
289.748260	146.340000
289.841400	146.340000
289.934509	146.100000
290.027649	146.240000
290.120728	146.280000
290.213898	146.480000
290.306976	145.920000
290.400146	145.800000
290.493256	145.640000
290.586395	145.760000
290.679535	145.860000
290.772644	145.860000
290.865784	145.280000
290.958893	145.140000
291.052032	145.100000
291.145172	144.820000
291.238281	144.760000
291.331421	145.200000
291.424561	145.640000
291.517670	145.100000
291.610809	145.460000
291.703949	145.260000
291.797089	145.520000
291.890228	144.960000
291.983337	145.120000
292.076477	144.840000
292.169617	145.520000
292.262756	145.140000
292.355927	145.260000
292.449036	145.400000
292.542206	145.520000
292.635315	145.500000
292.728485	145.840000
292.821625	145.540000
292.914764	146.560000
293.007904	146.760000
293.101044	146.560000
293.194183	146.560000
293.287323	147.140000
293.380463	146.260000
293.473602	146.060000
293.566742	146.280000
293.659882	146.580000
293.753021	146.600000
293.846191	146.560000
293.939331	146.080000
294.032471	145.700000
294.125610	145.260000
294.218781	145.500000
294.311920	145.900000
294.405060	146.580000
294.498230	146.840000
294.591370	146.980000
294.684540	146.260000
294.777679	145.440000
294.870850	145.600000
294.963959	145.400000
295.057159	145.240000
295.150299	145.580000
295.243469	145.860000
295.336609	145.160000
295.429779	145.200000
295.522919	145.380000
295.616089	145.720000
295.709229	146.220000
295.802399	146.460000
295.895569	146.220000
295.988708	145.940000
296.081879	145.920000
296.175018	145.360000
296.268188	145.620000
296.361359	146.140000
296.454529	146.500000
296.547668	146.060000
296.640839	146.420000
296.734009	145.940000
296.827179	145.900000
296.920319	146.000000
297.013519	146.040000
297.106659	146.320000
297.199860	146.540000
297.292999	146.660000
297.386200	146.400000
297.479309	146.140000
297.572510	145.920000
297.665680	145.800000
297.758850	145.580000
297.852020	145.620000
297.945190	145.820000
298.038361	145.380000
298.131531	146.220000
298.224701	145.920000
298.317871	145.780000
298.411072	145.380000
298.504242	145.300000
298.597412	144.680000
298.690582	145.120000
298.783752	145.240000
298.876923	145.820000
298.970093	146.240000
299.063293	146.220000
299.156464	146.460000
299.249634	146.500000
299.342834	146.260000
299.436005	146.540000
299.529205	146.600000
299.622345	146.380000
299.715576	145.840000
299.808716	145.940000
299.901917	145.600000
299.995117	145.880000
300.088287	145.940000
300.181488	145.940000
300.274658	145.800000
300.367828	145.940000
300.461029	145.660000
300.554199	145.620000
300.647400	145.880000
300.740601	146.400000
300.833771	146.140000
300.926971	146.180000
301.020142	146.020000
301.113342	146.020000
301.206512	145.680000
301.299713	145.920000
301.392914	146.200000
301.486084	146.320000
301.579285	146.320000
301.672516	146.900000
301.765686	146.620000
301.858887	146.060000
301.952057	146.100000
302.045288	146.060000
302.138458	145.600000
302.231659	145.780000
302.324860	146.040000
302.418060	145.680000
302.511261	145.620000
302.604462	145.560000
302.697662	145.240000
302.790863	145.220000
302.884064	145.040000
302.977264	145.220000
303.070465	145.540000
303.163666	146.480000
303.256866	146.720000
303.350067	146.980000
303.443268	146.860000
303.536469	147.000000
303.629669	146.280000
303.722870	146.380000
303.816071	146.100000
303.909271	146.080000
304.002472	145.020000
304.095673	145.040000
304.188934	144.460000
304.282104	145.440000
304.375336	145.380000
304.468506	145.780000
304.561768	145.460000
304.654968	145.980000
304.748169	145.180000
304.841370	145.040000
304.934601	145.340000
305.027802	145.340000
305.121002	144.740000
305.214233	144.920000
305.307434	145.160000
305.400665	145.660000
305.493866	145.720000
