Model Number: SPM-002-B   
Serial Number: 70087108
Firmware Version: 004.15.4
Exposure Time: 100000.000000us
Data Taken on: 11-12-2020 19:39:44.663
Wavelength	Amplitude
221.570786	0.000000
221.663406	0.000000
221.756027	0.000000
221.848648	0.000000
221.941269	0.000000
222.033905	0.000000
222.126526	0.000000
222.219162	0.000000
222.311798	0.000000
222.404419	0.000000
222.497055	0.000000
222.589676	0.000000
222.682312	0.000000
222.774933	0.000000
222.867569	0.000000
222.960205	0.000000
223.052841	0.000000
223.145462	0.000000
223.238098	0.000000
223.330734	0.000000
223.423386	0.000000
223.516022	0.000000
223.608658	0.000000
223.701309	0.000000
223.793945	0.000000
223.886581	0.000000
223.979218	0.000000
224.071869	0.000000
224.164505	0.000000
224.257156	0.000000
224.349792	0.000000
224.442444	0.000000
224.535095	0.000000
224.627747	0.000000
224.720398	0.000000
224.813034	0.000000
224.905685	0.000000
224.998337	145.040000
225.090988	144.800000
225.183640	144.800000
225.276291	145.160000
225.368942	145.900000
225.461594	146.220000
225.554245	146.560000
225.646912	146.480000
225.739578	146.380000
225.832230	146.220000
225.924896	145.280000
226.017548	145.360000
226.110199	145.940000
226.202866	145.320000
226.295532	145.420000
226.388184	145.540000
226.480850	145.040000
226.573517	144.740000
226.666168	145.260000
226.758835	145.340000
226.851501	146.140000
226.944183	146.500000
227.036850	145.820000
227.129517	145.760000
227.222183	145.940000
227.314850	145.900000
227.407516	145.840000
227.500198	146.920000
227.592865	146.640000
227.685532	146.200000
227.778214	145.480000
227.870880	146.020000
227.963562	146.180000
228.056229	146.580000
228.148926	146.660000
228.241592	147.780000
228.334274	147.440000
228.426956	147.040000
228.519638	147.080000
228.612305	146.840000
228.704987	146.640000
228.797668	146.580000
228.890350	146.240000
228.983032	145.880000
229.075714	146.460000
229.168396	145.840000
229.261108	145.400000
229.353790	145.340000
229.446472	145.540000
229.539169	145.400000
229.631851	145.060000
229.724533	145.700000
229.817230	145.820000
229.909912	146.780000
230.002609	146.580000
230.095306	146.880000
230.187988	146.600000
230.280685	146.560000
230.373383	145.240000
230.466095	145.220000
230.558792	145.360000
230.651474	145.540000
230.744171	145.380000
230.836868	145.540000
230.929581	145.880000
231.022278	146.080000
231.114975	146.100000
231.207672	146.100000
231.300369	146.460000
231.393082	146.540000
231.485779	146.340000
231.578506	145.900000
231.671204	146.360000
231.763916	146.060000
231.856613	145.580000
231.949326	145.820000
232.042023	145.700000
232.134735	145.340000
232.227448	145.140000
232.320160	145.600000
232.412872	145.440000
232.505585	146.380000
232.598297	146.740000
232.691010	146.700000
232.783722	146.160000
232.876450	146.800000
232.969162	145.940000
233.061874	145.340000
233.154587	145.100000
233.247314	145.440000
233.340027	144.640000
233.432739	145.480000
233.525467	145.680000
233.618179	146.500000
233.710907	146.340000
233.803635	146.560000
233.896347	146.200000
233.989090	146.840000
234.081818	146.580000
234.174545	146.900000
234.267258	146.760000
234.359985	146.700000
234.452713	146.160000
234.545441	146.060000
234.638168	145.420000
234.730896	146.080000
234.823639	145.960000
234.916367	146.240000
235.009094	146.260000
235.101822	146.680000
235.194580	146.000000
235.287308	145.960000
235.380051	145.640000
235.472778	145.860000
235.565521	145.960000
235.658249	145.840000
235.750992	146.040000
235.843719	146.000000
235.936462	146.180000
236.029205	145.820000
236.121948	145.720000
236.214691	146.200000
236.307449	146.660000
236.400192	146.140000
236.492935	146.140000
236.585678	146.220000
236.678421	146.080000
236.771164	145.920000
236.863907	146.420000
236.956665	146.620000
237.049408	148.180000
237.142151	147.300000
237.234909	148.020000
237.327652	147.760000
237.420410	147.520000
237.513153	146.640000
237.605927	147.180000
237.698669	146.240000
237.791428	146.080000
237.884186	146.520000
237.976944	145.820000
238.069702	145.860000
238.162445	145.580000
238.255203	145.620000
238.347961	145.780000
238.440720	145.840000
238.533478	145.620000
238.626266	145.660000
238.719025	146.000000
238.811783	145.660000
238.904541	145.740000
238.997314	145.740000
239.090073	145.580000
239.182831	145.240000
239.275604	146.100000
239.368362	145.800000
239.461136	146.200000
239.553909	146.140000
239.646667	146.200000
239.739441	145.460000
239.832214	145.800000
239.925003	145.740000
240.017761	146.520000
240.110535	146.800000
240.203308	146.340000
240.296082	146.520000
240.388855	146.340000
240.481628	146.240000
240.574417	146.360000
240.667191	146.980000
240.759964	146.760000
240.852737	146.860000
240.945526	146.900000
241.038315	146.600000
241.131088	146.700000
241.223877	147.100000
241.316650	146.560000
241.409439	146.500000
241.502228	146.360000
241.595001	146.740000
241.687790	146.320000
241.780579	146.740000
241.873367	147.020000
241.966141	147.500000
242.058929	146.380000
242.151718	146.820000
242.244507	146.840000
242.337311	146.020000
242.430099	145.960000
242.522903	146.540000
242.615692	146.040000
242.708481	146.020000
242.801270	146.560000
242.894073	146.520000
242.986862	146.620000
243.079651	147.400000
243.172455	147.260000
243.265244	147.040000
243.358063	146.280000
243.450867	146.440000
243.543655	146.000000
243.636459	146.100000
243.729263	146.760000
243.822067	147.480000
243.914856	147.660000
244.007660	147.700000
244.100464	147.520000
244.193268	146.860000
244.286072	146.700000
244.378876	145.960000
244.471680	145.920000
244.564499	146.600000
244.657318	147.260000
244.750122	147.500000
244.842926	147.320000
244.935745	147.280000
245.028549	146.680000
245.121368	146.200000
245.214172	146.100000
245.306992	146.560000
245.399796	146.380000
245.492615	146.480000
245.585434	146.420000
245.678253	146.240000
245.771072	146.240000
245.863892	146.640000
245.956711	146.900000
246.049530	146.540000
246.142349	146.280000
246.235168	146.360000
246.327988	146.480000
246.420807	146.260000
246.513626	146.620000
246.606445	146.680000
246.699280	146.560000
246.792099	146.220000
246.884918	145.900000
246.977753	145.660000
247.070587	145.860000
247.163422	145.540000
247.256241	145.580000
247.349075	145.940000
247.441895	146.080000
247.534729	146.080000
247.627563	146.200000
247.720383	146.660000
247.813217	146.660000
247.906052	146.640000
247.998886	146.800000
248.091736	146.860000
248.184570	146.360000
248.277405	146.400000
248.370239	147.140000
248.463074	147.900000
248.555908	148.220000
248.648743	148.160000
248.741592	148.200000
248.834427	147.420000
248.927261	146.340000
249.020111	146.600000
249.112946	146.980000
249.205795	146.640000
249.298630	146.980000
249.391495	147.000000
249.484344	146.240000
249.577179	146.360000
249.670029	146.720000
249.762878	147.120000
249.855728	147.260000
249.948563	147.420000
250.041412	146.620000
250.134262	146.720000
250.227112	146.520000
250.319962	146.640000
250.412827	146.880000
250.505692	146.800000
250.598541	146.800000
250.691391	146.360000
250.784241	146.120000
250.877106	145.960000
250.969955	146.000000
251.062805	146.220000
251.155670	147.020000
251.248520	146.980000
251.341385	147.240000
251.434235	147.280000
251.527100	146.820000
251.619965	146.200000
251.712814	147.000000
251.805695	146.980000
251.898560	147.300000
251.991425	147.480000
252.084290	147.300000
252.177155	146.420000
252.270020	146.060000
252.362885	146.000000
252.455750	145.860000
252.548615	145.700000
252.641479	145.580000
252.734360	145.320000
252.827240	145.240000
252.920105	145.160000
253.012970	145.020000
253.105850	145.140000
253.198715	145.220000
253.291595	145.260000
253.384460	145.000000
253.477341	145.180000
253.570221	145.580000
253.663086	145.300000
253.755966	145.820000
253.848846	146.100000
253.941727	146.400000
254.034592	145.880000
254.127472	145.960000
254.220367	145.720000
254.313248	145.860000
254.406128	145.480000
254.499008	146.100000
254.591904	146.900000
254.684784	147.120000
254.777664	147.120000
254.870544	146.740000
254.963440	146.400000
255.056335	146.320000
255.149216	145.900000
255.242111	146.240000
255.334991	146.940000
255.427887	147.000000
255.520767	146.660000
255.613663	146.760000
255.706558	145.780000
255.799438	145.420000
255.892334	145.080000
255.985229	145.040000
256.078125	145.020000
256.171021	145.620000
256.263916	146.180000
256.356812	146.660000
256.449707	146.960000
256.542603	146.800000
256.635498	147.000000
256.728394	146.560000
256.821289	146.320000
256.914215	146.340000
257.007080	146.720000
257.100006	146.720000
257.192932	147.000000
257.285828	147.180000
257.378723	146.840000
257.471619	146.480000
257.564545	145.800000
257.657440	145.960000
257.750336	146.420000
257.843262	146.520000
257.936157	147.780000
258.029053	148.260000
258.121979	148.040000
258.214874	147.320000
258.307800	147.120000
258.400696	145.640000
258.493622	145.800000
258.586517	145.400000
258.679443	145.760000
258.772339	145.320000
258.865265	145.280000
258.958160	144.700000
259.051086	145.300000
259.144012	145.020000
259.236938	145.960000
259.329834	145.920000
259.422791	145.680000
259.515717	145.240000
259.608612	145.320000
259.701538	145.240000
259.794464	145.380000
259.887390	145.780000
259.980316	145.600000
260.073212	145.200000
260.166138	144.200000
260.259064	144.460000
260.351990	144.940000
260.444916	145.080000
260.537842	145.540000
260.630768	146.540000
260.723694	146.680000
260.816620	146.760000
260.909546	146.860000
261.002472	146.620000
261.095398	146.060000
261.188354	145.860000
261.281281	145.180000
261.374207	145.200000
261.467133	146.120000
261.560089	146.400000
261.653015	146.020000
261.745972	146.680000
261.838867	147.160000
261.931824	146.860000
262.024780	146.420000
262.117706	147.380000
262.210663	147.360000
262.303589	146.920000
262.396515	146.980000
262.489471	148.080000
262.582397	147.640000
262.675354	147.040000
262.768280	147.120000
262.861237	146.920000
262.954163	146.500000
263.047119	146.400000
263.140045	146.680000
263.233002	146.600000
263.325958	146.360000
263.418884	145.780000
263.511841	145.740000
263.604797	145.760000
263.697723	145.720000
263.790680	145.580000
263.883636	146.080000
263.976593	146.020000
264.069550	146.100000
264.162476	145.840000
264.255463	146.040000
264.348419	145.820000
264.441376	145.980000
264.534332	145.360000
264.627289	145.780000
264.720245	146.060000
264.813202	145.680000
264.906158	145.980000
264.999115	146.600000
265.092072	146.460000
265.185028	146.820000
265.277985	147.200000
265.370941	146.560000
265.463898	146.400000
265.556854	146.380000
265.649811	145.260000
265.742798	145.220000
265.835754	145.800000
265.928711	145.960000
266.021667	145.660000
266.114655	146.000000
266.207611	145.960000
266.300568	145.200000
266.393585	144.860000
266.486511	145.580000
266.579498	144.900000
266.672485	144.980000
266.765442	145.020000
266.858429	145.580000
266.951385	145.220000
267.044342	145.580000
267.137329	145.760000
267.230316	146.100000
267.323273	145.680000
267.416260	146.120000
267.509216	146.280000
267.602203	146.320000
267.695160	146.740000
267.788147	146.860000
267.881134	146.220000
267.974091	146.460000
268.067078	146.120000
268.160065	145.720000
268.253052	145.440000
268.346008	145.520000
268.438995	145.460000
268.531982	145.800000
268.624969	145.800000
268.717987	146.440000
268.810944	146.300000
268.903961	146.320000
268.996948	146.000000
269.089905	146.260000
269.182892	146.060000
269.275879	146.580000
269.368866	146.100000
269.461853	146.040000
269.554871	146.000000
269.647858	145.760000
269.740845	145.760000
269.833832	146.360000
269.926819	146.360000
270.019806	146.320000
270.112793	146.180000
270.205811	145.980000
270.298798	145.600000
270.391785	146.240000
270.484772	146.140000
270.577789	146.420000
270.670776	146.220000
270.763763	146.100000
270.856750	145.900000
270.949768	145.440000
271.042786	145.240000
271.135773	145.400000
271.228790	145.920000
271.321808	145.380000
271.414795	145.180000
271.507782	145.180000
271.600800	145.080000
271.693817	144.980000
271.786804	145.580000
271.879822	146.220000
271.972809	145.980000
272.065826	146.520000
272.158844	146.100000
272.251831	146.500000
272.344849	146.320000
272.437866	146.220000
272.530853	145.960000
272.623871	146.480000
272.716888	145.380000
272.809906	145.700000
272.902893	145.760000
272.995911	145.440000
273.088928	145.160000
273.181946	145.660000
273.274963	145.440000
273.367981	145.560000
273.460999	145.860000
273.554047	146.480000
273.647003	147.040000
273.740051	146.820000
273.833069	147.340000
273.926086	147.060000
274.019135	146.460000
274.112152	146.040000
274.205170	146.460000
274.298187	146.580000
274.391205	146.500000
274.484222	146.480000
274.577240	146.340000
274.670258	145.960000
274.763306	145.560000
274.856323	145.900000
274.949341	146.160000
275.042358	146.420000
275.135406	146.560000
275.228424	146.360000
275.321442	146.100000
275.414490	145.900000
275.507507	146.260000
275.600525	146.520000
275.693573	146.580000
275.786591	146.480000
275.879669	146.820000
275.972656	146.340000
276.065735	146.300000
276.158752	146.700000
276.251801	147.640000
276.344818	147.540000
276.437866	147.580000
276.530884	147.420000
276.623932	146.700000
276.716980	146.280000
276.809998	146.200000
276.903046	146.140000
276.996094	146.560000
277.089111	147.220000
277.182159	147.620000
277.275208	147.060000
277.368256	146.760000
277.461304	146.480000
277.554321	145.700000
277.647369	145.320000
277.740417	145.600000
277.833466	145.680000
277.926514	145.720000
278.019562	146.580000
278.112610	146.140000
278.205688	146.640000
278.298706	146.840000
278.391785	146.440000
278.484833	145.520000
278.577881	145.420000
278.670929	145.320000
278.763977	145.400000
278.857025	145.800000
278.950073	146.400000
279.043121	146.400000
279.136169	146.120000
279.229248	145.760000
279.322296	145.600000
279.415344	145.420000
279.508392	145.140000
279.601440	144.940000
279.694519	144.720000
279.787567	144.680000
279.880615	144.420000
279.973694	144.780000
280.066742	145.020000
280.159790	145.600000
280.252869	145.340000
280.345917	146.100000
280.438995	146.120000
280.532074	145.980000
280.625122	146.240000
280.718201	147.400000
280.811279	147.140000
280.904327	147.140000
280.997406	147.620000
281.090454	147.400000
281.183533	146.500000
281.276581	146.220000
281.369659	145.840000
281.462738	145.680000
281.555786	145.580000
281.648865	145.400000
281.741943	145.420000
281.835022	146.540000
281.928070	146.260000
282.021149	146.100000
282.114227	146.140000
282.207306	146.000000
282.300385	145.880000
282.393433	146.180000
282.486511	146.140000
282.579590	146.560000
282.672668	147.220000
282.765747	146.380000
282.858856	146.180000
282.951904	146.300000
283.045013	146.360000
283.138062	146.180000
283.231171	146.840000
283.324249	147.040000
283.417328	147.040000
283.510406	146.280000
283.603485	146.100000
283.696564	145.940000
283.789642	145.840000
283.882751	145.680000
283.975830	146.720000
284.068909	146.500000
284.161987	146.960000
284.255066	146.600000
284.348175	147.080000
284.441254	146.580000
284.534332	147.160000
284.627441	146.520000
284.720520	146.340000
284.813599	145.860000
284.906708	146.080000
284.999786	145.200000
285.092896	144.720000
285.185974	145.780000
285.279053	145.480000
285.372192	145.320000
285.465240	146.200000
285.558380	146.560000
285.651459	145.680000
285.744568	146.720000
285.837677	146.360000
285.930756	146.080000
286.023865	146.140000
286.116943	145.900000
286.210052	145.720000
286.303162	145.860000
286.396240	145.900000
286.489349	145.800000
286.582458	146.840000
286.675568	146.400000
286.768646	146.380000
286.861755	146.600000
286.954865	147.360000
287.047974	146.280000
287.141083	146.300000
287.234161	146.020000
287.327271	145.600000
287.420380	145.560000
287.513519	145.960000
287.606598	145.920000
287.699738	146.380000
287.792816	146.300000
287.885956	146.220000
287.979034	146.320000
288.072174	146.520000
288.165283	146.320000
288.258392	146.980000
288.351501	146.460000
288.444611	146.880000
288.537720	147.300000
288.630859	147.420000
288.723969	147.220000
288.817078	147.300000
288.910187	146.880000
289.003296	146.020000
289.096436	145.560000
289.189545	145.240000
289.282654	145.240000
289.375763	145.560000
289.468903	146.040000
289.562012	146.600000
289.655121	146.440000
289.748260	146.360000
289.841400	146.520000
289.934509	146.580000
290.027649	146.360000
290.120728	146.220000
290.213898	146.180000
290.306976	145.600000
290.400146	145.420000
290.493256	145.300000
290.586395	145.820000
290.679535	146.280000
290.772644	146.280000
290.865784	145.620000
290.958893	145.780000
291.052032	145.540000
291.145172	145.240000
291.238281	144.720000
291.331421	145.220000
291.424561	145.580000
291.517670	145.300000
291.610809	145.620000
291.703949	146.160000
291.797089	146.620000
291.890228	146.180000
291.983337	146.540000
292.076477	146.120000
292.169617	146.260000
292.262756	146.020000
292.355927	146.000000
292.449036	145.920000
292.542206	146.340000
292.635315	146.600000
292.728485	146.500000
292.821625	146.160000
292.914764	147.220000
293.007904	147.040000
293.101044	146.840000
293.194183	146.720000
293.287323	147.240000
293.380463	146.520000
293.473602	146.220000
293.566742	146.380000
293.659882	146.940000
293.753021	147.060000
293.846191	146.820000
293.939331	146.500000
294.032471	146.160000
294.125610	145.780000
294.218781	145.880000
294.311920	146.240000
294.405060	146.660000
294.498230	146.920000
294.591370	147.040000
294.684540	146.600000
294.777679	145.980000
294.870850	146.140000
294.963959	145.840000
295.057159	145.620000
295.150299	145.960000
295.243469	146.080000
295.336609	145.220000
295.429779	145.480000
295.522919	145.900000
295.616089	145.760000
295.709229	146.320000
295.802399	146.700000
295.895569	146.560000
295.988708	146.100000
296.081879	146.280000
296.175018	145.480000
296.268188	145.740000
296.361359	146.140000
296.454529	146.200000
296.547668	145.880000
296.640839	146.500000
296.734009	146.220000
296.827179	146.060000
296.920319	146.300000
297.013519	146.260000
297.106659	146.000000
297.199860	145.980000
297.292999	145.780000
297.386200	145.540000
297.479309	145.600000
297.572510	145.560000
297.665680	145.560000
297.758850	145.500000
297.852020	145.420000
297.945190	145.140000
298.038361	144.660000
298.131531	145.480000
298.224701	145.380000
298.317871	145.100000
298.411072	144.920000
298.504242	145.160000
298.597412	144.460000
298.690582	144.800000
298.783752	145.120000
298.876923	145.820000
298.970093	145.680000
299.063293	146.360000
299.156464	146.500000
299.249634	146.820000
299.342834	146.840000
299.436005	147.580000
299.529205	147.180000
299.622345	147.060000
299.715576	146.300000
299.808716	145.880000
299.901917	145.580000
299.995117	145.800000
300.088287	146.020000
300.181488	146.080000
300.274658	146.000000
300.367828	146.180000
300.461029	145.980000
300.554199	146.260000
300.647400	146.360000
300.740601	146.920000
300.833771	146.460000
300.926971	146.860000
301.020142	145.940000
301.113342	146.140000
301.206512	146.040000
301.299713	146.460000
301.392914	146.060000
301.486084	146.360000
301.579285	146.060000
301.672516	146.300000
301.765686	146.260000
301.858887	146.240000
301.952057	146.400000
302.045288	146.720000
302.138458	146.320000
302.231659	145.860000
302.324860	145.480000
302.418060	145.120000
302.511261	145.060000
302.604462	145.200000
302.697662	145.160000
302.790863	145.300000
302.884064	145.140000
302.977264	145.100000
303.070465	145.540000
303.163666	146.020000
303.256866	146.320000
303.350067	146.520000
303.443268	146.760000
303.536469	146.560000
303.629669	146.280000
303.722870	146.280000
303.816071	145.880000
303.909271	145.820000
304.002472	144.860000
304.095673	144.440000
304.188934	143.820000
304.282104	144.900000
304.375336	144.860000
304.468506	145.440000
304.561768	145.800000
304.654968	146.780000
304.748169	146.240000
304.841370	146.100000
304.934601	146.320000
305.027802	145.940000
305.121002	145.460000
305.214233	145.680000
305.307434	145.560000
305.400665	146.020000
305.493866	146.100000
