Model Number: SPM-002-B   
Serial Number: 70087108
Firmware Version: 004.15.4
Exposure Time: 100000.000000us
Data Taken on: 11-12-2020 19:39:38.535
Wavelength	Amplitude
221.570786	0.000000
221.663406	0.000000
221.756027	0.000000
221.848648	0.000000
221.941269	0.000000
222.033905	0.000000
222.126526	0.000000
222.219162	0.000000
222.311798	0.000000
222.404419	0.000000
222.497055	0.000000
222.589676	0.000000
222.682312	0.000000
222.774933	0.000000
222.867569	0.000000
222.960205	0.000000
223.052841	0.000000
223.145462	0.000000
223.238098	0.000000
223.330734	0.000000
223.423386	0.000000
223.516022	0.000000
223.608658	0.000000
223.701309	0.000000
223.793945	0.000000
223.886581	0.000000
223.979218	0.000000
224.071869	0.000000
224.164505	0.000000
224.257156	0.000000
224.349792	0.000000
224.442444	0.000000
224.535095	0.000000
224.627747	0.000000
224.720398	0.000000
224.813034	0.000000
224.905685	0.000000
224.998337	145.540000
225.090988	145.220000
225.183640	145.120000
225.276291	145.040000
225.368942	145.760000
225.461594	146.320000
225.554245	146.680000
225.646912	146.440000
225.739578	146.820000
225.832230	146.980000
225.924896	146.340000
226.017548	146.520000
226.110199	147.200000
226.202866	146.520000
226.295532	146.240000
226.388184	146.200000
226.480850	145.600000
226.573517	145.300000
226.666168	145.800000
226.758835	145.960000
226.851501	146.620000
226.944183	146.560000
227.036850	145.900000
227.129517	145.580000
227.222183	145.680000
227.314850	145.280000
227.407516	145.880000
227.500198	146.820000
227.592865	146.660000
227.685532	146.300000
227.778214	146.100000
227.870880	146.280000
227.963562	146.540000
228.056229	146.940000
228.148926	146.780000
228.241592	147.720000
228.334274	147.340000
228.426956	146.940000
228.519638	146.920000
228.612305	146.880000
228.704987	146.220000
228.797668	146.320000
228.890350	145.880000
228.983032	145.380000
229.075714	145.820000
229.168396	145.660000
229.261108	145.220000
229.353790	145.360000
229.446472	145.800000
229.539169	145.640000
229.631851	145.600000
229.724533	145.880000
229.817230	146.060000
229.909912	146.840000
230.002609	147.060000
230.095306	147.100000
230.187988	147.280000
230.280685	147.300000
230.373383	146.160000
230.466095	145.860000
230.558792	146.120000
230.651474	145.800000
230.744171	145.600000
230.836868	145.740000
230.929581	145.920000
231.022278	145.820000
231.114975	145.900000
231.207672	145.560000
231.300369	145.460000
231.393082	145.600000
231.485779	145.320000
231.578506	145.260000
231.671204	145.840000
231.763916	146.180000
231.856613	146.100000
231.949326	146.520000
232.042023	146.320000
232.134735	146.200000
232.227448	145.640000
232.320160	145.960000
232.412872	145.780000
232.505585	146.720000
232.598297	146.940000
232.691010	147.140000
232.783722	146.460000
232.876450	146.780000
232.969162	146.240000
233.061874	145.940000
233.154587	145.760000
233.247314	146.200000
233.340027	145.800000
233.432739	146.200000
233.525467	146.220000
233.618179	146.700000
233.710907	145.940000
233.803635	146.500000
233.896347	145.940000
233.989090	146.460000
234.081818	146.280000
234.174545	147.020000
234.267258	146.460000
234.359985	146.580000
234.452713	146.460000
234.545441	146.040000
234.638168	145.760000
234.730896	146.260000
234.823639	146.440000
234.916367	146.640000
235.009094	146.900000
235.101822	147.160000
235.194580	146.660000
235.287308	146.640000
235.380051	145.700000
235.472778	146.200000
235.565521	145.780000
235.658249	145.540000
235.750992	145.400000
235.843719	145.820000
235.936462	145.980000
236.029205	146.060000
236.121948	145.840000
236.214691	146.160000
236.307449	146.560000
236.400192	146.120000
236.492935	146.120000
236.585678	146.600000
236.678421	146.640000
236.771164	146.500000
236.863907	146.940000
236.956665	147.080000
237.049408	148.700000
237.142151	148.100000
237.234909	148.580000
237.327652	148.180000
237.420410	147.900000
237.513153	146.640000
237.605927	146.800000
237.698669	146.240000
237.791428	145.720000
237.884186	146.300000
237.976944	145.760000
238.069702	145.820000
238.162445	145.680000
238.255203	146.140000
238.347961	146.240000
238.440720	146.460000
238.533478	146.300000
238.626266	146.080000
238.719025	146.360000
238.811783	146.020000
238.904541	146.120000
238.997314	146.380000
239.090073	146.260000
239.182831	146.540000
239.275604	147.140000
239.368362	146.960000
239.461136	146.940000
239.553909	146.840000
239.646667	146.480000
239.739441	146.180000
239.832214	146.420000
239.925003	146.500000
240.017761	147.400000
240.110535	147.720000
240.203308	147.020000
240.296082	147.120000
240.388855	146.860000
240.481628	146.580000
240.574417	146.480000
240.667191	146.840000
240.759964	146.300000
240.852737	146.180000
240.945526	145.580000
241.038315	145.220000
241.131088	145.300000
241.223877	145.640000
241.316650	145.520000
241.409439	146.040000
241.502228	145.620000
241.595001	146.180000
241.687790	146.060000
241.780579	146.360000
241.873367	146.620000
241.966141	147.420000
242.058929	146.880000
242.151718	147.480000
242.244507	148.060000
242.337311	147.200000
242.430099	147.520000
242.522903	147.480000
242.615692	146.820000
242.708481	146.200000
242.801270	146.720000
242.894073	146.280000
242.986862	146.400000
243.079651	146.880000
243.172455	146.860000
243.265244	147.060000
243.358063	146.500000
243.450867	146.800000
243.543655	146.640000
243.636459	146.740000
243.729263	146.980000
243.822067	147.360000
243.914856	147.520000
244.007660	147.520000
244.100464	147.620000
244.193268	147.020000
244.286072	147.000000
244.378876	146.040000
244.471680	145.760000
244.564499	145.880000
244.657318	146.760000
244.750122	147.020000
244.842926	147.180000
244.935745	147.620000
245.028549	147.120000
245.121368	146.260000
245.214172	146.200000
245.306992	146.620000
245.399796	145.940000
245.492615	146.060000
245.585434	146.260000
245.678253	146.200000
245.771072	145.920000
245.863892	146.640000
245.956711	146.980000
246.049530	146.640000
246.142349	146.320000
246.235168	146.700000
246.327988	146.940000
246.420807	146.720000
246.513626	147.120000
246.606445	147.100000
246.699280	146.780000
246.792099	146.400000
246.884918	145.920000
246.977753	145.380000
247.070587	145.220000
247.163422	145.080000
247.256241	145.020000
247.349075	145.760000
247.441895	146.200000
247.534729	146.420000
247.627563	146.480000
247.720383	147.080000
247.813217	146.760000
247.906052	146.560000
247.998886	146.660000
248.091736	146.640000
248.184570	146.300000
248.277405	146.280000
248.370239	147.100000
248.463074	148.080000
248.555908	148.540000
248.648743	147.960000
248.741592	148.320000
248.834427	147.520000
248.927261	146.220000
249.020111	146.320000
249.112946	147.300000
249.205795	146.780000
249.298630	147.040000
249.391495	147.200000
249.484344	146.820000
249.577179	146.480000
249.670029	146.960000
249.762878	147.340000
249.855728	147.600000
249.948563	147.600000
250.041412	146.920000
250.134262	147.080000
250.227112	146.980000
250.319962	146.940000
250.412827	146.580000
250.505692	146.380000
250.598541	146.240000
250.691391	145.740000
250.784241	145.540000
250.877106	146.020000
250.969955	146.120000
251.062805	146.400000
251.155670	147.020000
251.248520	147.200000
251.341385	147.300000
251.434235	147.480000
251.527100	147.000000
251.619965	146.400000
251.712814	146.980000
251.805695	146.700000
251.898560	146.720000
251.991425	147.140000
252.084290	147.480000
252.177155	146.760000
252.270020	146.600000
252.362885	146.460000
252.455750	146.400000
252.548615	146.040000
252.641479	145.980000
252.734360	146.060000
252.827240	146.100000
252.920105	145.840000
253.012970	145.700000
253.105850	145.780000
253.198715	145.600000
253.291595	145.800000
253.384460	145.760000
253.477341	145.840000
253.570221	145.800000
253.663086	145.560000
253.755966	146.140000
253.848846	146.120000
253.941727	146.460000
254.034592	146.480000
254.127472	146.320000
254.220367	145.760000
254.313248	145.800000
254.406128	145.340000
254.499008	145.700000
254.591904	146.720000
254.684784	147.580000
254.777664	147.480000
254.870544	147.460000
254.963440	147.100000
255.056335	146.740000
255.149216	146.000000
255.242111	146.380000
255.334991	146.700000
255.427887	147.040000
255.520767	147.220000
255.613663	147.280000
255.706558	146.580000
255.799438	146.440000
255.892334	146.040000
255.985229	145.680000
256.078125	145.720000
256.171021	145.960000
256.263916	146.440000
256.356812	146.740000
256.449707	146.940000
256.542603	146.600000
256.635498	147.080000
256.728394	146.600000
256.821289	146.420000
256.914215	146.500000
257.007080	147.020000
257.100006	146.940000
257.192932	147.540000
257.285828	147.820000
257.378723	147.720000
257.471619	147.060000
257.564545	146.600000
257.657440	146.380000
257.750336	146.640000
257.843262	146.660000
257.936157	148.220000
258.029053	148.340000
258.121979	148.340000
258.214874	147.940000
258.307800	147.820000
258.400696	146.460000
258.493622	146.600000
258.586517	145.900000
258.679443	146.280000
258.772339	146.000000
258.865265	145.900000
258.958160	145.360000
259.051086	146.160000
259.144012	145.900000
259.236938	146.700000
259.329834	146.920000
259.422791	146.940000
259.515717	146.140000
259.608612	145.420000
259.701538	145.160000
259.794464	144.920000
259.887390	144.980000
259.980316	145.160000
260.073212	145.400000
260.166138	144.560000
260.259064	145.060000
260.351990	145.780000
260.444916	145.820000
260.537842	146.420000
260.630768	147.500000
260.723694	147.220000
260.816620	146.800000
260.909546	146.800000
261.002472	146.160000
261.095398	145.340000
261.188354	145.640000
261.281281	145.500000
261.374207	145.540000
261.467133	146.340000
261.560089	146.860000
261.653015	146.340000
261.745972	146.980000
261.838867	147.360000
261.931824	147.220000
262.024780	146.460000
262.117706	146.740000
262.210663	146.500000
262.303589	146.320000
262.396515	146.300000
262.489471	147.400000
262.582397	147.140000
262.675354	146.800000
262.768280	146.880000
262.861237	147.020000
262.954163	146.680000
263.047119	146.940000
263.140045	146.860000
263.233002	146.640000
263.325958	146.180000
263.418884	145.720000
263.511841	145.660000
263.604797	145.760000
263.697723	146.000000
263.790680	146.000000
263.883636	146.700000
263.976593	146.440000
264.069550	146.540000
264.162476	146.300000
264.255463	146.480000
264.348419	145.840000
264.441376	146.520000
264.534332	146.100000
264.627289	146.300000
264.720245	146.700000
264.813202	146.420000
264.906158	146.180000
264.999115	146.640000
265.092072	146.560000
265.185028	146.640000
265.277985	147.140000
265.370941	147.080000
265.463898	146.880000
265.556854	146.620000
265.649811	145.740000
265.742798	145.740000
265.835754	145.760000
265.928711	146.640000
266.021667	146.580000
266.114655	146.780000
266.207611	147.040000
266.300568	146.320000
266.393585	145.120000
266.486511	145.780000
266.579498	145.380000
266.672485	145.340000
266.765442	145.640000
266.858429	146.340000
266.951385	145.800000
267.044342	146.180000
267.137329	145.980000
267.230316	146.220000
267.323273	145.940000
267.416260	146.700000
267.509216	146.720000
267.602203	146.640000
267.695160	147.080000
267.788147	147.060000
267.881134	146.300000
267.974091	146.520000
268.067078	146.520000
268.160065	146.300000
268.253052	146.220000
268.346008	146.380000
268.438995	146.060000
268.531982	146.180000
268.624969	145.660000
268.717987	146.320000
268.810944	146.420000
268.903961	146.740000
268.996948	146.660000
269.089905	147.520000
269.182892	147.300000
269.275879	147.440000
269.368866	146.940000
269.461853	147.100000
269.554871	146.960000
269.647858	146.920000
269.740845	147.060000
269.833832	147.500000
269.926819	147.180000
270.019806	146.800000
270.112793	146.100000
270.205811	145.980000
270.298798	145.640000
270.391785	146.340000
270.484772	146.160000
270.577789	146.680000
270.670776	146.160000
270.763763	146.440000
270.856750	145.880000
270.949768	145.640000
271.042786	145.700000
271.135773	145.780000
271.228790	145.940000
271.321808	145.860000
271.414795	145.840000
271.507782	145.680000
271.600800	145.420000
271.693817	145.400000
271.786804	145.740000
271.879822	146.080000
271.972809	146.240000
272.065826	147.060000
272.158844	146.660000
272.251831	146.900000
272.344849	146.940000
272.437866	146.600000
272.530853	146.420000
272.623871	146.880000
272.716888	145.840000
272.809906	145.880000
272.902893	145.700000
272.995911	145.000000
273.088928	144.840000
273.181946	145.380000
273.274963	145.160000
273.367981	145.540000
273.460999	146.200000
273.554047	146.220000
273.647003	146.880000
273.740051	147.260000
273.833069	147.200000
273.926086	147.100000
274.019135	146.940000
274.112152	146.060000
274.205170	145.880000
274.298187	146.380000
274.391205	145.900000
274.484222	145.960000
274.577240	146.240000
274.670258	146.220000
274.763306	145.700000
274.856323	146.360000
274.949341	146.440000
275.042358	146.600000
275.135406	146.500000
275.228424	146.520000
275.321442	146.100000
275.414490	145.700000
275.507507	146.040000
275.600525	146.460000
275.693573	146.320000
275.786591	146.180000
275.879669	146.440000
275.972656	145.940000
276.065735	145.580000
276.158752	146.100000
276.251801	146.900000
276.344818	147.040000
276.437866	147.040000
276.530884	146.940000
276.623932	146.240000
276.716980	146.180000
276.809998	146.240000
276.903046	146.660000
276.996094	147.520000
277.089111	148.340000
277.182159	148.560000
277.275208	148.220000
277.368256	148.120000
277.461304	147.580000
277.554321	146.300000
277.647369	145.900000
277.740417	146.100000
277.833466	145.820000
277.926514	145.720000
278.019562	146.880000
278.112610	146.240000
278.205688	146.060000
278.298706	145.980000
278.391785	145.760000
278.484833	145.020000
278.577881	145.060000
278.670929	145.540000
278.763977	145.540000
278.857025	145.900000
278.950073	146.260000
279.043121	146.260000
279.136169	146.020000
279.229248	145.820000
279.322296	146.020000
279.415344	145.860000
279.508392	146.140000
279.601440	145.980000
279.694519	146.040000
279.787567	145.700000
279.880615	145.640000
279.973694	145.720000
280.066742	145.640000
280.159790	145.840000
280.252869	145.520000
280.345917	145.880000
280.438995	145.480000
280.532074	145.580000
280.625122	145.860000
280.718201	146.760000
280.811279	146.960000
280.904327	147.240000
280.997406	147.440000
281.090454	147.240000
281.183533	146.280000
281.276581	145.640000
281.369659	145.260000
281.462738	145.080000
281.555786	145.200000
281.648865	145.420000
281.741943	145.620000
281.835022	146.240000
281.928070	145.900000
282.021149	145.820000
282.114227	145.640000
282.207306	145.560000
282.300385	145.460000
282.393433	145.920000
282.486511	145.900000
282.579590	146.560000
282.672668	146.940000
282.765747	146.480000
282.858856	146.280000
282.951904	146.400000
283.045013	146.420000
283.138062	146.520000
283.231171	147.300000
283.324249	147.560000
283.417328	147.360000
283.510406	147.060000
283.603485	146.660000
283.696564	146.000000
283.789642	146.200000
283.882751	146.080000
283.975830	146.300000
284.068909	146.000000
284.161987	146.940000
284.255066	146.200000
284.348175	146.360000
284.441254	146.060000
284.534332	146.640000
284.627441	145.720000
284.720520	145.660000
284.813599	145.800000
284.906708	145.880000
284.999786	145.360000
285.092896	145.260000
285.185974	146.480000
285.279053	145.900000
285.372192	146.000000
285.465240	146.820000
285.558380	147.100000
285.651459	146.300000
285.744568	147.360000
285.837677	146.920000
285.930756	146.560000
286.023865	146.420000
286.116943	146.260000
286.210052	146.120000
286.303162	146.640000
286.396240	146.720000
286.489349	146.980000
286.582458	147.280000
286.675568	146.940000
286.768646	146.880000
286.861755	146.880000
286.954865	147.440000
287.047974	147.040000
287.141083	146.980000
287.234161	146.700000
287.327271	146.640000
287.420380	146.700000
287.513519	146.700000
287.606598	146.980000
287.699738	147.140000
287.792816	147.060000
287.885956	146.560000
287.979034	146.780000
288.072174	146.760000
288.165283	146.800000
288.258392	147.120000
288.351501	146.740000
288.444611	146.960000
288.537720	147.100000
288.630859	146.960000
288.723969	146.940000
288.817078	147.460000
288.910187	147.140000
289.003296	146.660000
289.096436	146.260000
289.189545	145.880000
289.282654	145.180000
289.375763	145.740000
289.468903	145.980000
289.562012	146.280000
289.655121	146.300000
289.748260	146.560000
289.841400	146.520000
289.934509	146.320000
290.027649	146.600000
290.120728	146.700000
290.213898	146.880000
290.306976	146.600000
290.400146	146.720000
290.493256	146.220000
290.586395	146.300000
290.679535	146.720000
290.772644	146.620000
290.865784	145.980000
290.958893	146.300000
291.052032	145.900000
291.145172	145.560000
291.238281	145.220000
291.331421	145.480000
291.424561	145.620000
291.517670	145.640000
291.610809	145.980000
291.703949	145.920000
291.797089	146.400000
291.890228	145.860000
291.983337	145.960000
292.076477	145.480000
292.169617	145.640000
292.262756	145.420000
292.355927	145.580000
292.449036	145.480000
292.542206	145.620000
292.635315	145.980000
292.728485	146.100000
292.821625	146.040000
292.914764	146.900000
293.007904	146.880000
293.101044	146.760000
293.194183	146.520000
293.287323	146.740000
293.380463	146.220000
293.473602	146.160000
293.566742	146.300000
293.659882	146.840000
293.753021	147.100000
293.846191	146.680000
293.939331	146.080000
294.032471	145.720000
294.125610	145.120000
294.218781	145.000000
294.311920	145.560000
294.405060	146.340000
294.498230	146.500000
294.591370	146.580000
294.684540	146.060000
294.777679	145.660000
294.870850	145.880000
294.963959	145.860000
295.057159	145.840000
295.150299	146.560000
295.243469	146.580000
295.336609	145.940000
295.429779	146.080000
295.522919	146.520000
295.616089	146.420000
295.709229	147.200000
295.802399	147.420000
295.895569	146.980000
295.988708	146.300000
296.081879	146.120000
296.175018	145.400000
296.268188	145.300000
296.361359	146.000000
296.454529	146.260000
296.547668	146.160000
296.640839	146.420000
296.734009	146.180000
296.827179	146.300000
296.920319	146.740000
297.013519	146.720000
297.106659	146.620000
297.199860	147.000000
297.292999	146.600000
297.386200	146.240000
297.479309	145.920000
297.572510	145.880000
297.665680	145.280000
297.758850	145.420000
297.852020	145.420000
297.945190	145.780000
298.038361	145.460000
298.131531	146.840000
298.224701	146.400000
298.317871	146.400000
298.411072	145.880000
298.504242	145.800000
298.597412	144.780000
298.690582	145.220000
298.783752	144.980000
298.876923	145.900000
298.970093	146.240000
299.063293	146.740000
299.156464	146.800000
299.249634	147.140000
299.342834	146.900000
299.436005	147.180000
299.529205	146.600000
299.622345	146.300000
299.715576	145.740000
299.808716	145.560000
299.901917	145.460000
299.995117	146.280000
300.088287	146.700000
300.181488	146.600000
300.274658	146.420000
300.367828	146.280000
300.461029	145.740000
300.554199	146.020000
300.647400	146.520000
300.740601	146.940000
300.833771	146.680000
300.926971	147.160000
301.020142	146.380000
301.113342	146.260000
301.206512	146.100000
301.299713	146.620000
301.392914	146.300000
301.486084	146.820000
301.579285	146.660000
301.672516	147.380000
301.765686	147.000000
301.858887	146.500000
301.952057	146.160000
302.045288	146.580000
302.138458	145.980000
302.231659	145.940000
302.324860	146.100000
302.418060	145.880000
302.511261	145.480000
302.604462	145.580000
302.697662	145.600000
302.790863	145.620000
302.884064	145.380000
302.977264	145.300000
303.070465	145.500000
303.163666	146.020000
303.256866	146.380000
303.350067	146.400000
303.443268	146.720000
303.536469	146.620000
303.629669	146.240000
303.722870	146.300000
303.816071	146.380000
303.909271	146.440000
304.002472	145.460000
304.095673	145.140000
304.188934	144.460000
304.282104	145.400000
304.375336	145.260000
304.468506	145.480000
304.561768	145.040000
304.654968	145.760000
304.748169	145.180000
304.841370	145.100000
304.934601	145.720000
305.027802	145.980000
305.121002	145.460000
305.214233	145.600000
305.307434	145.700000
305.400665	146.200000
305.493866	146.280000
