Model Number: SPM-002-B   
Serial Number: 70087108
Firmware Version: 004.15.4
Exposure Time: 100000.000000us
Data Taken on: 11-12-2020 19:40:06.158
Wavelength	Amplitude
221.570786	0.000000
221.663406	0.000000
221.756027	0.000000
221.848648	0.000000
221.941269	0.000000
222.033905	0.000000
222.126526	0.000000
222.219162	0.000000
222.311798	0.000000
222.404419	0.000000
222.497055	0.000000
222.589676	0.000000
222.682312	0.000000
222.774933	0.000000
222.867569	0.000000
222.960205	0.000000
223.052841	0.000000
223.145462	0.000000
223.238098	0.000000
223.330734	0.000000
223.423386	0.000000
223.516022	0.000000
223.608658	0.000000
223.701309	0.000000
223.793945	0.000000
223.886581	0.000000
223.979218	0.000000
224.071869	0.000000
224.164505	0.000000
224.257156	0.000000
224.349792	0.000000
224.442444	0.000000
224.535095	0.000000
224.627747	0.000000
224.720398	0.000000
224.813034	0.000000
224.905685	0.000000
224.998337	145.640000
225.090988	145.400000
225.183640	145.460000
225.276291	145.040000
225.368942	145.480000
225.461594	146.020000
225.554245	146.280000
225.646912	146.100000
225.739578	146.580000
225.832230	146.640000
225.924896	145.940000
226.017548	145.940000
226.110199	146.440000
226.202866	146.000000
226.295532	145.920000
226.388184	146.020000
226.480850	145.620000
226.573517	145.000000
226.666168	145.320000
226.758835	145.400000
226.851501	145.880000
226.944183	146.220000
227.036850	146.060000
227.129517	146.060000
227.222183	145.940000
227.314850	145.680000
227.407516	145.860000
227.500198	146.760000
227.592865	146.520000
227.685532	146.560000
227.778214	146.420000
227.870880	146.480000
227.963562	146.880000
228.056229	147.080000
228.148926	146.940000
228.241592	147.700000
228.334274	147.480000
228.426956	146.680000
228.519638	146.640000
228.612305	146.180000
228.704987	146.100000
228.797668	145.800000
228.890350	145.540000
228.983032	145.320000
229.075714	146.040000
229.168396	145.660000
229.261108	145.600000
229.353790	145.760000
229.446472	145.820000
229.539169	145.680000
229.631851	145.300000
229.724533	145.520000
229.817230	145.720000
229.909912	146.400000
230.002609	146.280000
230.095306	146.420000
230.187988	146.620000
230.280685	146.500000
230.373383	145.840000
230.466095	145.820000
230.558792	146.400000
230.651474	146.400000
230.744171	146.180000
230.836868	146.100000
230.929581	146.460000
231.022278	146.360000
231.114975	146.260000
231.207672	146.280000
231.300369	146.800000
231.393082	146.720000
231.485779	146.540000
231.578506	146.520000
231.671204	146.760000
231.763916	146.480000
231.856613	146.160000
231.949326	145.940000
232.042023	145.880000
232.134735	145.780000
232.227448	145.680000
232.320160	146.060000
232.412872	146.340000
232.505585	147.260000
232.598297	147.460000
232.691010	147.340000
232.783722	146.860000
232.876450	147.380000
232.969162	146.600000
233.061874	146.380000
233.154587	146.320000
233.247314	146.920000
233.340027	146.040000
233.432739	146.420000
233.525467	146.140000
233.618179	146.260000
233.710907	145.880000
233.803635	146.540000
233.896347	146.120000
233.989090	147.020000
234.081818	146.920000
234.174545	146.920000
234.267258	146.380000
234.359985	146.480000
234.452713	145.800000
234.545441	146.100000
234.638168	145.920000
234.730896	146.300000
234.823639	146.200000
234.916367	146.760000
235.009094	146.660000
235.101822	146.940000
235.194580	146.780000
235.287308	146.680000
235.380051	146.060000
235.472778	146.360000
235.565521	146.560000
235.658249	146.120000
235.750992	146.160000
235.843719	146.220000
235.936462	146.420000
236.029205	146.040000
236.121948	146.100000
236.214691	146.780000
236.307449	147.360000
236.400192	146.660000
236.492935	146.620000
236.585678	147.120000
236.678421	146.660000
236.771164	146.360000
236.863907	146.800000
236.956665	147.000000
237.049408	148.260000
237.142151	148.180000
237.234909	148.840000
237.327652	148.840000
237.420410	148.860000
237.513153	147.600000
237.605927	147.520000
237.698669	146.680000
237.791428	145.800000
237.884186	146.100000
237.976944	145.700000
238.069702	145.980000
238.162445	145.620000
238.255203	146.200000
238.347961	146.420000
238.440720	146.420000
238.533478	146.260000
238.626266	146.380000
238.719025	146.420000
238.811783	146.220000
238.904541	146.180000
238.997314	146.020000
239.090073	145.700000
239.182831	146.060000
239.275604	146.440000
239.368362	146.360000
239.461136	146.480000
239.553909	146.820000
239.646667	146.220000
239.739441	145.500000
239.832214	145.900000
239.925003	146.160000
240.017761	146.560000
240.110535	147.380000
240.203308	147.060000
240.296082	147.000000
240.388855	146.620000
240.481628	146.540000
240.574417	146.520000
240.667191	146.460000
240.759964	146.120000
240.852737	145.780000
240.945526	145.660000
241.038315	145.380000
241.131088	145.680000
241.223877	145.900000
241.316650	145.900000
241.409439	146.000000
241.502228	145.700000
241.595001	146.280000
241.687790	146.240000
241.780579	146.740000
241.873367	146.760000
241.966141	146.720000
242.058929	146.020000
242.151718	146.320000
242.244507	146.540000
242.337311	145.860000
242.430099	146.580000
242.522903	146.880000
242.615692	146.100000
242.708481	145.920000
242.801270	146.620000
242.894073	146.200000
242.986862	146.320000
243.079651	147.060000
243.172455	146.700000
243.265244	146.820000
243.358063	146.140000
243.450867	146.420000
243.543655	146.540000
243.636459	146.900000
243.729263	147.020000
243.822067	147.580000
243.914856	147.520000
244.007660	147.440000
244.100464	147.360000
244.193268	146.920000
244.286072	146.760000
244.378876	146.040000
244.471680	145.760000
244.564499	145.860000
244.657318	146.580000
244.750122	147.020000
244.842926	146.620000
244.935745	146.960000
245.028549	146.580000
245.121368	146.000000
245.214172	145.600000
245.306992	146.580000
245.399796	146.180000
245.492615	146.200000
245.585434	146.100000
245.678253	146.080000
245.771072	145.760000
245.863892	146.080000
245.956711	146.520000
246.049530	146.500000
246.142349	146.480000
246.235168	146.560000
246.327988	147.100000
246.420807	146.780000
246.513626	146.780000
246.606445	146.800000
246.699280	146.940000
246.792099	146.540000
246.884918	146.420000
246.977753	146.100000
247.070587	146.080000
247.163422	145.740000
247.256241	145.500000
247.349075	146.020000
247.441895	146.260000
247.534729	146.180000
247.627563	146.200000
247.720383	146.880000
247.813217	146.360000
247.906052	146.260000
247.998886	146.300000
248.091736	146.360000
248.184570	145.760000
248.277405	145.860000
248.370239	146.640000
248.463074	147.480000
248.555908	147.720000
248.648743	147.520000
248.741592	147.680000
248.834427	146.860000
248.927261	145.740000
249.020111	145.940000
249.112946	146.840000
249.205795	146.400000
249.298630	146.820000
249.391495	147.100000
249.484344	146.920000
249.577179	146.480000
249.670029	147.020000
249.762878	147.240000
249.855728	147.700000
249.948563	147.640000
250.041412	147.240000
250.134262	147.220000
250.227112	147.220000
250.319962	146.920000
250.412827	146.800000
250.505692	146.460000
250.598541	146.380000
250.691391	145.920000
250.784241	146.040000
250.877106	146.240000
250.969955	146.420000
251.062805	146.900000
251.155670	147.480000
251.248520	146.980000
251.341385	147.040000
251.434235	147.320000
251.527100	146.820000
251.619965	146.240000
251.712814	146.900000
251.805695	146.980000
251.898560	146.760000
251.991425	146.780000
252.084290	147.040000
252.177155	146.260000
252.270020	145.880000
252.362885	146.160000
252.455750	146.240000
252.548615	145.860000
252.641479	146.360000
252.734360	146.360000
252.827240	145.860000
252.920105	145.680000
253.012970	145.660000
253.105850	145.540000
253.198715	145.220000
253.291595	145.500000
253.384460	145.420000
253.477341	145.620000
253.570221	145.580000
253.663086	145.620000
253.755966	146.340000
253.848846	146.340000
253.941727	146.480000
254.034592	146.560000
254.127472	145.940000
254.220367	145.260000
254.313248	145.340000
254.406128	145.140000
254.499008	145.360000
254.591904	146.540000
254.684784	147.180000
254.777664	147.280000
254.870544	147.340000
254.963440	147.160000
255.056335	147.160000
255.149216	146.440000
255.242111	146.960000
255.334991	147.000000
255.427887	146.980000
255.520767	146.820000
255.613663	147.240000
255.706558	146.500000
255.799438	146.300000
255.892334	146.280000
255.985229	146.200000
256.078125	145.900000
256.171021	146.120000
256.263916	146.500000
256.356812	146.600000
256.449707	146.580000
256.542603	146.420000
256.635498	146.880000
256.728394	147.000000
256.821289	147.020000
256.914215	147.140000
257.007080	147.720000
257.100006	147.520000
257.192932	147.720000
257.285828	147.740000
257.378723	147.640000
257.471619	147.100000
257.564545	146.360000
257.657440	145.960000
257.750336	146.440000
257.843262	146.120000
257.936157	147.360000
258.029053	147.900000
258.121979	148.240000
258.214874	147.760000
258.307800	147.680000
258.400696	146.060000
258.493622	146.100000
258.586517	145.120000
258.679443	145.220000
258.772339	145.220000
258.865265	145.400000
258.958160	144.780000
259.051086	145.600000
259.144012	145.280000
259.236938	146.060000
259.329834	146.480000
259.422791	146.520000
259.515717	145.980000
259.608612	145.980000
259.701538	145.760000
259.794464	145.480000
259.887390	145.700000
259.980316	145.760000
260.073212	145.440000
260.166138	144.640000
260.259064	145.080000
260.351990	145.860000
260.444916	146.040000
260.537842	146.660000
260.630768	147.700000
260.723694	147.620000
260.816620	147.100000
260.909546	146.940000
261.002472	146.580000
261.095398	146.040000
261.188354	145.640000
261.281281	145.320000
261.374207	145.660000
261.467133	146.460000
261.560089	146.480000
261.653015	146.380000
261.745972	146.900000
261.838867	146.940000
261.931824	146.780000
262.024780	146.480000
262.117706	147.220000
262.210663	147.300000
262.303589	147.100000
262.396515	146.960000
262.489471	147.860000
262.582397	147.300000
262.675354	146.920000
262.768280	146.960000
262.861237	146.720000
262.954163	146.300000
263.047119	146.440000
263.140045	146.300000
263.233002	146.180000
263.325958	146.080000
263.418884	145.760000
263.511841	145.800000
263.604797	146.120000
263.697723	146.140000
263.790680	146.120000
263.883636	146.840000
263.976593	146.680000
264.069550	146.740000
264.162476	146.720000
264.255463	146.940000
264.348419	146.320000
264.441376	146.800000
264.534332	146.160000
264.627289	146.140000
264.720245	146.620000
264.813202	146.400000
264.906158	146.280000
264.999115	146.940000
265.092072	147.040000
265.185028	147.060000
265.277985	147.500000
265.370941	147.220000
265.463898	146.900000
265.556854	146.560000
265.649811	145.600000
265.742798	145.680000
265.835754	145.940000
265.928711	146.240000
266.021667	146.760000
266.114655	147.340000
266.207611	147.220000
266.300568	146.500000
266.393585	146.080000
266.486511	146.060000
266.579498	145.440000
266.672485	145.360000
266.765442	145.760000
266.858429	145.960000
266.951385	145.320000
267.044342	145.560000
267.137329	145.420000
267.230316	145.560000
267.323273	145.460000
267.416260	146.320000
267.509216	146.400000
267.602203	146.560000
267.695160	146.800000
267.788147	147.080000
267.881134	146.580000
267.974091	146.620000
268.067078	146.380000
268.160065	146.200000
268.253052	145.980000
268.346008	146.140000
268.438995	145.960000
268.531982	146.140000
268.624969	145.860000
268.717987	146.140000
268.810944	146.160000
268.903961	146.440000
268.996948	146.340000
269.089905	146.840000
269.182892	146.760000
269.275879	146.820000
269.368866	146.520000
269.461853	146.780000
269.554871	146.720000
269.647858	146.640000
269.740845	146.900000
269.833832	147.000000
269.926819	146.660000
270.019806	146.540000
270.112793	146.200000
270.205811	145.900000
270.298798	145.760000
270.391785	146.420000
270.484772	146.180000
270.577789	146.240000
270.670776	146.020000
270.763763	146.140000
270.856750	146.040000
270.949768	145.740000
271.042786	146.040000
271.135773	146.020000
271.228790	146.260000
271.321808	145.700000
271.414795	145.880000
271.507782	145.600000
271.600800	145.540000
271.693817	145.680000
271.786804	146.180000
271.879822	146.320000
271.972809	146.240000
272.065826	146.740000
272.158844	146.240000
272.251831	146.840000
272.344849	146.900000
272.437866	147.020000
272.530853	146.940000
272.623871	147.260000
272.716888	146.020000
272.809906	146.240000
272.902893	146.280000
272.995911	145.760000
273.088928	145.920000
273.181946	146.280000
273.274963	145.740000
273.367981	145.680000
273.460999	146.120000
273.554047	146.180000
273.647003	146.840000
273.740051	147.140000
273.833069	147.300000
273.926086	147.200000
274.019135	146.720000
274.112152	146.000000
274.205170	145.940000
274.298187	146.220000
274.391205	145.660000
274.484222	145.860000
274.577240	145.940000
274.670258	145.740000
274.763306	145.340000
274.856323	146.040000
274.949341	146.060000
275.042358	146.540000
275.135406	146.660000
275.228424	146.800000
275.321442	146.620000
275.414490	146.380000
275.507507	146.580000
275.600525	146.880000
275.693573	146.500000
275.786591	146.220000
275.879669	146.480000
275.972656	145.700000
276.065735	145.400000
276.158752	146.180000
276.251801	146.900000
276.344818	146.960000
276.437866	147.100000
276.530884	147.100000
276.623932	146.280000
276.716980	146.240000
276.809998	146.300000
276.903046	146.400000
276.996094	147.160000
277.089111	148.060000
277.182159	148.500000
277.275208	148.160000
277.368256	148.280000
277.461304	147.700000
277.554321	146.900000
277.647369	146.240000
277.740417	146.080000
277.833466	145.820000
277.926514	145.820000
278.019562	146.600000
278.112610	146.160000
278.205688	146.340000
278.298706	146.660000
278.391785	146.460000
278.484833	145.760000
278.577881	145.980000
278.670929	146.440000
278.763977	146.300000
278.857025	146.740000
278.950073	146.860000
279.043121	146.620000
279.136169	146.440000
279.229248	146.300000
279.322296	146.180000
279.415344	146.080000
279.508392	146.280000
279.601440	146.060000
279.694519	145.540000
279.787567	145.300000
279.880615	145.400000
279.973694	145.160000
280.066742	145.220000
280.159790	145.920000
280.252869	145.680000
280.345917	145.640000
280.438995	145.700000
280.532074	145.640000
280.625122	145.940000
280.718201	147.120000
280.811279	147.160000
280.904327	147.100000
280.997406	147.400000
281.090454	147.080000
281.183533	146.160000
281.276581	146.200000
281.369659	146.180000
281.462738	145.880000
281.555786	145.840000
281.648865	146.080000
281.741943	145.840000
281.835022	146.440000
281.928070	146.420000
282.021149	146.460000
282.114227	146.060000
282.207306	146.260000
282.300385	146.280000
282.393433	146.460000
282.486511	146.620000
282.579590	147.280000
282.672668	147.360000
282.765747	146.820000
282.858856	146.640000
282.951904	146.740000
283.045013	146.860000
283.138062	147.120000
283.231171	147.440000
283.324249	147.900000
283.417328	147.520000
283.510406	147.000000
283.603485	146.900000
283.696564	146.700000
283.789642	146.460000
283.882751	146.360000
283.975830	146.680000
284.068909	145.860000
284.161987	146.420000
284.255066	146.060000
284.348175	146.040000
284.441254	145.640000
284.534332	146.360000
284.627441	145.760000
284.720520	145.760000
284.813599	146.020000
284.906708	146.180000
284.999786	145.620000
285.092896	145.540000
285.185974	146.460000
285.279053	145.720000
285.372192	145.920000
285.465240	146.920000
285.558380	146.780000
285.651459	146.040000
285.744568	146.940000
285.837677	146.480000
285.930756	146.060000
286.023865	146.540000
286.116943	146.160000
286.210052	146.420000
286.303162	146.600000
286.396240	146.680000
286.489349	146.460000
286.582458	146.820000
286.675568	146.140000
286.768646	146.080000
286.861755	146.340000
286.954865	146.840000
287.047974	146.420000
287.141083	146.620000
287.234161	146.640000
287.327271	146.200000
287.420380	146.400000
287.513519	146.280000
287.606598	146.300000
287.699738	146.360000
287.792816	146.520000
287.885956	145.960000
287.979034	146.620000
288.072174	146.520000
288.165283	146.360000
288.258392	146.260000
288.351501	145.860000
288.444611	145.740000
288.537720	145.920000
288.630859	146.080000
288.723969	146.160000
288.817078	146.720000
288.910187	146.640000
289.003296	146.200000
289.096436	145.620000
289.189545	145.320000
289.282654	144.800000
289.375763	145.160000
289.468903	145.440000
289.562012	146.020000
289.655121	146.120000
289.748260	146.420000
289.841400	146.640000
289.934509	146.620000
290.027649	146.780000
290.120728	146.640000
290.213898	146.720000
290.306976	146.080000
290.400146	146.160000
290.493256	145.780000
290.586395	146.260000
290.679535	146.680000
290.772644	146.600000
290.865784	145.780000
290.958893	145.600000
291.052032	145.100000
291.145172	144.780000
291.238281	144.620000
291.331421	144.880000
291.424561	145.360000
291.517670	145.180000
291.610809	144.960000
291.703949	145.060000
291.797089	145.500000
291.890228	145.100000
291.983337	145.360000
292.076477	145.260000
292.169617	145.500000
292.262756	145.660000
292.355927	145.640000
292.449036	145.380000
292.542206	145.620000
292.635315	145.840000
292.728485	145.680000
292.821625	145.580000
292.914764	146.560000
293.007904	146.600000
293.101044	146.500000
293.194183	146.500000
293.287323	146.880000
293.380463	146.240000
293.473602	145.900000
293.566742	146.080000
293.659882	146.380000
293.753021	146.700000
293.846191	146.500000
293.939331	146.360000
294.032471	145.980000
294.125610	145.540000
294.218781	145.560000
294.311920	146.060000
294.405060	146.180000
294.498230	146.260000
294.591370	146.500000
294.684540	145.560000
294.777679	145.080000
294.870850	145.440000
294.963959	145.280000
295.057159	145.080000
295.150299	145.760000
295.243469	145.560000
295.336609	145.000000
295.429779	144.940000
295.522919	145.380000
295.616089	145.200000
295.709229	146.040000
295.802399	146.140000
295.895569	146.180000
295.988708	145.900000
296.081879	145.980000
296.175018	145.420000
296.268188	145.380000
296.361359	145.660000
296.454529	145.720000
296.547668	145.620000
296.640839	145.700000
296.734009	146.000000
296.827179	146.300000
296.920319	146.260000
297.013519	145.980000
297.106659	146.160000
297.199860	145.940000
297.292999	145.540000
297.386200	145.160000
297.479309	145.320000
297.572510	145.120000
297.665680	144.880000
297.758850	144.900000
297.852020	144.920000
297.945190	144.680000
298.038361	144.400000
298.131531	145.740000
298.224701	145.540000
298.317871	145.220000
298.411072	145.240000
298.504242	145.360000
298.597412	144.440000
298.690582	144.840000
298.783752	145.360000
298.876923	146.020000
298.970093	146.120000
299.063293	146.660000
299.156464	146.840000
299.249634	146.880000
299.342834	146.840000
299.436005	147.220000
299.529205	146.920000
299.622345	146.820000
299.715576	146.460000
299.808716	146.020000
299.901917	146.000000
299.995117	146.240000
300.088287	146.400000
300.181488	146.340000
300.274658	146.320000
300.367828	146.200000
300.461029	145.740000
300.554199	145.720000
300.647400	145.800000
300.740601	146.360000
300.833771	146.340000
300.926971	146.840000
301.020142	146.320000
301.113342	146.440000
301.206512	146.220000
301.299713	146.200000
301.392914	146.040000
301.486084	146.520000
301.579285	146.480000
301.672516	146.720000
301.765686	146.580000
301.858887	146.340000
301.952057	146.340000
302.045288	146.800000
302.138458	146.440000
302.231659	146.260000
302.324860	146.300000
302.418060	145.760000
302.511261	145.400000
302.604462	145.620000
302.697662	145.840000
302.790863	145.800000
302.884064	145.760000
302.977264	145.940000
303.070465	146.200000
303.163666	146.480000
303.256866	146.820000
303.350067	147.120000
303.443268	146.960000
303.536469	146.780000
303.629669	146.320000
303.722870	146.240000
303.816071	145.660000
303.909271	145.820000
304.002472	145.220000
304.095673	145.080000
304.188934	144.460000
304.282104	145.760000
304.375336	145.780000
304.468506	145.820000
304.561768	145.880000
304.654968	146.500000
304.748169	145.700000
304.841370	145.460000
304.934601	145.960000
305.027802	145.580000
305.121002	145.000000
305.214233	145.040000
305.307434	145.080000
305.400665	145.540000
305.493866	145.760000
