Model Number: SPM-002-B   
Serial Number: 70087108
Firmware Version: 004.15.4
Exposure Time: 100000.000000us
Data Taken on: 11-12-2020 19:39:55.386
Wavelength	Amplitude
221.570786	0.000000
221.663406	0.000000
221.756027	0.000000
221.848648	0.000000
221.941269	0.000000
222.033905	0.000000
222.126526	0.000000
222.219162	0.000000
222.311798	0.000000
222.404419	0.000000
222.497055	0.000000
222.589676	0.000000
222.682312	0.000000
222.774933	0.000000
222.867569	0.000000
222.960205	0.000000
223.052841	0.000000
223.145462	0.000000
223.238098	0.000000
223.330734	0.000000
223.423386	0.000000
223.516022	0.000000
223.608658	0.000000
223.701309	0.000000
223.793945	0.000000
223.886581	0.000000
223.979218	0.000000
224.071869	0.000000
224.164505	0.000000
224.257156	0.000000
224.349792	0.000000
224.442444	0.000000
224.535095	0.000000
224.627747	0.000000
224.720398	0.000000
224.813034	0.000000
224.905685	0.000000
224.998337	145.480000
225.090988	145.860000
225.183640	145.760000
225.276291	145.260000
225.368942	145.560000
225.461594	146.120000
225.554245	145.860000
225.646912	146.000000
225.739578	146.680000
225.832230	147.180000
225.924896	146.440000
226.017548	147.060000
226.110199	147.380000
226.202866	146.660000
226.295532	146.540000
226.388184	146.460000
226.480850	145.800000
226.573517	145.340000
226.666168	145.600000
226.758835	145.840000
226.851501	146.460000
226.944183	146.660000
227.036850	146.200000
227.129517	146.360000
227.222183	146.400000
227.314850	146.300000
227.407516	146.600000
227.500198	147.620000
227.592865	147.300000
227.685532	146.740000
227.778214	146.420000
227.870880	146.540000
227.963562	146.820000
228.056229	146.920000
228.148926	147.020000
228.241592	147.920000
228.334274	147.140000
228.426956	146.380000
228.519638	146.560000
228.612305	145.840000
228.704987	145.380000
228.797668	145.880000
228.890350	145.840000
228.983032	145.060000
229.075714	146.240000
229.168396	145.980000
229.261108	145.400000
229.353790	145.700000
229.446472	146.480000
229.539169	146.200000
229.631851	145.820000
229.724533	146.400000
229.817230	146.500000
229.909912	147.300000
230.002609	147.060000
230.095306	147.320000
230.187988	147.120000
230.280685	147.000000
230.373383	145.580000
230.466095	145.640000
230.558792	145.880000
230.651474	146.000000
230.744171	145.980000
230.836868	146.320000
230.929581	146.400000
231.022278	146.420000
231.114975	146.380000
231.207672	145.940000
231.300369	146.480000
231.393082	146.640000
231.485779	146.520000
231.578506	146.300000
231.671204	146.880000
231.763916	146.580000
231.856613	146.540000
231.949326	146.540000
232.042023	146.680000
232.134735	146.560000
232.227448	146.320000
232.320160	146.720000
232.412872	146.720000
232.505585	147.240000
232.598297	147.340000
232.691010	147.240000
232.783722	146.880000
232.876450	147.820000
232.969162	147.260000
233.061874	146.960000
233.154587	146.600000
233.247314	146.560000
233.340027	145.740000
233.432739	146.560000
233.525467	146.640000
233.618179	147.320000
233.710907	147.040000
233.803635	147.440000
233.896347	146.640000
233.989090	147.120000
234.081818	146.860000
234.174545	147.160000
234.267258	146.620000
234.359985	147.060000
234.452713	146.640000
234.545441	146.740000
234.638168	146.480000
234.730896	146.740000
234.823639	146.640000
234.916367	146.920000
235.009094	147.000000
235.101822	146.980000
235.194580	146.840000
235.287308	146.620000
235.380051	146.020000
235.472778	146.060000
235.565521	146.240000
235.658249	146.140000
235.750992	146.360000
235.843719	146.420000
235.936462	146.460000
236.029205	146.340000
236.121948	146.060000
236.214691	146.220000
236.307449	147.000000
236.400192	146.660000
236.492935	146.800000
236.585678	147.120000
236.678421	147.200000
236.771164	146.740000
236.863907	147.500000
236.956665	147.400000
237.049408	148.840000
237.142151	148.160000
237.234909	148.700000
237.327652	148.380000
237.420410	148.220000
237.513153	147.020000
237.605927	147.300000
237.698669	146.700000
237.791428	146.260000
237.884186	146.420000
237.976944	146.140000
238.069702	146.460000
238.162445	146.060000
238.255203	146.400000
238.347961	147.300000
238.440720	147.280000
238.533478	147.040000
238.626266	146.960000
238.719025	146.900000
238.811783	146.140000
238.904541	146.040000
238.997314	145.640000
239.090073	145.620000
239.182831	145.800000
239.275604	146.520000
239.368362	146.700000
239.461136	147.140000
239.553909	147.380000
239.646667	146.920000
239.739441	146.320000
239.832214	146.360000
239.925003	146.180000
240.017761	146.720000
240.110535	147.540000
240.203308	147.160000
240.296082	147.440000
240.388855	147.340000
240.481628	147.320000
240.574417	147.220000
240.667191	147.440000
240.759964	146.880000
240.852737	147.020000
240.945526	146.540000
241.038315	146.220000
241.131088	146.400000
241.223877	146.680000
241.316650	146.360000
241.409439	146.560000
241.502228	145.920000
241.595001	145.960000
241.687790	145.560000
241.780579	145.740000
241.873367	145.960000
241.966141	146.660000
242.058929	146.280000
242.151718	146.900000
242.244507	147.240000
242.337311	146.500000
242.430099	146.880000
242.522903	147.080000
242.615692	146.560000
242.708481	146.600000
242.801270	147.160000
242.894073	146.840000
242.986862	146.940000
243.079651	147.620000
243.172455	147.000000
243.265244	147.240000
243.358063	146.700000
243.450867	147.060000
243.543655	146.800000
243.636459	147.000000
243.729263	147.080000
243.822067	147.520000
243.914856	147.380000
244.007660	147.160000
244.100464	147.380000
244.193268	146.920000
244.286072	146.700000
244.378876	146.240000
244.471680	146.120000
244.564499	146.280000
244.657318	146.920000
244.750122	147.360000
244.842926	147.120000
244.935745	147.640000
245.028549	146.960000
245.121368	146.460000
245.214172	146.360000
245.306992	147.040000
245.399796	146.780000
245.492615	147.260000
245.585434	146.920000
245.678253	146.620000
245.771072	146.220000
245.863892	146.460000
245.956711	146.760000
246.049530	146.920000
246.142349	146.660000
246.235168	146.980000
246.327988	147.320000
246.420807	147.080000
246.513626	147.200000
246.606445	147.060000
246.699280	146.700000
246.792099	146.080000
246.884918	145.800000
246.977753	145.560000
247.070587	146.000000
247.163422	145.980000
247.256241	146.100000
247.349075	146.480000
247.441895	146.880000
247.534729	146.580000
247.627563	146.360000
247.720383	147.000000
247.813217	146.600000
247.906052	146.260000
247.998886	146.460000
248.091736	146.440000
248.184570	145.820000
248.277405	145.800000
248.370239	146.660000
248.463074	147.480000
248.555908	147.780000
248.648743	147.320000
248.741592	147.660000
248.834427	146.780000
248.927261	145.640000
249.020111	146.100000
249.112946	147.160000
249.205795	146.480000
249.298630	146.840000
249.391495	147.180000
249.484344	146.780000
249.577179	146.240000
249.670029	146.840000
249.762878	147.140000
249.855728	147.360000
249.948563	147.520000
250.041412	146.940000
250.134262	147.080000
250.227112	146.900000
250.319962	146.780000
250.412827	146.720000
250.505692	146.620000
250.598541	146.580000
250.691391	146.160000
250.784241	146.180000
250.877106	146.140000
250.969955	146.200000
251.062805	146.660000
251.155670	147.420000
251.248520	147.120000
251.341385	147.280000
251.434235	147.560000
251.527100	147.180000
251.619965	146.520000
251.712814	147.280000
251.805695	147.240000
251.898560	147.320000
251.991425	147.280000
252.084290	147.380000
252.177155	146.400000
252.270020	146.240000
252.362885	146.200000
252.455750	146.400000
252.548615	146.100000
252.641479	146.220000
252.734360	145.780000
252.827240	145.600000
252.920105	145.300000
253.012970	145.340000
253.105850	145.340000
253.198715	145.420000
253.291595	145.500000
253.384460	145.260000
253.477341	145.260000
253.570221	145.600000
253.663086	145.420000
253.755966	146.080000
253.848846	146.200000
253.941727	146.240000
254.034592	146.000000
254.127472	145.740000
254.220367	145.560000
254.313248	145.780000
254.406128	145.680000
254.499008	145.860000
254.591904	146.960000
254.684784	147.360000
254.777664	147.380000
254.870544	147.300000
254.963440	147.180000
255.056335	147.100000
255.149216	146.380000
255.242111	146.680000
255.334991	147.360000
255.427887	147.720000
255.520767	147.340000
255.613663	147.540000
255.706558	146.780000
255.799438	145.960000
255.892334	145.620000
255.985229	145.580000
256.078125	145.380000
256.171021	145.700000
256.263916	146.360000
256.356812	146.400000
256.449707	146.400000
256.542603	146.260000
256.635498	146.660000
256.728394	146.540000
256.821289	146.340000
256.914215	146.800000
257.007080	147.140000
257.100006	147.200000
257.192932	147.620000
257.285828	147.860000
257.378723	147.480000
257.471619	147.120000
257.564545	146.220000
257.657440	146.060000
257.750336	146.500000
257.843262	146.160000
257.936157	147.440000
258.029053	147.980000
258.121979	148.100000
258.214874	147.900000
258.307800	148.080000
258.400696	146.860000
258.493622	146.720000
258.586517	145.780000
258.679443	145.900000
258.772339	145.740000
258.865265	145.580000
258.958160	145.260000
259.051086	146.140000
259.144012	145.880000
259.236938	146.520000
259.329834	146.900000
259.422791	146.940000
259.515717	146.340000
259.608612	146.220000
259.701538	146.440000
259.794464	146.100000
259.887390	146.160000
259.980316	145.980000
260.073212	145.480000
260.166138	144.300000
260.259064	145.080000
260.351990	145.680000
260.444916	146.040000
260.537842	146.920000
260.630768	147.940000
260.723694	147.460000
260.816620	147.320000
260.909546	147.260000
261.002472	146.700000
261.095398	146.200000
261.188354	146.220000
261.281281	145.800000
261.374207	145.980000
261.467133	146.720000
261.560089	147.020000
261.653015	146.700000
261.745972	147.500000
261.838867	147.640000
261.931824	147.640000
262.024780	146.900000
262.117706	147.520000
262.210663	147.240000
262.303589	147.320000
262.396515	147.140000
262.489471	148.140000
262.582397	147.680000
262.675354	147.060000
262.768280	146.940000
262.861237	147.060000
262.954163	146.700000
263.047119	146.880000
263.140045	146.620000
263.233002	146.300000
263.325958	145.760000
263.418884	145.400000
263.511841	145.380000
263.604797	145.540000
263.697723	145.800000
263.790680	146.020000
263.883636	146.340000
263.976593	146.380000
264.069550	146.900000
264.162476	146.600000
264.255463	146.480000
264.348419	146.400000
264.441376	146.340000
264.534332	145.780000
264.627289	146.040000
264.720245	146.340000
264.813202	146.080000
264.906158	146.300000
264.999115	146.880000
265.092072	147.020000
265.185028	147.440000
265.277985	147.480000
265.370941	147.220000
265.463898	147.000000
265.556854	146.740000
265.649811	145.740000
265.742798	146.020000
265.835754	146.120000
265.928711	146.600000
266.021667	146.820000
266.114655	147.060000
266.207611	147.340000
266.300568	146.720000
266.393585	145.880000
266.486511	146.100000
266.579498	145.520000
266.672485	145.200000
266.765442	145.540000
266.858429	146.300000
266.951385	145.660000
267.044342	146.160000
267.137329	145.880000
267.230316	146.140000
267.323273	145.580000
267.416260	146.240000
267.509216	146.100000
267.602203	146.020000
267.695160	146.420000
267.788147	146.740000
267.881134	146.080000
267.974091	146.540000
268.067078	146.660000
268.160065	146.360000
268.253052	146.520000
268.346008	146.500000
268.438995	146.040000
268.531982	146.100000
268.624969	145.680000
268.717987	145.600000
268.810944	145.780000
268.903961	146.020000
268.996948	146.080000
269.089905	146.760000
269.182892	146.560000
269.275879	146.880000
269.368866	146.460000
269.461853	146.500000
269.554871	146.060000
269.647858	146.160000
269.740845	146.320000
269.833832	146.860000
269.926819	146.900000
270.019806	146.940000
270.112793	146.500000
270.205811	146.220000
270.298798	145.860000
270.391785	146.320000
270.484772	146.180000
270.577789	146.520000
270.670776	146.420000
270.763763	146.440000
270.856750	146.320000
270.949768	146.240000
271.042786	146.200000
271.135773	146.320000
271.228790	146.740000
271.321808	146.140000
271.414795	145.560000
271.507782	145.320000
271.600800	144.720000
271.693817	144.600000
271.786804	145.260000
271.879822	146.040000
271.972809	145.980000
272.065826	146.860000
272.158844	146.500000
272.251831	146.940000
272.344849	147.000000
272.437866	146.880000
272.530853	146.580000
272.623871	147.000000
272.716888	145.860000
272.809906	145.960000
272.902893	146.220000
272.995911	145.440000
273.088928	145.580000
273.181946	145.840000
273.274963	145.460000
273.367981	145.280000
273.460999	145.820000
273.554047	146.040000
273.647003	146.660000
273.740051	146.760000
273.833069	147.180000
273.926086	147.300000
274.019135	146.840000
274.112152	146.480000
274.205170	146.500000
274.298187	146.940000
274.391205	146.360000
274.484222	146.360000
274.577240	146.120000
274.670258	145.980000
274.763306	145.520000
274.856323	146.340000
274.949341	146.300000
275.042358	146.680000
275.135406	146.680000
275.228424	146.560000
275.321442	146.520000
275.414490	146.380000
275.507507	146.860000
275.600525	147.260000
275.693573	147.080000
275.786591	146.620000
275.879669	146.840000
275.972656	145.820000
276.065735	145.580000
276.158752	145.940000
276.251801	146.880000
276.344818	147.000000
276.437866	147.460000
276.530884	147.520000
276.623932	146.820000
276.716980	146.620000
276.809998	146.580000
276.903046	146.220000
276.996094	146.860000
277.089111	147.800000
277.182159	148.020000
277.275208	147.460000
277.368256	147.420000
277.461304	147.160000
277.554321	146.280000
277.647369	145.940000
277.740417	146.240000
277.833466	146.300000
277.926514	145.900000
278.019562	146.920000
278.112610	146.260000
278.205688	146.500000
278.298706	146.700000
278.391785	146.520000
278.484833	145.620000
278.577881	145.600000
278.670929	145.720000
278.763977	145.700000
278.857025	146.060000
278.950073	146.300000
279.043121	146.240000
279.136169	146.060000
279.229248	145.940000
279.322296	145.740000
279.415344	145.640000
279.508392	145.980000
279.601440	146.040000
279.694519	146.240000
279.787567	146.100000
279.880615	145.820000
279.973694	145.940000
280.066742	145.820000
280.159790	145.740000
280.252869	145.740000
280.345917	146.140000
280.438995	145.880000
280.532074	145.940000
280.625122	146.160000
280.718201	147.120000
280.811279	147.100000
280.904327	147.080000
280.997406	147.140000
281.090454	146.940000
281.183533	146.000000
281.276581	145.860000
281.369659	145.360000
281.462738	145.300000
281.555786	145.520000
281.648865	145.680000
281.741943	146.060000
281.835022	147.100000
281.928070	146.940000
282.021149	146.500000
282.114227	146.440000
282.207306	146.120000
282.300385	146.180000
282.393433	146.120000
282.486511	146.360000
282.579590	146.760000
282.672668	147.120000
282.765747	146.360000
282.858856	146.220000
282.951904	146.320000
283.045013	146.380000
283.138062	146.560000
283.231171	147.180000
283.324249	147.640000
283.417328	147.620000
283.510406	147.240000
283.603485	146.860000
283.696564	146.740000
283.789642	146.680000
283.882751	146.740000
283.975830	147.440000
284.068909	147.400000
284.161987	147.660000
284.255066	147.400000
284.348175	147.620000
284.441254	147.120000
284.534332	147.460000
284.627441	147.420000
284.720520	147.180000
284.813599	146.720000
284.906708	146.720000
284.999786	146.220000
285.092896	145.600000
285.185974	146.680000
285.279053	146.420000
285.372192	146.380000
285.465240	147.180000
285.558380	147.240000
285.651459	146.780000
285.744568	147.560000
285.837677	147.180000
285.930756	146.980000
286.023865	147.160000
286.116943	146.680000
286.210052	146.560000
286.303162	146.580000
286.396240	146.240000
286.489349	145.800000
286.582458	146.340000
286.675568	146.040000
286.768646	145.920000
286.861755	146.380000
286.954865	147.480000
287.047974	146.900000
287.141083	146.860000
287.234161	147.140000
287.327271	146.840000
287.420380	146.320000
287.513519	146.480000
287.606598	146.460000
287.699738	146.740000
287.792816	146.360000
287.885956	146.240000
287.979034	146.320000
288.072174	146.540000
288.165283	146.040000
288.258392	146.480000
288.351501	146.380000
288.444611	146.360000
288.537720	146.620000
288.630859	146.700000
288.723969	146.780000
288.817078	146.820000
288.910187	146.820000
289.003296	146.080000
289.096436	145.800000
289.189545	145.240000
289.282654	144.960000
289.375763	145.320000
289.468903	145.840000
289.562012	146.060000
289.655121	146.340000
289.748260	146.720000
289.841400	146.840000
289.934509	146.660000
290.027649	147.140000
290.120728	147.000000
290.213898	146.660000
290.306976	146.620000
290.400146	146.800000
290.493256	146.200000
290.586395	146.460000
290.679535	147.100000
290.772644	146.660000
290.865784	145.780000
290.958893	146.060000
291.052032	145.780000
291.145172	145.620000
291.238281	145.320000
291.331421	145.900000
291.424561	146.400000
291.517670	146.180000
291.610809	146.280000
291.703949	146.520000
291.797089	146.540000
291.890228	145.720000
291.983337	145.980000
292.076477	145.580000
292.169617	146.060000
292.262756	146.180000
292.355927	146.360000
292.449036	146.000000
292.542206	146.200000
292.635315	145.700000
292.728485	145.800000
292.821625	145.720000
292.914764	147.020000
293.007904	146.840000
293.101044	146.740000
293.194183	146.440000
293.287323	146.480000
293.380463	145.700000
293.473602	145.820000
293.566742	146.340000
293.659882	147.080000
293.753021	147.300000
293.846191	147.180000
293.939331	147.120000
294.032471	146.780000
294.125610	146.180000
294.218781	146.580000
294.311920	146.880000
294.405060	146.980000
294.498230	146.920000
294.591370	147.140000
294.684540	146.320000
294.777679	146.000000
294.870850	146.020000
294.963959	146.020000
295.057159	145.640000
295.150299	146.180000
295.243469	146.020000
295.336609	145.620000
295.429779	145.880000
295.522919	146.140000
295.616089	146.260000
295.709229	147.100000
295.802399	147.240000
295.895569	146.920000
295.988708	146.900000
296.081879	146.780000
296.175018	145.880000
296.268188	145.800000
296.361359	146.120000
296.454529	146.300000
296.547668	146.160000
296.640839	146.460000
296.734009	146.300000
296.827179	146.460000
296.920319	146.600000
297.013519	146.380000
297.106659	146.240000
297.199860	146.500000
297.292999	146.420000
297.386200	145.900000
297.479309	146.040000
297.572510	146.300000
297.665680	145.960000
297.758850	145.780000
297.852020	145.780000
297.945190	145.680000
298.038361	145.520000
298.131531	146.600000
298.224701	146.600000
298.317871	146.640000
298.411072	146.440000
298.504242	146.160000
298.597412	145.440000
298.690582	145.640000
298.783752	145.940000
298.876923	146.440000
298.970093	146.840000
299.063293	146.940000
299.156464	146.940000
299.249634	146.900000
299.342834	146.920000
299.436005	147.300000
299.529205	147.180000
299.622345	147.480000
299.715576	146.660000
299.808716	146.280000
299.901917	145.740000
299.995117	146.040000
300.088287	145.840000
300.181488	146.040000
300.274658	145.980000
300.367828	145.980000
300.461029	145.920000
300.554199	146.080000
300.647400	146.480000
300.740601	147.120000
300.833771	146.980000
300.926971	147.360000
301.020142	146.820000
301.113342	146.540000
301.206512	146.280000
301.299713	146.640000
301.392914	146.500000
301.486084	147.020000
301.579285	147.060000
301.672516	147.440000
301.765686	147.160000
301.858887	147.000000
301.952057	146.520000
302.045288	146.800000
302.138458	146.520000
302.231659	146.500000
302.324860	146.220000
302.418060	146.280000
302.511261	146.040000
302.604462	146.100000
302.697662	146.080000
302.790863	145.920000
302.884064	145.500000
302.977264	145.420000
303.070465	145.660000
303.163666	146.240000
303.256866	146.620000
303.350067	146.720000
303.443268	146.780000
303.536469	146.640000
303.629669	146.000000
303.722870	146.060000
303.816071	145.900000
303.909271	146.340000
304.002472	145.620000
304.095673	145.620000
304.188934	144.900000
304.282104	146.180000
304.375336	145.720000
304.468506	145.980000
304.561768	145.960000
304.654968	146.760000
304.748169	145.840000
304.841370	145.960000
304.934601	146.320000
305.027802	146.180000
305.121002	145.860000
305.214233	145.780000
305.307434	145.820000
305.400665	146.280000
305.493866	146.220000
