Model Number: SPM-002-B   
Serial Number: 70087108
Firmware Version: 004.15.4
Exposure Time: 100000.000000us
Data Taken on: 11-12-2020 19:40:34.837
Wavelength	Amplitude
221.570786	0.000000
221.663406	0.000000
221.756027	0.000000
221.848648	0.000000
221.941269	0.000000
222.033905	0.000000
222.126526	0.000000
222.219162	0.000000
222.311798	0.000000
222.404419	0.000000
222.497055	0.000000
222.589676	0.000000
222.682312	0.000000
222.774933	0.000000
222.867569	0.000000
222.960205	0.000000
223.052841	0.000000
223.145462	0.000000
223.238098	0.000000
223.330734	0.000000
223.423386	0.000000
223.516022	0.000000
223.608658	0.000000
223.701309	0.000000
223.793945	0.000000
223.886581	0.000000
223.979218	0.000000
224.071869	0.000000
224.164505	0.000000
224.257156	0.000000
224.349792	0.000000
224.442444	0.000000
224.535095	0.000000
224.627747	0.000000
224.720398	0.000000
224.813034	0.000000
224.905685	0.000000
224.998337	145.620000
225.090988	145.680000
225.183640	145.780000
225.276291	145.160000
225.368942	145.280000
225.461594	145.760000
225.554245	145.820000
225.646912	145.960000
225.739578	146.580000
225.832230	147.080000
225.924896	146.260000
226.017548	146.820000
226.110199	147.380000
226.202866	146.560000
226.295532	146.520000
226.388184	146.680000
226.480850	145.960000
226.573517	145.400000
226.666168	145.900000
226.758835	146.060000
226.851501	146.480000
226.944183	146.660000
227.036850	146.160000
227.129517	146.260000
227.222183	145.980000
227.314850	146.040000
227.407516	145.880000
227.500198	146.740000
227.592865	146.540000
227.685532	146.500000
227.778214	145.880000
227.870880	146.540000
227.963562	146.480000
228.056229	146.560000
228.148926	146.320000
228.241592	147.420000
228.334274	146.920000
228.426956	146.880000
228.519638	146.700000
228.612305	146.220000
228.704987	145.940000
228.797668	146.220000
228.890350	145.740000
228.983032	145.600000
229.075714	146.800000
229.168396	146.340000
229.261108	145.720000
229.353790	145.920000
229.446472	146.020000
229.539169	145.600000
229.631851	145.680000
229.724533	145.980000
229.817230	146.200000
229.909912	147.000000
230.002609	146.980000
230.095306	147.060000
230.187988	147.160000
230.280685	146.900000
230.373383	146.100000
230.466095	145.700000
230.558792	145.760000
230.651474	145.860000
230.744171	145.720000
230.836868	145.560000
230.929581	146.100000
231.022278	146.220000
231.114975	146.020000
231.207672	146.100000
231.300369	146.480000
231.393082	146.060000
231.485779	145.680000
231.578506	145.620000
231.671204	145.460000
231.763916	145.340000
231.856613	145.480000
231.949326	145.580000
232.042023	145.560000
232.134735	145.660000
232.227448	145.280000
232.320160	145.580000
232.412872	145.700000
232.505585	146.280000
232.598297	146.980000
232.691010	146.960000
232.783722	146.500000
232.876450	146.940000
232.969162	146.580000
233.061874	145.820000
233.154587	145.580000
233.247314	145.760000
233.340027	144.900000
233.432739	145.200000
233.525467	145.600000
233.618179	146.220000
233.710907	146.180000
233.803635	146.820000
233.896347	146.540000
233.989090	146.740000
234.081818	146.420000
234.174545	146.400000
234.267258	145.960000
234.359985	146.160000
234.452713	145.900000
234.545441	145.800000
234.638168	145.720000
234.730896	146.240000
234.823639	145.860000
234.916367	146.540000
235.009094	146.880000
235.101822	147.200000
235.194580	146.980000
235.287308	147.180000
235.380051	146.220000
235.472778	146.300000
235.565521	146.360000
235.658249	145.860000
235.750992	145.680000
235.843719	145.600000
235.936462	145.980000
236.029205	145.520000
236.121948	145.320000
236.214691	145.820000
236.307449	146.620000
236.400192	146.020000
236.492935	146.040000
236.585678	146.440000
236.678421	146.020000
236.771164	145.620000
236.863907	146.320000
236.956665	146.520000
237.049408	148.120000
237.142151	147.600000
237.234909	147.920000
237.327652	147.720000
237.420410	147.620000
237.513153	146.340000
237.605927	146.680000
237.698669	146.240000
237.791428	145.720000
237.884186	146.060000
237.976944	145.500000
238.069702	145.980000
238.162445	145.660000
238.255203	145.760000
238.347961	146.020000
238.440720	146.320000
238.533478	146.000000
238.626266	145.940000
238.719025	146.020000
238.811783	145.680000
238.904541	145.480000
238.997314	145.420000
239.090073	145.280000
239.182831	145.560000
239.275604	146.240000
239.368362	146.520000
239.461136	146.520000
239.553909	146.800000
239.646667	146.680000
239.739441	145.940000
239.832214	146.160000
239.925003	146.220000
240.017761	146.700000
240.110535	147.080000
240.203308	146.560000
240.296082	146.540000
240.388855	146.660000
240.481628	146.520000
240.574417	146.540000
240.667191	146.980000
240.759964	146.580000
240.852737	146.260000
240.945526	145.980000
241.038315	145.620000
241.131088	145.800000
241.223877	146.100000
241.316650	146.220000
241.409439	146.540000
241.502228	146.040000
241.595001	146.440000
241.687790	146.180000
241.780579	146.000000
241.873367	146.160000
241.966141	146.540000
242.058929	145.600000
242.151718	145.900000
242.244507	146.660000
242.337311	145.960000
242.430099	146.320000
242.522903	146.800000
242.615692	146.440000
242.708481	146.260000
242.801270	146.740000
242.894073	146.440000
242.986862	146.540000
243.079651	147.040000
243.172455	146.440000
243.265244	146.560000
243.358063	146.020000
243.450867	146.400000
243.543655	146.300000
243.636459	146.520000
243.729263	146.860000
243.822067	147.340000
243.914856	147.400000
244.007660	147.220000
244.100464	147.320000
244.193268	146.740000
244.286072	146.720000
244.378876	145.920000
244.471680	145.860000
244.564499	146.260000
244.657318	146.960000
244.750122	147.080000
244.842926	146.800000
244.935745	147.280000
245.028549	146.620000
245.121368	145.800000
245.214172	145.540000
245.306992	145.960000
245.399796	145.420000
245.492615	145.560000
245.585434	145.780000
245.678253	145.820000
245.771072	145.580000
245.863892	145.980000
245.956711	146.180000
246.049530	145.780000
246.142349	145.600000
246.235168	145.880000
246.327988	146.400000
246.420807	146.320000
246.513626	146.660000
246.606445	146.560000
246.699280	146.720000
246.792099	146.200000
246.884918	145.760000
246.977753	145.440000
247.070587	145.740000
247.163422	145.600000
247.256241	145.580000
247.349075	146.260000
247.441895	146.520000
247.534729	146.420000
247.627563	146.420000
247.720383	146.700000
247.813217	145.960000
247.906052	145.720000
247.998886	145.800000
248.091736	145.780000
248.184570	145.280000
248.277405	145.700000
248.370239	146.580000
248.463074	147.520000
248.555908	147.600000
248.648743	147.420000
248.741592	147.800000
248.834427	147.040000
248.927261	145.660000
249.020111	146.020000
249.112946	146.800000
249.205795	146.380000
249.298630	146.620000
249.391495	147.100000
249.484344	146.480000
249.577179	146.240000
249.670029	146.520000
249.762878	146.840000
249.855728	147.100000
249.948563	147.180000
250.041412	146.440000
250.134262	146.560000
250.227112	146.300000
250.319962	146.180000
250.412827	146.360000
250.505692	146.280000
250.598541	146.140000
250.691391	146.080000
250.784241	145.940000
250.877106	146.040000
250.969955	146.320000
251.062805	146.560000
251.155670	146.960000
251.248520	147.000000
251.341385	147.200000
251.434235	147.020000
251.527100	146.740000
251.619965	146.300000
251.712814	146.920000
251.805695	146.660000
251.898560	146.880000
251.991425	147.020000
252.084290	147.400000
252.177155	146.700000
252.270020	146.680000
252.362885	146.820000
252.455750	146.840000
252.548615	146.200000
252.641479	146.080000
252.734360	146.020000
252.827240	145.920000
252.920105	145.860000
253.012970	146.140000
253.105850	146.220000
253.198715	145.940000
253.291595	145.940000
253.384460	145.640000
253.477341	145.400000
253.570221	145.780000
253.663086	145.760000
253.755966	146.620000
253.848846	146.440000
253.941727	146.940000
254.034592	146.680000
254.127472	146.100000
254.220367	145.720000
254.313248	146.140000
254.406128	145.760000
254.499008	145.920000
254.591904	147.240000
254.684784	147.440000
254.777664	147.380000
254.870544	147.340000
254.963440	147.420000
255.056335	147.220000
255.149216	146.600000
255.242111	146.920000
255.334991	147.240000
255.427887	147.280000
255.520767	147.320000
255.613663	147.680000
255.706558	147.260000
255.799438	146.760000
255.892334	146.200000
255.985229	146.000000
256.078125	145.640000
256.171021	146.020000
256.263916	146.920000
256.356812	147.500000
256.449707	147.540000
256.542603	147.380000
256.635498	147.560000
256.728394	146.700000
256.821289	146.120000
256.914215	146.200000
257.007080	146.420000
257.100006	146.240000
257.192932	146.800000
257.285828	147.120000
257.378723	146.960000
257.471619	146.920000
257.564545	146.260000
257.657440	146.400000
257.750336	146.800000
257.843262	146.600000
257.936157	147.840000
258.029053	148.480000
258.121979	148.180000
258.214874	147.460000
258.307800	147.640000
258.400696	146.420000
258.493622	146.080000
258.586517	145.680000
258.679443	146.260000
258.772339	145.780000
258.865265	145.540000
258.958160	145.400000
259.051086	146.040000
259.144012	145.600000
259.236938	146.620000
259.329834	147.020000
259.422791	146.800000
259.515717	146.000000
259.608612	146.040000
259.701538	145.780000
259.794464	145.420000
259.887390	146.120000
259.980316	146.020000
260.073212	145.820000
260.166138	144.760000
260.259064	145.160000
260.351990	145.100000
260.444916	145.480000
260.537842	146.080000
260.630768	147.060000
260.723694	147.180000
260.816620	146.860000
260.909546	146.800000
261.002472	146.520000
261.095398	146.060000
261.188354	145.680000
261.281281	145.700000
261.374207	146.080000
261.467133	146.600000
261.560089	146.860000
261.653015	146.680000
261.745972	147.180000
261.838867	147.180000
261.931824	147.100000
262.024780	146.420000
262.117706	146.820000
262.210663	146.680000
262.303589	146.480000
262.396515	146.440000
262.489471	147.580000
262.582397	147.500000
262.675354	147.040000
262.768280	146.920000
262.861237	146.700000
262.954163	146.480000
263.047119	146.480000
263.140045	146.220000
263.233002	146.500000
263.325958	146.500000
263.418884	145.760000
263.511841	145.700000
263.604797	145.880000
263.697723	145.820000
263.790680	145.740000
263.883636	146.520000
263.976593	146.340000
264.069550	146.560000
264.162476	146.480000
264.255463	146.640000
264.348419	146.300000
264.441376	146.480000
264.534332	146.060000
264.627289	146.160000
264.720245	146.340000
264.813202	145.780000
264.906158	145.920000
264.999115	146.520000
265.092072	146.040000
265.185028	146.360000
265.277985	146.880000
265.370941	146.800000
265.463898	146.640000
265.556854	146.760000
265.649811	145.540000
265.742798	145.520000
265.835754	145.520000
265.928711	145.600000
266.021667	145.680000
266.114655	146.120000
266.207611	146.360000
266.300568	145.740000
266.393585	145.320000
266.486511	145.600000
266.579498	145.300000
266.672485	145.040000
266.765442	145.280000
266.858429	145.780000
266.951385	145.200000
267.044342	145.280000
267.137329	145.120000
267.230316	145.300000
267.323273	145.160000
267.416260	146.280000
267.509216	146.200000
267.602203	146.320000
267.695160	146.880000
267.788147	146.860000
267.881134	145.960000
267.974091	146.280000
268.067078	146.020000
268.160065	145.360000
268.253052	145.160000
268.346008	145.480000
268.438995	145.300000
268.531982	145.860000
268.624969	145.980000
268.717987	146.220000
268.810944	146.060000
268.903961	146.220000
268.996948	145.540000
269.089905	146.120000
269.182892	146.200000
269.275879	146.740000
269.368866	146.360000
269.461853	146.800000
269.554871	146.380000
269.647858	146.360000
269.740845	146.280000
269.833832	146.700000
269.926819	146.480000
270.019806	146.600000
270.112793	146.300000
270.205811	146.040000
270.298798	145.740000
270.391785	146.500000
270.484772	146.120000
270.577789	146.200000
270.670776	145.860000
270.763763	145.980000
270.856750	145.660000
270.949768	145.360000
271.042786	145.540000
271.135773	145.780000
271.228790	146.120000
271.321808	145.540000
271.414795	145.660000
271.507782	145.380000
271.600800	145.260000
271.693817	145.280000
271.786804	145.920000
271.879822	146.260000
271.972809	146.180000
272.065826	146.600000
272.158844	146.300000
272.251831	146.340000
272.344849	146.300000
272.437866	146.120000
272.530853	146.180000
272.623871	146.080000
272.716888	145.440000
272.809906	145.920000
272.902893	146.140000
272.995911	145.400000
273.088928	145.460000
273.181946	145.940000
273.274963	145.440000
273.367981	145.740000
273.460999	146.440000
273.554047	146.920000
273.647003	147.340000
273.740051	147.460000
273.833069	147.700000
273.926086	147.560000
274.019135	147.240000
274.112152	146.700000
274.205170	146.860000
274.298187	146.840000
274.391205	146.240000
274.484222	146.040000
274.577240	145.920000
274.670258	145.520000
274.763306	145.360000
274.856323	145.920000
274.949341	146.000000
275.042358	146.520000
275.135406	146.440000
275.228424	146.460000
275.321442	146.400000
275.414490	146.400000
275.507507	146.840000
275.600525	147.500000
275.693573	147.100000
275.786591	146.580000
275.879669	146.680000
275.972656	145.940000
276.065735	145.640000
276.158752	146.240000
276.251801	147.000000
276.344818	147.140000
276.437866	147.100000
276.530884	146.860000
276.623932	145.960000
276.716980	146.040000
276.809998	146.080000
276.903046	146.160000
276.996094	147.040000
277.089111	147.760000
277.182159	148.100000
277.275208	148.040000
277.368256	148.080000
277.461304	147.580000
277.554321	147.100000
277.647369	146.660000
277.740417	146.600000
277.833466	146.460000
277.926514	146.580000
278.019562	147.200000
278.112610	146.720000
278.205688	146.680000
278.298706	146.820000
278.391785	146.400000
278.484833	145.640000
278.577881	145.680000
278.670929	146.040000
278.763977	146.140000
278.857025	146.560000
278.950073	146.800000
279.043121	146.460000
279.136169	146.260000
279.229248	145.840000
279.322296	145.540000
279.415344	145.460000
279.508392	145.940000
279.601440	145.740000
279.694519	145.920000
279.787567	145.840000
279.880615	145.540000
279.973694	145.260000
280.066742	145.520000
280.159790	145.560000
280.252869	145.440000
280.345917	145.760000
280.438995	145.840000
280.532074	145.660000
280.625122	145.840000
280.718201	146.660000
280.811279	146.740000
280.904327	146.800000
280.997406	146.920000
281.090454	146.960000
281.183533	146.340000
281.276581	146.480000
281.369659	146.440000
281.462738	146.420000
281.555786	146.500000
281.648865	146.660000
281.741943	146.580000
281.835022	147.100000
281.928070	146.860000
282.021149	146.340000
282.114227	146.160000
282.207306	146.200000
282.300385	146.140000
282.393433	146.060000
282.486511	146.380000
282.579590	146.860000
282.672668	147.060000
282.765747	146.520000
282.858856	146.520000
282.951904	146.640000
283.045013	146.660000
283.138062	146.820000
283.231171	147.300000
283.324249	147.840000
283.417328	147.880000
283.510406	147.360000
283.603485	147.020000
283.696564	146.720000
283.789642	146.740000
283.882751	146.380000
283.975830	147.140000
284.068909	146.780000
284.161987	147.540000
284.255066	147.000000
284.348175	147.200000
284.441254	146.360000
284.534332	147.240000
284.627441	146.380000
284.720520	146.020000
284.813599	146.100000
284.906708	146.380000
284.999786	145.640000
285.092896	145.580000
285.185974	146.840000
285.279053	146.360000
285.372192	146.620000
285.465240	147.160000
285.558380	147.340000
285.651459	146.760000
285.744568	147.760000
285.837677	147.420000
285.930756	147.400000
286.023865	147.280000
286.116943	147.060000
286.210052	146.460000
286.303162	146.360000
286.396240	146.260000
286.489349	146.240000
286.582458	146.520000
286.675568	146.280000
286.768646	146.280000
286.861755	146.300000
286.954865	147.060000
287.047974	146.540000
287.141083	146.460000
287.234161	146.400000
287.327271	145.920000
287.420380	146.160000
287.513519	146.140000
287.606598	146.340000
287.699738	146.460000
287.792816	146.740000
287.885956	146.200000
287.979034	146.360000
288.072174	146.620000
288.165283	146.520000
288.258392	146.600000
288.351501	146.000000
288.444611	146.120000
288.537720	146.260000
288.630859	146.420000
288.723969	146.560000
288.817078	146.920000
288.910187	147.080000
289.003296	146.460000
289.096436	146.120000
289.189545	145.900000
289.282654	145.360000
289.375763	145.520000
289.468903	146.020000
289.562012	146.180000
289.655121	146.020000
289.748260	146.700000
289.841400	146.840000
289.934509	146.800000
290.027649	147.080000
290.120728	146.900000
290.213898	146.940000
290.306976	146.380000
290.400146	146.260000
290.493256	145.940000
290.586395	146.460000
290.679535	146.600000
290.772644	146.420000
290.865784	145.860000
290.958893	145.420000
291.052032	145.220000
291.145172	145.100000
291.238281	145.160000
291.331421	145.440000
291.424561	146.500000
291.517670	146.120000
291.610809	146.000000
291.703949	146.280000
291.797089	146.460000
291.890228	145.740000
291.983337	146.020000
292.076477	146.060000
292.169617	146.080000
292.262756	146.240000
292.355927	146.160000
292.449036	145.840000
292.542206	145.740000
292.635315	145.880000
292.728485	146.020000
292.821625	146.020000
292.914764	147.180000
293.007904	147.260000
293.101044	146.880000
293.194183	146.540000
293.287323	147.000000
293.380463	146.360000
293.473602	146.020000
293.566742	146.360000
293.659882	146.800000
293.753021	146.900000
293.846191	146.780000
293.939331	146.720000
294.032471	146.780000
294.125610	146.240000
294.218781	146.060000
294.311920	146.320000
294.405060	146.480000
294.498230	146.100000
294.591370	146.180000
294.684540	145.520000
294.777679	145.060000
294.870850	145.340000
294.963959	145.300000
295.057159	145.400000
295.150299	146.040000
295.243469	145.940000
295.336609	145.620000
295.429779	145.860000
295.522919	146.120000
295.616089	146.140000
295.709229	146.720000
295.802399	146.960000
295.895569	146.800000
295.988708	146.540000
296.081879	146.520000
296.175018	146.180000
296.268188	145.900000
296.361359	146.100000
296.454529	146.420000
296.547668	146.380000
296.640839	146.660000
296.734009	146.660000
296.827179	147.140000
296.920319	147.140000
297.013519	146.760000
297.106659	146.700000
297.199860	146.660000
297.292999	146.120000
297.386200	145.880000
297.479309	146.040000
297.572510	146.240000
297.665680	146.040000
297.758850	146.300000
297.852020	146.280000
297.945190	146.520000
298.038361	146.120000
298.131531	147.400000
298.224701	146.860000
298.317871	146.580000
298.411072	145.920000
298.504242	145.760000
298.597412	144.860000
298.690582	145.340000
298.783752	145.460000
298.876923	145.880000
298.970093	145.980000
299.063293	146.440000
299.156464	146.500000
299.249634	146.680000
299.342834	146.840000
299.436005	147.240000
299.529205	146.720000
299.622345	146.580000
299.715576	146.020000
299.808716	145.760000
299.901917	145.500000
299.995117	145.780000
300.088287	145.860000
300.181488	146.200000
300.274658	146.300000
300.367828	146.440000
300.461029	146.320000
300.554199	146.420000
300.647400	146.360000
300.740601	146.920000
300.833771	146.560000
300.926971	147.000000
301.020142	146.320000
301.113342	146.140000
301.206512	145.840000
301.299713	146.260000
301.392914	146.220000
301.486084	146.920000
301.579285	146.920000
301.672516	147.240000
301.765686	146.800000
301.858887	146.320000
301.952057	146.140000
302.045288	146.140000
302.138458	145.620000
302.231659	145.540000
302.324860	145.560000
302.418060	145.420000
302.511261	145.460000
302.604462	145.840000
302.697662	145.800000
302.790863	145.400000
302.884064	145.260000
302.977264	145.140000
303.070465	145.460000
303.163666	146.240000
303.256866	146.960000
303.350067	147.220000
303.443268	147.680000
303.536469	147.300000
303.629669	146.380000
303.722870	146.540000
303.816071	146.180000
303.909271	145.940000
304.002472	145.340000
304.095673	145.820000
304.188934	144.880000
304.282104	145.780000
304.375336	145.740000
304.468506	145.720000
304.561768	145.480000
304.654968	146.300000
304.748169	145.800000
304.841370	145.800000
304.934601	146.500000
305.027802	146.220000
305.121002	145.680000
305.214233	145.520000
305.307434	145.600000
305.400665	146.100000
305.493866	146.500000
