Model Number: SPM-002-B   
Serial Number: 70087108
Firmware Version: 004.15.4
Exposure Time: 100000.000000us
Data Taken on: 11-12-2020 19:40:23.844
Wavelength	Amplitude
221.570786	0.000000
221.663406	0.000000
221.756027	0.000000
221.848648	0.000000
221.941269	0.000000
222.033905	0.000000
222.126526	0.000000
222.219162	0.000000
222.311798	0.000000
222.404419	0.000000
222.497055	0.000000
222.589676	0.000000
222.682312	0.000000
222.774933	0.000000
222.867569	0.000000
222.960205	0.000000
223.052841	0.000000
223.145462	0.000000
223.238098	0.000000
223.330734	0.000000
223.423386	0.000000
223.516022	0.000000
223.608658	0.000000
223.701309	0.000000
223.793945	0.000000
223.886581	0.000000
223.979218	0.000000
224.071869	0.000000
224.164505	0.000000
224.257156	0.000000
224.349792	0.000000
224.442444	0.000000
224.535095	0.000000
224.627747	0.000000
224.720398	0.000000
224.813034	0.000000
224.905685	0.000000
224.998337	145.640000
225.090988	145.520000
225.183640	145.520000
225.276291	145.240000
225.368942	145.420000
225.461594	145.980000
225.554245	146.280000
225.646912	146.320000
225.739578	146.760000
225.832230	147.300000
225.924896	146.740000
226.017548	146.720000
226.110199	146.960000
226.202866	146.600000
226.295532	146.360000
226.388184	146.020000
226.480850	145.760000
226.573517	145.440000
226.666168	145.540000
226.758835	146.040000
226.851501	146.900000
226.944183	146.680000
227.036850	146.440000
227.129517	146.720000
227.222183	146.560000
227.314850	146.420000
227.407516	147.040000
227.500198	147.700000
227.592865	147.040000
227.685532	146.820000
227.778214	146.500000
227.870880	146.800000
227.963562	147.000000
228.056229	147.440000
228.148926	147.280000
228.241592	148.140000
228.334274	147.540000
228.426956	147.420000
228.519638	147.520000
228.612305	147.160000
228.704987	146.640000
228.797668	146.580000
228.890350	146.200000
228.983032	145.520000
229.075714	146.300000
229.168396	146.120000
229.261108	145.940000
229.353790	145.980000
229.446472	146.160000
229.539169	145.660000
229.631851	145.360000
229.724533	145.620000
229.817230	145.880000
229.909912	147.100000
230.002609	147.400000
230.095306	147.200000
230.187988	147.100000
230.280685	146.840000
230.373383	145.580000
230.466095	145.240000
230.558792	146.000000
230.651474	146.420000
230.744171	146.380000
230.836868	146.680000
230.929581	147.200000
231.022278	147.040000
231.114975	146.840000
231.207672	146.720000
231.300369	147.160000
231.393082	147.140000
231.485779	146.880000
231.578506	146.780000
231.671204	146.920000
231.763916	146.560000
231.856613	146.300000
231.949326	146.440000
232.042023	146.620000
232.134735	146.580000
232.227448	146.260000
232.320160	146.580000
232.412872	146.640000
232.505585	147.160000
232.598297	147.540000
232.691010	147.720000
232.783722	147.100000
232.876450	147.580000
232.969162	146.880000
233.061874	146.440000
233.154587	146.300000
233.247314	146.840000
233.340027	146.320000
233.432739	146.700000
233.525467	146.460000
233.618179	146.820000
233.710907	146.440000
233.803635	147.120000
233.896347	146.720000
233.989090	147.420000
234.081818	147.360000
234.174545	147.740000
234.267258	146.840000
234.359985	147.120000
234.452713	146.700000
234.545441	146.200000
234.638168	145.920000
234.730896	146.320000
234.823639	146.100000
234.916367	146.660000
235.009094	146.940000
235.101822	147.040000
235.194580	147.140000
235.287308	146.840000
235.380051	146.060000
235.472778	146.520000
235.565521	146.900000
235.658249	146.180000
235.750992	146.860000
235.843719	147.220000
235.936462	147.060000
236.029205	146.360000
236.121948	146.620000
236.214691	146.520000
236.307449	146.860000
236.400192	146.580000
236.492935	146.220000
236.585678	146.380000
236.678421	146.260000
236.771164	145.940000
236.863907	146.400000
236.956665	147.240000
237.049408	148.760000
237.142151	148.240000
237.234909	148.760000
237.327652	148.700000
237.420410	148.460000
237.513153	147.300000
237.605927	147.360000
237.698669	146.880000
237.791428	146.100000
237.884186	146.500000
237.976944	146.180000
238.069702	146.680000
238.162445	146.380000
238.255203	146.460000
238.347961	146.340000
238.440720	146.100000
238.533478	145.760000
238.626266	145.520000
238.719025	146.200000
238.811783	145.880000
238.904541	145.820000
238.997314	145.760000
239.090073	145.720000
239.182831	145.440000
239.275604	146.400000
239.368362	146.440000
239.461136	146.560000
239.553909	146.760000
239.646667	146.700000
239.739441	145.820000
239.832214	145.860000
239.925003	145.980000
240.017761	146.400000
240.110535	147.040000
240.203308	147.020000
240.296082	147.340000
240.388855	147.220000
240.481628	147.260000
240.574417	146.900000
240.667191	146.880000
240.759964	146.720000
240.852737	146.440000
240.945526	146.240000
241.038315	145.940000
241.131088	145.880000
241.223877	145.920000
241.316650	145.940000
241.409439	146.020000
241.502228	145.720000
241.595001	146.160000
241.687790	145.960000
241.780579	146.060000
241.873367	146.300000
241.966141	146.720000
242.058929	146.180000
242.151718	146.440000
242.244507	146.940000
242.337311	145.980000
242.430099	146.360000
242.522903	146.740000
242.615692	146.260000
242.708481	146.000000
242.801270	146.740000
242.894073	146.560000
242.986862	146.680000
243.079651	147.320000
243.172455	147.060000
243.265244	147.320000
243.358063	146.780000
243.450867	146.960000
243.543655	146.860000
243.636459	146.840000
243.729263	146.880000
243.822067	147.420000
243.914856	147.460000
244.007660	147.520000
244.100464	147.780000
244.193268	147.200000
244.286072	146.640000
244.378876	146.020000
244.471680	145.480000
244.564499	145.620000
244.657318	146.480000
244.750122	147.060000
244.842926	146.560000
244.935745	147.440000
245.028549	147.180000
245.121368	146.400000
245.214172	146.460000
245.306992	147.120000
245.399796	146.420000
245.492615	146.540000
245.585434	146.520000
245.678253	146.080000
245.771072	146.000000
245.863892	146.460000
245.956711	146.480000
246.049530	146.420000
246.142349	146.300000
246.235168	146.260000
246.327988	146.340000
246.420807	146.260000
246.513626	146.400000
246.606445	146.460000
246.699280	146.440000
246.792099	146.300000
246.884918	146.020000
246.977753	145.600000
247.070587	145.600000
247.163422	145.560000
247.256241	145.580000
247.349075	146.060000
247.441895	146.360000
247.534729	146.380000
247.627563	146.640000
247.720383	147.120000
247.813217	146.800000
247.906052	146.640000
247.998886	146.780000
248.091736	146.600000
248.184570	145.760000
248.277405	145.780000
248.370239	146.680000
248.463074	147.520000
248.555908	147.620000
248.648743	147.800000
248.741592	148.140000
248.834427	147.520000
248.927261	146.220000
249.020111	146.500000
249.112946	147.140000
249.205795	146.260000
249.298630	146.160000
249.391495	146.460000
249.484344	145.900000
249.577179	145.360000
249.670029	146.360000
249.762878	147.040000
249.855728	147.220000
249.948563	147.420000
250.041412	146.920000
250.134262	146.740000
250.227112	146.340000
250.319962	146.300000
250.412827	146.340000
250.505692	146.220000
250.598541	146.260000
250.691391	145.980000
250.784241	146.120000
250.877106	146.040000
250.969955	146.020000
251.062805	146.380000
251.155670	147.000000
251.248520	146.700000
251.341385	147.060000
251.434235	147.200000
251.527100	146.520000
251.619965	146.160000
251.712814	146.920000
251.805695	147.000000
251.898560	147.540000
251.991425	147.840000
252.084290	147.820000
252.177155	146.780000
252.270020	146.100000
252.362885	145.920000
252.455750	146.000000
252.548615	145.740000
252.641479	146.260000
252.734360	146.560000
252.827240	146.380000
252.920105	146.200000
253.012970	146.120000
253.105850	145.840000
253.198715	145.500000
253.291595	145.620000
253.384460	145.300000
253.477341	145.640000
253.570221	145.920000
253.663086	145.900000
253.755966	146.520000
253.848846	146.660000
253.941727	146.720000
254.034592	146.460000
254.127472	146.220000
254.220367	146.200000
254.313248	146.620000
254.406128	146.320000
254.499008	146.660000
254.591904	147.400000
254.684784	147.560000
254.777664	147.160000
254.870544	146.960000
254.963440	146.840000
255.056335	146.940000
255.149216	146.240000
255.242111	146.800000
255.334991	147.100000
255.427887	147.440000
255.520767	147.520000
255.613663	147.700000
255.706558	146.940000
255.799438	146.620000
255.892334	146.140000
255.985229	145.960000
256.078125	146.040000
256.171021	146.320000
256.263916	147.000000
256.356812	147.460000
256.449707	147.340000
256.542603	147.020000
256.635498	147.340000
256.728394	146.980000
256.821289	146.320000
256.914215	146.620000
257.007080	146.720000
257.100006	147.020000
257.192932	147.400000
257.285828	148.000000
257.378723	147.860000
257.471619	147.940000
257.564545	147.100000
257.657440	146.960000
257.750336	147.160000
257.843262	146.780000
257.936157	147.880000
258.029053	148.200000
258.121979	148.360000
258.214874	147.840000
258.307800	148.020000
258.400696	146.540000
258.493622	146.660000
258.586517	145.780000
258.679443	146.180000
258.772339	145.600000
258.865265	145.600000
258.958160	145.040000
259.051086	146.040000
259.144012	145.660000
259.236938	146.360000
259.329834	146.860000
259.422791	147.000000
259.515717	146.340000
259.608612	146.320000
259.701538	146.400000
259.794464	146.080000
259.887390	146.160000
259.980316	146.200000
260.073212	146.220000
260.166138	145.340000
260.259064	145.740000
260.351990	146.580000
260.444916	146.520000
260.537842	146.840000
260.630768	147.820000
260.723694	147.540000
260.816620	146.820000
260.909546	146.660000
261.002472	146.240000
261.095398	145.680000
261.188354	145.640000
261.281281	145.580000
261.374207	145.960000
261.467133	146.660000
261.560089	146.880000
261.653015	146.840000
261.745972	147.360000
261.838867	147.940000
261.931824	148.120000
262.024780	147.640000
262.117706	147.660000
262.210663	147.520000
262.303589	147.060000
262.396515	146.680000
262.489471	147.560000
262.582397	147.560000
262.675354	147.200000
262.768280	146.900000
262.861237	146.680000
262.954163	146.600000
263.047119	146.700000
263.140045	146.540000
263.233002	146.780000
263.325958	146.960000
263.418884	146.240000
263.511841	146.260000
263.604797	146.160000
263.697723	145.820000
263.790680	145.520000
263.883636	146.180000
263.976593	145.960000
264.069550	146.000000
264.162476	146.100000
264.255463	146.080000
264.348419	145.580000
264.441376	146.080000
264.534332	145.980000
264.627289	146.200000
264.720245	146.640000
264.813202	146.640000
264.906158	146.780000
264.999115	147.040000
265.092072	146.760000
265.185028	147.040000
265.277985	147.080000
265.370941	146.460000
265.463898	146.480000
265.556854	146.400000
265.649811	145.220000
265.742798	145.360000
265.835754	145.520000
265.928711	145.980000
266.021667	145.980000
266.114655	146.580000
266.207611	146.880000
266.300568	146.620000
266.393585	145.920000
266.486511	146.440000
266.579498	146.060000
266.672485	145.940000
266.765442	145.920000
266.858429	146.620000
266.951385	146.140000
267.044342	146.380000
267.137329	146.060000
267.230316	146.280000
267.323273	145.720000
267.416260	146.380000
267.509216	146.240000
267.602203	146.400000
267.695160	147.040000
267.788147	147.300000
267.881134	146.400000
267.974091	146.520000
268.067078	146.540000
268.160065	145.960000
268.253052	145.780000
268.346008	146.420000
268.438995	146.360000
268.531982	146.440000
268.624969	146.260000
268.717987	146.400000
268.810944	146.160000
268.903961	146.380000
268.996948	145.880000
269.089905	146.500000
269.182892	146.540000
269.275879	146.820000
269.368866	146.240000
269.461853	146.600000
269.554871	146.400000
269.647858	146.420000
269.740845	146.600000
269.833832	147.060000
269.926819	146.980000
270.019806	146.920000
270.112793	146.580000
270.205811	146.520000
270.298798	146.340000
270.391785	146.760000
270.484772	146.620000
270.577789	147.060000
270.670776	146.520000
270.763763	146.620000
270.856750	146.660000
270.949768	146.280000
271.042786	145.960000
271.135773	146.120000
271.228790	146.300000
271.321808	145.520000
271.414795	145.460000
271.507782	145.400000
271.600800	145.220000
271.693817	145.140000
271.786804	146.000000
271.879822	146.380000
271.972809	146.380000
272.065826	146.880000
272.158844	146.680000
272.251831	147.020000
272.344849	147.020000
272.437866	146.860000
272.530853	146.740000
272.623871	147.120000
272.716888	145.660000
272.809906	145.520000
272.902893	145.640000
272.995911	145.100000
273.088928	145.140000
273.181946	145.860000
273.274963	145.920000
273.367981	145.960000
273.460999	146.380000
273.554047	146.360000
273.647003	146.940000
273.740051	146.940000
273.833069	147.160000
273.926086	147.340000
274.019135	146.980000
274.112152	146.620000
274.205170	146.560000
274.298187	146.900000
274.391205	146.320000
274.484222	146.580000
274.577240	146.520000
274.670258	146.400000
274.763306	146.000000
274.856323	146.620000
274.949341	146.780000
275.042358	147.140000
275.135406	147.100000
275.228424	147.120000
275.321442	146.900000
275.414490	146.480000
275.507507	146.460000
275.600525	147.280000
275.693573	147.120000
275.786591	146.840000
275.879669	147.180000
275.972656	146.740000
276.065735	145.940000
276.158752	146.480000
276.251801	147.140000
276.344818	146.800000
276.437866	146.640000
276.530884	146.460000
276.623932	145.460000
276.716980	145.500000
276.809998	145.520000
276.903046	145.860000
276.996094	146.880000
277.089111	147.640000
277.182159	148.000000
277.275208	147.880000
277.368256	147.680000
277.461304	147.140000
277.554321	146.500000
277.647369	146.040000
277.740417	146.080000
277.833466	145.940000
277.926514	145.620000
278.019562	146.300000
278.112610	145.740000
278.205688	146.040000
278.298706	146.260000
278.391785	146.120000
278.484833	145.860000
278.577881	145.960000
278.670929	146.020000
278.763977	145.980000
278.857025	146.680000
278.950073	146.800000
279.043121	146.820000
279.136169	146.620000
279.229248	146.640000
279.322296	146.280000
279.415344	145.920000
279.508392	145.480000
279.601440	145.440000
279.694519	145.120000
279.787567	145.200000
279.880615	144.940000
279.973694	144.920000
280.066742	145.240000
280.159790	145.640000
280.252869	145.300000
280.345917	145.900000
280.438995	146.300000
280.532074	145.860000
280.625122	146.160000
280.718201	147.200000
280.811279	147.200000
280.904327	147.140000
280.997406	147.160000
281.090454	146.900000
281.183533	146.380000
281.276581	146.220000
281.369659	145.660000
281.462738	145.920000
281.555786	145.940000
281.648865	145.740000
281.741943	145.720000
281.835022	146.820000
281.928070	146.480000
282.021149	146.320000
282.114227	146.100000
282.207306	145.900000
282.300385	146.080000
282.393433	146.460000
282.486511	146.340000
282.579590	146.940000
282.672668	147.360000
282.765747	146.580000
282.858856	146.220000
282.951904	146.460000
283.045013	146.240000
283.138062	146.300000
283.231171	146.600000
283.324249	147.120000
283.417328	147.080000
283.510406	146.680000
283.603485	146.520000
283.696564	146.500000
283.789642	146.320000
283.882751	146.020000
283.975830	147.000000
284.068909	146.580000
284.161987	146.960000
284.255066	146.620000
284.348175	146.860000
284.441254	146.460000
284.534332	147.300000
284.627441	147.020000
284.720520	146.860000
284.813599	146.680000
284.906708	146.420000
284.999786	145.420000
285.092896	145.200000
285.185974	146.220000
285.279053	146.220000
285.372192	146.660000
285.465240	147.580000
285.558380	147.640000
285.651459	147.280000
285.744568	147.760000
285.837677	146.960000
285.930756	147.000000
286.023865	147.060000
286.116943	146.400000
286.210052	146.580000
286.303162	146.620000
286.396240	146.260000
286.489349	145.940000
286.582458	146.640000
286.675568	146.120000
286.768646	146.300000
286.861755	146.620000
286.954865	147.260000
287.047974	146.180000
287.141083	146.240000
287.234161	146.400000
287.327271	146.200000
287.420380	146.480000
287.513519	146.940000
287.606598	146.960000
287.699738	146.800000
287.792816	146.660000
287.885956	146.140000
287.979034	146.320000
288.072174	146.180000
288.165283	146.140000
288.258392	146.080000
288.351501	145.780000
288.444611	146.160000
288.537720	146.580000
288.630859	146.680000
288.723969	146.800000
288.817078	147.080000
288.910187	147.000000
289.003296	146.520000
289.096436	146.080000
289.189545	146.180000
289.282654	145.980000
289.375763	146.160000
289.468903	146.360000
289.562012	146.900000
289.655121	146.820000
289.748260	146.940000
289.841400	146.920000
289.934509	146.800000
290.027649	146.880000
290.120728	146.700000
290.213898	146.800000
290.306976	146.560000
290.400146	146.880000
290.493256	146.380000
290.586395	146.660000
290.679535	146.660000
290.772644	146.460000
290.865784	145.780000
290.958893	146.240000
291.052032	145.680000
291.145172	145.820000
291.238281	145.760000
291.331421	145.920000
291.424561	146.160000
291.517670	146.260000
291.610809	145.940000
291.703949	145.880000
291.797089	146.200000
291.890228	145.740000
291.983337	145.860000
292.076477	145.980000
292.169617	146.580000
292.262756	146.520000
292.355927	146.480000
292.449036	146.460000
292.542206	146.560000
292.635315	146.420000
292.728485	146.680000
292.821625	146.280000
292.914764	147.320000
293.007904	147.360000
293.101044	146.940000
293.194183	146.740000
293.287323	147.320000
293.380463	146.360000
293.473602	146.080000
293.566742	146.200000
293.659882	146.580000
293.753021	146.680000
293.846191	146.600000
293.939331	146.240000
294.032471	146.420000
294.125610	146.060000
294.218781	146.260000
294.311920	146.800000
294.405060	147.040000
294.498230	146.800000
294.591370	146.780000
294.684540	145.900000
294.777679	145.360000
294.870850	145.660000
294.963959	145.700000
295.057159	145.500000
295.150299	146.340000
295.243469	146.260000
295.336609	145.680000
295.429779	145.920000
295.522919	146.220000
295.616089	146.080000
295.709229	146.720000
295.802399	147.280000
295.895569	147.040000
295.988708	146.960000
296.081879	146.780000
296.175018	146.060000
296.268188	146.040000
296.361359	146.180000
296.454529	146.120000
296.547668	146.080000
296.640839	146.760000
296.734009	146.480000
296.827179	146.820000
296.920319	147.060000
297.013519	146.880000
297.106659	146.760000
297.199860	146.820000
297.292999	146.560000
297.386200	146.120000
297.479309	146.000000
297.572510	145.840000
297.665680	145.720000
297.758850	145.640000
297.852020	145.980000
297.945190	146.260000
298.038361	145.880000
298.131531	147.020000
298.224701	147.020000
298.317871	146.780000
298.411072	146.200000
298.504242	146.360000
298.597412	145.580000
298.690582	145.620000
298.783752	145.300000
298.876923	145.860000
298.970093	146.000000
299.063293	146.240000
299.156464	146.680000
299.249634	147.520000
299.342834	147.820000
299.436005	148.240000
299.529205	148.060000
299.622345	147.840000
299.715576	147.040000
299.808716	146.780000
299.901917	146.400000
299.995117	146.500000
300.088287	146.680000
300.181488	146.620000
300.274658	146.420000
300.367828	146.480000
300.461029	146.540000
300.554199	146.400000
300.647400	146.680000
300.740601	147.320000
300.833771	147.160000
300.926971	147.080000
301.020142	146.680000
301.113342	146.680000
301.206512	146.140000
301.299713	146.340000
301.392914	146.140000
301.486084	146.700000
301.579285	146.720000
301.672516	147.120000
301.765686	147.000000
301.858887	147.200000
301.952057	146.720000
302.045288	146.840000
302.138458	146.640000
302.231659	146.480000
302.324860	146.380000
302.418060	146.260000
302.511261	146.060000
302.604462	146.180000
302.697662	146.040000
302.790863	145.960000
302.884064	145.660000
302.977264	145.920000
303.070465	146.160000
303.163666	146.880000
303.256866	147.240000
303.350067	147.400000
303.443268	147.240000
303.536469	146.960000
303.629669	146.340000
303.722870	146.420000
303.816071	146.540000
303.909271	146.340000
304.002472	145.820000
304.095673	145.960000
304.188934	145.260000
304.282104	146.080000
304.375336	146.280000
304.468506	146.740000
304.561768	146.540000
304.654968	147.340000
304.748169	146.440000
304.841370	146.320000
304.934601	146.560000
305.027802	146.440000
305.121002	145.820000
305.214233	146.180000
305.307434	146.240000
305.400665	146.640000
305.493866	146.520000
