Model Number: SPM-002-B   
Serial Number: 70087108
Firmware Version: 004.15.4
Exposure Time: 100000.000000us
Data Taken on: 11-12-2020 19:40:41.144
Wavelength	Amplitude
221.570786	0.000000
221.663406	0.000000
221.756027	0.000000
221.848648	0.000000
221.941269	0.000000
222.033905	0.000000
222.126526	0.000000
222.219162	0.000000
222.311798	0.000000
222.404419	0.000000
222.497055	0.000000
222.589676	0.000000
222.682312	0.000000
222.774933	0.000000
222.867569	0.000000
222.960205	0.000000
223.052841	0.000000
223.145462	0.000000
223.238098	0.000000
223.330734	0.000000
223.423386	0.000000
223.516022	0.000000
223.608658	0.000000
223.701309	0.000000
223.793945	0.000000
223.886581	0.000000
223.979218	0.000000
224.071869	0.000000
224.164505	0.000000
224.257156	0.000000
224.349792	0.000000
224.442444	0.000000
224.535095	0.000000
224.627747	0.000000
224.720398	0.000000
224.813034	0.000000
224.905685	0.000000
224.998337	144.740000
225.090988	144.340000
225.183640	144.340000
225.276291	144.060000
225.368942	144.380000
225.461594	144.980000
225.554245	144.960000
225.646912	145.160000
225.739578	146.140000
225.832230	146.360000
225.924896	145.560000
226.017548	146.260000
226.110199	146.460000
226.202866	145.460000
226.295532	145.240000
226.388184	145.280000
226.480850	144.400000
226.573517	143.960000
226.666168	144.420000
226.758835	144.620000
226.851501	145.240000
226.944183	145.660000
227.036850	145.400000
227.129517	145.160000
227.222183	145.380000
227.314850	145.280000
227.407516	145.200000
227.500198	146.080000
227.592865	145.560000
227.685532	144.940000
227.778214	144.620000
227.870880	145.220000
227.963562	145.220000
228.056229	146.000000
228.148926	146.240000
228.241592	147.140000
228.334274	146.500000
228.426956	146.140000
228.519638	145.940000
228.612305	145.480000
228.704987	145.220000
228.797668	145.640000
228.890350	145.420000
228.983032	144.760000
229.075714	145.520000
229.168396	145.040000
229.261108	144.720000
229.353790	144.840000
229.446472	145.560000
229.539169	145.180000
229.631851	144.880000
229.724533	144.860000
229.817230	145.280000
229.909912	145.840000
230.002609	146.000000
230.095306	146.300000
230.187988	146.280000
230.280685	146.000000
230.373383	144.880000
230.466095	144.480000
230.558792	144.700000
230.651474	144.520000
230.744171	144.440000
230.836868	144.580000
230.929581	144.880000
231.022278	144.900000
231.114975	145.080000
231.207672	144.900000
231.300369	145.460000
231.393082	145.540000
231.485779	145.220000
231.578506	145.320000
231.671204	145.760000
231.763916	145.780000
231.856613	145.560000
231.949326	145.980000
232.042023	145.560000
232.134735	145.120000
232.227448	144.580000
232.320160	144.920000
232.412872	144.700000
232.505585	145.720000
232.598297	146.140000
232.691010	146.140000
232.783722	145.960000
232.876450	146.560000
232.969162	146.040000
233.061874	145.520000
233.154587	145.200000
233.247314	145.480000
233.340027	144.820000
233.432739	145.580000
233.525467	145.640000
233.618179	146.460000
233.710907	145.820000
233.803635	146.340000
233.896347	145.340000
233.989090	145.940000
234.081818	145.540000
234.174545	146.180000
234.267258	145.280000
234.359985	145.660000
234.452713	145.020000
234.545441	144.980000
234.638168	144.780000
234.730896	145.460000
234.823639	145.080000
234.916367	145.700000
235.009094	145.800000
235.101822	145.840000
235.194580	145.560000
235.287308	145.800000
235.380051	145.120000
235.472778	145.500000
235.565521	145.520000
235.658249	145.320000
235.750992	145.580000
235.843719	145.920000
235.936462	145.560000
236.029205	145.020000
236.121948	144.820000
236.214691	144.660000
236.307449	145.240000
236.400192	145.060000
236.492935	144.880000
236.585678	145.060000
236.678421	145.020000
236.771164	144.780000
236.863907	145.560000
236.956665	146.240000
237.049408	147.920000
237.142151	147.820000
237.234909	148.280000
237.327652	147.740000
237.420410	147.600000
237.513153	146.500000
237.605927	146.340000
237.698669	145.520000
237.791428	145.160000
237.884186	145.700000
237.976944	145.080000
238.069702	145.080000
238.162445	144.820000
238.255203	144.980000
238.347961	144.940000
238.440720	145.020000
238.533478	144.960000
238.626266	144.660000
238.719025	145.180000
238.811783	144.900000
238.904541	144.940000
238.997314	145.000000
239.090073	144.960000
239.182831	144.620000
239.275604	145.360000
239.368362	145.480000
239.461136	145.500000
239.553909	145.740000
239.646667	145.480000
239.739441	144.800000
239.832214	144.820000
239.925003	145.120000
240.017761	146.100000
240.110535	146.800000
240.203308	146.220000
240.296082	146.380000
240.388855	145.940000
240.481628	145.580000
240.574417	145.600000
240.667191	146.280000
240.759964	145.960000
240.852737	146.380000
240.945526	145.880000
241.038315	145.500000
241.131088	145.500000
241.223877	145.960000
241.316650	145.560000
241.409439	145.960000
241.502228	145.380000
241.595001	145.720000
241.687790	145.640000
241.780579	145.720000
241.873367	146.080000
241.966141	146.580000
242.058929	145.680000
242.151718	145.480000
242.244507	145.720000
242.337311	144.560000
242.430099	145.180000
242.522903	145.820000
242.615692	145.360000
242.708481	145.540000
242.801270	146.280000
242.894073	145.820000
242.986862	145.320000
243.079651	146.220000
243.172455	145.640000
243.265244	145.820000
243.358063	145.300000
243.450867	145.620000
243.543655	145.200000
243.636459	145.620000
243.729263	145.960000
243.822067	146.280000
243.914856	146.720000
244.007660	146.760000
244.100464	146.620000
244.193268	145.780000
244.286072	145.800000
244.378876	145.040000
244.471680	144.680000
244.564499	145.020000
244.657318	146.040000
244.750122	146.320000
244.842926	146.160000
244.935745	146.560000
245.028549	146.160000
245.121368	145.400000
245.214172	145.320000
245.306992	145.940000
245.399796	145.660000
245.492615	145.720000
245.585434	145.880000
245.678253	145.660000
245.771072	145.160000
245.863892	145.900000
245.956711	146.280000
246.049530	145.720000
246.142349	145.520000
246.235168	145.700000
246.327988	145.680000
246.420807	145.300000
246.513626	145.600000
246.606445	145.640000
246.699280	145.440000
246.792099	145.160000
246.884918	144.920000
246.977753	144.500000
247.070587	144.420000
247.163422	144.700000
247.256241	144.420000
247.349075	144.620000
247.441895	145.320000
247.534729	145.600000
247.627563	145.400000
247.720383	146.140000
247.813217	146.000000
247.906052	145.520000
247.998886	145.620000
248.091736	145.500000
248.184570	144.720000
248.277405	144.600000
248.370239	145.580000
248.463074	146.000000
248.555908	146.580000
248.648743	146.720000
248.741592	147.220000
248.834427	146.580000
248.927261	145.720000
249.020111	145.760000
249.112946	146.320000
249.205795	145.700000
249.298630	145.740000
249.391495	145.980000
249.484344	145.420000
249.577179	144.740000
249.670029	145.420000
249.762878	145.920000
249.855728	145.940000
249.948563	146.000000
250.041412	145.880000
250.134262	145.920000
250.227112	145.660000
250.319962	145.660000
250.412827	146.000000
250.505692	145.840000
250.598541	145.620000
250.691391	145.220000
250.784241	145.200000
250.877106	144.980000
250.969955	144.980000
251.062805	145.480000
251.155670	146.160000
251.248520	146.120000
251.341385	146.380000
251.434235	146.660000
251.527100	146.080000
251.619965	145.580000
251.712814	146.380000
251.805695	146.340000
251.898560	146.600000
251.991425	146.840000
252.084290	146.980000
252.177155	145.980000
252.270020	145.700000
252.362885	145.140000
252.455750	144.960000
252.548615	144.680000
252.641479	144.760000
252.734360	144.820000
252.827240	145.260000
252.920105	145.560000
253.012970	145.420000
253.105850	145.580000
253.198715	145.280000
253.291595	145.140000
253.384460	144.860000
253.477341	144.800000
253.570221	145.000000
253.663086	144.780000
253.755966	145.440000
253.848846	145.540000
253.941727	145.820000
254.034592	145.600000
254.127472	145.520000
254.220367	145.020000
254.313248	144.920000
254.406128	144.500000
254.499008	144.840000
254.591904	145.820000
254.684784	146.300000
254.777664	146.200000
254.870544	145.960000
254.963440	145.800000
255.056335	145.300000
255.149216	144.960000
255.242111	145.520000
255.334991	146.120000
255.427887	146.080000
255.520767	146.240000
255.613663	146.320000
255.706558	145.260000
255.799438	144.980000
255.892334	144.620000
255.985229	144.500000
256.078125	144.140000
256.171021	144.820000
256.263916	145.320000
256.356812	145.780000
256.449707	146.200000
256.542603	145.920000
256.635498	146.100000
256.728394	145.920000
256.821289	145.420000
256.914215	145.320000
257.007080	145.860000
257.100006	145.880000
257.192932	146.040000
257.285828	146.220000
257.378723	145.760000
257.471619	145.520000
257.564545	145.060000
257.657440	145.140000
257.750336	145.760000
257.843262	145.760000
257.936157	146.700000
258.029053	146.920000
258.121979	147.060000
258.214874	146.500000
258.307800	146.340000
258.400696	145.180000
258.493622	145.220000
258.586517	144.220000
258.679443	144.660000
258.772339	144.480000
258.865265	144.620000
258.958160	144.140000
259.051086	145.120000
259.144012	144.600000
259.236938	145.400000
259.329834	145.260000
259.422791	145.380000
259.515717	144.680000
259.608612	144.840000
259.701538	144.760000
259.794464	144.940000
259.887390	144.840000
259.980316	144.880000
260.073212	144.740000
260.166138	143.800000
260.259064	144.300000
260.351990	145.040000
260.444916	145.080000
260.537842	145.440000
260.630768	146.580000
260.723694	146.060000
260.816620	145.800000
260.909546	145.900000
261.002472	145.360000
261.095398	144.640000
261.188354	144.720000
261.281281	144.400000
261.374207	144.500000
261.467133	145.560000
261.560089	145.620000
261.653015	145.620000
261.745972	146.240000
261.838867	146.720000
261.931824	146.540000
262.024780	146.260000
262.117706	146.320000
262.210663	146.500000
262.303589	145.820000
262.396515	145.380000
262.489471	146.560000
262.582397	146.520000
262.675354	145.740000
262.768280	146.080000
262.861237	146.280000
262.954163	145.940000
263.047119	145.860000
263.140045	145.780000
263.233002	145.540000
263.325958	145.320000
263.418884	144.720000
263.511841	144.820000
263.604797	145.040000
263.697723	145.160000
263.790680	144.920000
263.883636	145.560000
263.976593	145.220000
264.069550	145.240000
264.162476	145.160000
264.255463	145.360000
264.348419	144.760000
264.441376	145.420000
264.534332	144.900000
264.627289	145.020000
264.720245	145.440000
264.813202	145.320000
264.906158	145.100000
264.999115	146.120000
265.092072	146.100000
265.185028	146.560000
265.277985	146.880000
265.370941	146.640000
265.463898	146.120000
265.556854	145.740000
265.649811	144.680000
265.742798	144.640000
265.835754	145.020000
265.928711	145.120000
266.021667	145.420000
266.114655	145.700000
266.207611	145.800000
266.300568	145.080000
266.393585	144.760000
266.486511	145.160000
266.579498	144.420000
266.672485	144.420000
266.765442	144.600000
266.858429	145.160000
266.951385	144.700000
267.044342	145.420000
267.137329	145.220000
267.230316	145.820000
267.323273	145.200000
267.416260	145.860000
267.509216	145.580000
267.602203	145.740000
267.695160	145.740000
267.788147	146.100000
267.881134	145.220000
267.974091	145.460000
268.067078	145.380000
268.160065	145.320000
268.253052	144.940000
268.346008	145.360000
268.438995	145.260000
268.531982	145.000000
268.624969	144.720000
268.717987	145.000000
268.810944	144.880000
268.903961	145.000000
268.996948	145.000000
269.089905	145.320000
269.182892	145.640000
269.275879	145.760000
269.368866	145.240000
269.461853	145.800000
269.554871	145.740000
269.647858	145.520000
269.740845	145.760000
269.833832	146.160000
269.926819	145.480000
270.019806	145.480000
270.112793	145.020000
270.205811	144.760000
270.298798	144.660000
270.391785	145.640000
270.484772	145.120000
270.577789	145.540000
270.670776	145.300000
270.763763	145.180000
270.856750	144.880000
270.949768	144.780000
271.042786	144.760000
271.135773	144.580000
271.228790	145.040000
271.321808	144.540000
271.414795	144.440000
271.507782	144.300000
271.600800	144.160000
271.693817	144.360000
271.786804	144.820000
271.879822	145.220000
271.972809	145.320000
272.065826	145.980000
272.158844	145.260000
272.251831	145.720000
272.344849	145.700000
272.437866	145.540000
272.530853	145.660000
272.623871	145.900000
272.716888	144.680000
272.809906	145.300000
272.902893	145.260000
272.995911	144.480000
273.088928	144.620000
273.181946	145.040000
273.274963	144.360000
273.367981	144.320000
273.460999	144.680000
273.554047	145.020000
273.647003	145.820000
273.740051	145.920000
273.833069	146.320000
273.926086	146.660000
274.019135	145.880000
274.112152	145.040000
274.205170	145.100000
274.298187	145.260000
274.391205	144.740000
274.484222	145.220000
274.577240	145.820000
274.670258	145.760000
274.763306	145.420000
274.856323	146.000000
274.949341	146.000000
275.042358	146.100000
275.135406	146.000000
275.228424	145.920000
275.321442	145.500000
275.414490	145.240000
275.507507	145.160000
275.600525	145.540000
275.693573	145.100000
275.786591	144.840000
275.879669	145.140000
275.972656	144.720000
276.065735	144.800000
276.158752	145.600000
276.251801	146.420000
276.344818	146.540000
276.437866	146.700000
276.530884	146.240000
276.623932	145.680000
276.716980	145.700000
276.809998	145.700000
276.903046	145.920000
276.996094	146.760000
277.089111	147.520000
277.182159	147.880000
277.275208	147.380000
277.368256	147.180000
277.461304	146.540000
277.554321	145.920000
277.647369	145.300000
277.740417	145.320000
277.833466	144.960000
277.926514	145.260000
278.019562	145.880000
278.112610	145.380000
278.205688	145.640000
278.298706	146.060000
278.391785	145.340000
278.484833	144.720000
278.577881	144.600000
278.670929	144.780000
278.763977	144.800000
278.857025	145.480000
278.950073	145.440000
279.043121	145.760000
279.136169	145.600000
279.229248	145.260000
279.322296	145.420000
279.415344	145.240000
279.508392	145.100000
279.601440	145.120000
279.694519	144.880000
279.787567	144.440000
279.880615	144.520000
279.973694	144.720000
280.066742	144.760000
280.159790	145.260000
280.252869	144.780000
280.345917	145.120000
280.438995	145.060000
280.532074	145.060000
280.625122	145.400000
280.718201	146.360000
280.811279	146.280000
280.904327	146.120000
280.997406	146.300000
281.090454	145.840000
281.183533	145.080000
281.276581	145.200000
281.369659	145.200000
281.462738	145.180000
281.555786	145.480000
281.648865	145.800000
281.741943	145.480000
281.835022	146.140000
281.928070	145.580000
282.021149	145.280000
282.114227	145.080000
282.207306	145.240000
282.300385	145.340000
282.393433	145.720000
282.486511	145.700000
282.579590	146.420000
282.672668	146.680000
282.765747	145.900000
282.858856	145.500000
282.951904	145.580000
283.045013	145.440000
283.138062	145.640000
283.231171	146.200000
283.324249	146.900000
283.417328	147.140000
283.510406	146.640000
283.603485	146.080000
283.696564	145.740000
283.789642	145.460000
283.882751	145.180000
283.975830	145.980000
284.068909	145.640000
284.161987	146.280000
284.255066	145.900000
284.348175	146.020000
284.441254	145.460000
284.534332	146.420000
284.627441	145.700000
284.720520	145.740000
284.813599	145.560000
284.906708	145.260000
284.999786	144.360000
285.092896	144.140000
285.185974	144.940000
285.279053	144.520000
285.372192	144.820000
285.465240	145.700000
285.558380	145.780000
285.651459	145.300000
285.744568	146.420000
285.837677	145.800000
285.930756	145.340000
286.023865	145.520000
286.116943	145.020000
286.210052	144.740000
286.303162	145.260000
286.396240	145.400000
286.489349	145.160000
286.582458	145.800000
286.675568	145.420000
286.768646	145.500000
286.861755	145.760000
286.954865	146.480000
287.047974	145.860000
287.141083	145.680000
287.234161	145.380000
287.327271	145.060000
287.420380	145.340000
287.513519	145.520000
287.606598	145.680000
287.699738	145.900000
287.792816	145.760000
287.885956	145.400000
287.979034	145.380000
288.072174	145.700000
288.165283	145.660000
288.258392	146.160000
288.351501	145.580000
288.444611	145.460000
288.537720	145.720000
288.630859	145.520000
288.723969	145.360000
288.817078	145.900000
288.910187	145.940000
289.003296	145.300000
289.096436	145.120000
289.189545	144.760000
289.282654	144.300000
289.375763	144.880000
289.468903	145.300000
289.562012	145.760000
289.655121	145.880000
289.748260	146.000000
289.841400	146.200000
289.934509	145.900000
290.027649	145.860000
290.120728	145.640000
290.213898	145.560000
290.306976	145.000000
290.400146	145.380000
290.493256	145.100000
290.586395	145.400000
290.679535	145.920000
290.772644	145.760000
290.865784	144.700000
290.958893	144.800000
291.052032	144.760000
291.145172	144.460000
291.238281	144.260000
291.331421	144.860000
291.424561	145.560000
291.517670	145.320000
291.610809	145.500000
291.703949	145.640000
291.797089	145.900000
291.890228	145.000000
291.983337	144.960000
292.076477	144.680000
292.169617	145.000000
292.262756	144.820000
292.355927	144.900000
292.449036	144.660000
292.542206	144.760000
292.635315	144.900000
292.728485	145.200000
292.821625	145.120000
292.914764	146.360000
293.007904	146.580000
293.101044	146.480000
293.194183	146.240000
293.287323	146.520000
293.380463	145.620000
293.473602	145.380000
293.566742	145.700000
293.659882	145.880000
293.753021	146.140000
293.846191	146.460000
293.939331	146.080000
294.032471	145.860000
294.125610	145.540000
294.218781	145.660000
294.311920	145.900000
294.405060	146.240000
294.498230	146.140000
294.591370	146.180000
294.684540	145.420000
294.777679	144.740000
294.870850	144.880000
294.963959	144.700000
295.057159	144.560000
295.150299	145.060000
295.243469	145.200000
295.336609	144.720000
295.429779	144.660000
295.522919	145.140000
295.616089	144.880000
295.709229	145.180000
295.802399	145.380000
295.895569	145.140000
295.988708	144.900000
296.081879	145.280000
296.175018	144.980000
296.268188	145.160000
296.361359	145.880000
296.454529	145.900000
296.547668	145.580000
296.640839	146.000000
296.734009	145.760000
296.827179	145.800000
296.920319	146.140000
297.013519	145.980000
297.106659	145.980000
297.199860	146.200000
297.292999	146.000000
297.386200	145.320000
297.479309	145.240000
297.572510	144.900000
297.665680	144.420000
297.758850	144.300000
297.852020	144.340000
297.945190	144.420000
298.038361	144.200000
298.131531	145.120000
298.224701	144.700000
298.317871	144.780000
298.411072	144.340000
298.504242	144.360000
298.597412	143.840000
298.690582	144.340000
298.783752	144.120000
298.876923	144.700000
298.970093	144.840000
299.063293	145.300000
299.156464	145.760000
299.249634	146.320000
299.342834	146.460000
299.436005	146.880000
299.529205	146.600000
299.622345	146.220000
299.715576	145.680000
299.808716	145.500000
299.901917	145.340000
299.995117	145.360000
300.088287	145.320000
300.181488	145.180000
300.274658	145.100000
300.367828	145.120000
300.461029	145.080000
300.554199	145.340000
300.647400	145.680000
300.740601	146.540000
300.833771	146.320000
300.926971	146.520000
301.020142	146.100000
301.113342	145.740000
301.206512	145.000000
301.299713	145.220000
301.392914	145.040000
301.486084	145.500000
301.579285	145.940000
301.672516	146.580000
301.765686	146.380000
301.858887	146.380000
301.952057	145.960000
302.045288	145.940000
302.138458	145.640000
302.231659	145.480000
302.324860	145.400000
302.418060	145.080000
302.511261	144.940000
302.604462	144.940000
302.697662	144.860000
302.790863	144.940000
302.884064	145.060000
302.977264	145.220000
303.070465	145.360000
303.163666	145.900000
303.256866	145.920000
303.350067	146.100000
303.443268	145.940000
303.536469	145.980000
303.629669	145.240000
303.722870	145.460000
303.816071	145.220000
303.909271	145.440000
304.002472	144.520000
304.095673	144.660000
304.188934	144.000000
304.282104	144.720000
304.375336	144.660000
304.468506	145.180000
304.561768	144.940000
304.654968	145.400000
304.748169	144.840000
304.841370	144.740000
304.934601	145.080000
305.027802	145.480000
305.121002	145.280000
305.214233	145.640000
305.307434	145.780000
305.400665	146.040000
305.493866	145.640000
