Model Number: SPM-001-M   
Serial Number: 10090201
Firmware Version: 004.17.6
Exposure Time: 300000.000000us
Data Taken on: 28-01-2021 10:41:23.875
Wavelength	Amplitude
733.770752	0.000000
733.808716	0.000000
733.846619	0.000000
733.884583	0.000000
733.922546	0.000000
733.960449	0.000000
733.998413	0.000000
734.036377	0.000000
734.074219	0.000000
734.112183	0.000000
734.150085	0.000000
734.188049	0.000000
734.226013	0.000000
734.263916	0.000000
734.301819	0.000000
734.339783	0.000000
734.377686	0.000000
734.415588	0.000000
734.453552	0.000000
734.491455	0.000000
734.529419	0.000000
734.567322	0.000000
734.605225	0.000000
734.643127	0.000000
734.681091	0.000000
734.718994	0.000000
734.756897	0.000000
734.794800	0.000000
734.832703	0.000000
734.870667	0.000000
734.908508	0.000000
734.946472	0.000000
734.984375	0.000000
735.022278	0.000000
735.060181	0.000000
735.098083	0.000000
735.135986	0.000000
735.173889	0.000000
735.211792	0.000000
735.249695	0.000000
735.287598	0.000000
735.325439	0.000000
735.363403	0.000000
735.401306	0.000000
735.439148	0.000000
735.477051	0.000000
735.515015	0.000000
735.552856	0.000000
735.590759	0.000000
735.628662	0.000000
735.666504	0.000000
735.704407	0.000000
735.742310	0.000000
735.780212	0.000000
735.818115	0.000000
735.856018	0.000000
735.893860	0.000000
735.931763	0.000000
735.969604	0.000000
736.007507	0.000000
736.045410	0.000000
736.083252	0.000000
736.121094	0.000000
736.158997	0.000000
736.196838	0.000000
736.234741	0.000000
736.272644	0.000000
736.310486	0.000000
736.348389	0.000000
736.386230	0.000000
736.424072	0.000000
736.461975	0.000000
736.499878	0.000000
736.537720	0.000000
736.575562	0.000000
736.613403	0.000000
736.651306	0.000000
736.689148	0.000000
736.726990	0.000000
736.764893	0.000000
736.802734	0.000000
736.840576	0.000000
736.878418	0.000000
736.916321	0.000000
736.954102	0.000000
736.992004	0.000000
737.029846	0.000000
737.067688	0.000000
737.105530	0.000000
737.143372	0.000000
737.181213	0.000000
737.219116	0.000000
737.256897	0.000000
737.294739	0.000000
737.332642	0.000000
737.370422	0.000000
737.408325	0.000000
737.446167	0.000000
737.483948	0.000000
737.521790	0.000000
737.559692	0.000000
737.597473	0.000000
737.635315	0.000000
737.673157	0.000000
737.710999	0.000000
737.748840	0.000000
737.786621	0.000000
737.824463	0.000000
737.862305	0.000000
737.900085	0.000000
737.937927	0.000000
737.975769	0.000000
738.013550	0.000000
738.051392	0.000000
738.089233	0.000000
738.127014	0.000000
738.164856	0.000000
738.202698	0.000000
738.240479	0.000000
738.278320	0.000000
738.316162	0.000000
738.353943	0.000000
738.391785	0.000000
738.429565	0.000000
738.467407	0.000000
738.505188	0.000000
738.542969	0.000000
738.580811	0.000000
738.618652	0.000000
738.656372	0.000000
738.694214	0.000000
738.732056	0.000000
738.769836	0.000000
738.807617	0.000000
738.845459	0.000000
738.883240	0.000000
738.921021	0.000000
738.958862	0.000000
738.996582	0.000000
739.034424	0.000000
739.072205	0.000000
739.109985	0.000000
739.147827	0.000000
739.185547	0.000000
739.223389	0.000000
739.261169	0.000000
739.298889	0.000000
739.336731	0.000000
739.374512	0.000000
739.412292	0.000000
739.450073	0.000000
739.487854	0.000000
739.525635	0.000000
739.563416	0.000000
739.601135	0.000000
739.638977	0.000000
739.676758	0.000000
739.714478	0.000000
739.752258	0.000000
739.790100	0.000000
739.827820	0.000000
739.865601	0.000000
739.903381	0.000000
739.941101	0.000000
739.978882	185.000000
740.016724	179.700000
740.054443	184.300000
740.092224	179.300000
740.130005	179.300000
740.167725	178.800000
740.205505	179.200000
740.243225	185.600000
740.281006	180.900000
740.318787	176.400000
740.356506	186.500000
740.394287	185.400000
740.432068	179.200000
740.469727	177.300000
740.507507	183.900000
740.545288	181.800000
740.583008	183.600000
740.620789	181.100000
740.658569	176.000000
740.696228	182.400000
740.734009	184.800000
740.771790	175.700000
740.809509	183.500000
740.847229	179.700000
740.884949	179.500000
740.922729	178.900000
740.960449	179.800000
740.998169	180.100000
741.035950	178.200000
741.073669	181.800000
741.111389	181.100000
741.149170	189.300000
741.186890	187.700000
741.224609	184.400000
741.262329	182.400000
741.300110	189.300000
741.337769	178.600000
741.375549	179.300000
741.413208	181.700000
741.450989	180.900000
741.488708	178.800000
741.526367	180.000000
741.564148	184.100000
741.601868	185.500000
741.639526	180.000000
741.677307	184.400000
741.715027	183.000000
741.752686	178.100000
741.790466	186.000000
741.828186	182.100000
741.865845	177.200000
741.903564	177.500000
741.941345	182.300000
741.979004	179.000000
742.016724	184.500000
742.054382	183.000000
742.092102	185.100000
742.129822	177.500000
742.167480	181.200000
742.205200	180.900000
742.242920	183.100000
742.280640	183.500000
742.318359	178.700000
742.356079	179.900000
742.393738	184.300000
742.431396	179.700000
742.469116	186.700000
742.506775	175.500000
742.544495	183.800000
742.582214	183.700000
742.619873	182.600000
742.657593	186.200000
742.695251	187.500000
742.732971	180.200000
742.770630	184.000000
742.808289	181.300000
742.846008	183.100000
742.883728	182.400000
742.921326	182.500000
742.959045	180.100000
742.996765	181.800000
743.034424	179.800000
743.072083	181.000000
743.109802	181.200000
743.147400	179.800000
743.185120	181.000000
743.222839	181.400000
743.260437	186.500000
743.298157	183.200000
743.335754	174.600000
743.373474	181.900000
743.411133	176.900000
743.448792	182.100000
743.486450	180.400000
743.524170	177.400000
743.561768	180.900000
743.599487	187.200000
743.637146	189.200000
743.674744	181.100000
743.712463	179.200000
743.750122	183.000000
743.787720	182.000000
743.825439	180.700000
743.863037	181.600000
743.900696	181.400000
743.938416	206.100000
743.976013	180.400000
744.013672	187.000000
744.051331	185.400000
744.088928	188.400000
744.126587	185.800000
744.164307	184.300000
744.201904	179.900000
744.239563	183.600000
744.277222	183.900000
744.314819	181.200000
744.352478	186.100000
744.390137	184.300000
744.427734	183.300000
744.465393	180.600000
744.502991	177.800000
744.540649	184.500000
744.578308	181.700000
744.615906	179.600000
744.653564	173.800000
744.691223	183.800000
744.728821	177.100000
744.766418	183.200000
744.804077	181.100000
744.841675	181.300000
744.879333	176.400000
744.916992	180.800000
744.954529	179.200000
744.992187	187.000000
745.029785	180.100000
745.067444	181.500000
745.105042	181.700000
745.142639	183.200000
745.180298	189.300000
745.217896	181.600000
745.255493	180.100000
745.293152	184.700000
745.330750	186.100000
745.368347	186.400000
745.405945	183.300000
745.443604	182.300000
745.481140	183.300000
745.518799	181.100000
745.556396	183.900000
745.593994	184.100000
745.631592	182.000000
745.669189	178.600000
745.706787	182.300000
745.744385	179.600000
745.781982	185.800000
745.819580	179.600000
745.857178	180.700000
745.894775	180.600000
745.932373	182.500000
745.969971	184.100000
746.007568	177.000000
746.045166	186.500000
746.082764	187.300000
746.120300	183.400000
746.157898	184.500000
746.195557	180.100000
746.233093	179.500000
746.270691	184.300000
746.308228	185.400000
746.345825	184.300000
746.383423	185.400000
746.420959	178.500000
746.458557	180.700000
746.496155	178.300000
746.533691	183.400000
746.571289	178.400000
746.608887	182.500000
746.646423	181.700000
746.684021	183.300000
746.721619	178.700000
746.759155	185.200000
746.796753	175.900000
746.834351	179.400000
746.871826	178.900000
746.909424	186.900000
746.946960	180.100000
746.984558	181.600000
747.022156	178.900000
747.059631	188.600000
747.097229	183.800000
747.134827	179.900000
747.172363	184.700000
747.209900	184.300000
747.247498	178.400000
747.285034	185.400000
747.322571	185.500000
747.360168	181.000000
747.397644	176.500000
747.435242	184.700000
747.472778	185.500000
747.510315	180.500000
747.547913	180.300000
747.585388	184.500000
747.622925	181.000000
747.660522	176.600000
747.697998	180.200000
747.735596	181.400000
747.773132	181.100000
747.810669	181.900000
747.848206	184.500000
747.885742	178.600000
747.923279	178.700000
747.960815	182.600000
747.998352	183.000000
748.035889	184.500000
748.073425	183.900000
748.110901	179.600000
748.148437	179.700000
748.185974	181.200000
748.223511	189.400000
748.261047	183.500000
748.298584	183.200000
748.336060	180.400000
748.373596	184.900000
748.411133	206.700000
748.448608	180.300000
748.486145	182.900000
748.523682	185.800000
748.561218	187.600000
748.598755	182.800000
748.636292	183.100000
748.673706	181.800000
748.711243	186.600000
748.748718	183.500000
748.786255	181.100000
748.823792	181.500000
748.861267	177.200000
748.898804	184.400000
748.936340	181.800000
748.973816	179.400000
749.011292	187.000000
749.048828	182.700000
749.086304	183.100000
749.123840	189.700000
749.161316	179.500000
749.198792	187.600000
749.236328	185.900000
749.273743	181.600000
749.311279	181.100000
749.348816	184.800000
749.386230	182.900000
749.423767	173.100000
749.461304	184.300000
749.498718	180.600000
749.536255	186.000000
749.573730	189.800000
749.611206	188.000000
749.648682	181.100000
749.686218	183.100000
749.723633	184.000000
749.761169	181.900000
749.798645	179.600000
749.836060	182.000000
749.873596	178.500000
749.911011	184.200000
749.948547	185.500000
749.986023	181.600000
750.023437	180.000000
750.060913	179.300000
750.098450	175.900000
750.135864	182.700000
750.173340	182.200000
750.210815	185.900000
750.248291	178.700000
750.285767	183.200000
750.323242	184.900000
750.360657	185.100000
750.398132	177.900000
750.435608	185.600000
750.473022	179.200000
750.510498	179.800000
750.547974	177.900000
750.585449	181.100000
750.622925	173.400000
750.660339	191.200000
750.697815	181.500000
750.735291	182.300000
750.772644	180.700000
750.810120	183.100000
750.847595	183.400000
750.885010	179.300000
750.922485	187.000000
750.959961	181.700000
750.997375	187.000000
751.034851	185.500000
751.072266	185.200000
751.109680	177.300000
751.147156	187.500000
751.184570	182.600000
751.221985	182.000000
751.259460	177.000000
751.296875	182.600000
751.334290	180.700000
751.371765	185.700000
751.409180	183.700000
751.446594	187.000000
751.484070	181.800000
751.521423	183.200000
751.558899	182.100000
751.596375	190.100000
751.633728	186.400000
751.671204	190.100000
751.708618	179.700000
751.746033	184.500000
751.783447	176.800000
751.820801	180.800000
751.858276	183.100000
751.895691	182.600000
751.933105	179.700000
751.970520	179.600000
752.007935	180.700000
752.045349	186.900000
752.082764	181.900000
752.120178	181.100000
752.157532	179.900000
752.195007	181.600000
752.232422	182.300000
752.269775	186.500000
752.307190	184.300000
752.344543	180.000000
752.382019	182.300000
752.419434	182.500000
752.456787	182.900000
752.494202	186.100000
752.531616	182.600000
752.568970	184.600000
752.606384	183.900000
752.643799	183.700000
752.681152	187.700000
752.718567	183.100000
752.755981	177.400000
752.793335	184.300000
752.830750	178.000000
752.868164	185.200000
752.905518	179.500000
752.942932	185.200000
752.980225	180.100000
753.017639	184.400000
753.055054	185.200000
753.092407	183.300000
753.129822	186.700000
753.167175	188.100000
753.204529	183.300000
753.241943	178.800000
753.279358	179.500000
753.316650	183.300000
753.354065	183.600000
753.391479	185.300000
753.428772	188.100000
753.466187	182.500000
753.503479	179.600000
753.540894	179.100000
753.578308	179.400000
753.615601	177.100000
753.653015	182.400000
753.690369	179.800000
753.727722	181.000000
753.765076	176.800000
753.802490	179.700000
753.839783	176.000000
753.877136	181.200000
753.914551	189.200000
753.951843	179.700000
753.989258	183.200000
754.026611	183.100000
754.063904	183.400000
754.101257	179.700000
754.138611	176.100000
754.175964	183.900000
754.213318	187.700000
754.250610	177.000000
754.288025	180.300000
754.325378	179.500000
754.362671	183.900000
754.400024	182.100000
754.437378	189.400000
754.474670	188.000000
754.512085	180.500000
754.549438	182.100000
754.586731	180.900000
754.624084	182.500000
754.661438	179.700000
754.698730	188.700000
754.736084	182.000000
754.773376	181.500000
754.810730	184.500000
754.848083	182.200000
754.885315	187.100000
754.922668	177.600000
754.960022	180.300000
754.997314	185.300000
755.034668	184.000000
755.072021	182.400000
755.109253	182.100000
755.146606	186.800000
755.183960	182.600000
755.221252	187.700000
755.258545	187.500000
755.295898	186.800000
755.333191	187.500000
755.370544	184.100000
755.407776	184.400000
755.445129	183.000000
755.482422	187.000000
755.519714	181.800000
755.557068	179.500000
755.594360	176.900000
755.631653	186.700000
755.668945	188.200000
755.706299	185.300000
755.743530	190.500000
755.780884	190.000000
755.818176	185.800000
755.855408	188.200000
755.892761	185.100000
755.930054	182.300000
755.967346	185.800000
756.004639	186.400000
756.041870	184.500000
756.079224	189.100000
756.116516	181.400000
756.153748	185.500000
756.191040	189.500000
756.228394	186.800000
756.265625	181.500000
756.302917	184.800000
756.340210	181.400000
756.377441	188.400000
756.414795	190.200000
756.452087	183.900000
756.489319	182.100000
756.526611	187.400000
756.563843	186.400000
756.601135	190.400000
756.638428	192.000000
756.675659	184.200000
756.712952	188.000000
756.750244	187.000000
756.787476	187.000000
756.824768	188.600000
756.862061	186.000000
756.899292	229.500000
756.936584	190.100000
756.973816	193.400000
757.011047	194.700000
757.048340	185.000000
757.085632	188.600000
757.122864	197.000000
757.160156	185.700000
757.197327	187.300000
757.234619	192.800000
757.271912	185.100000
757.309082	190.600000
757.346375	182.400000
757.383667	191.300000
757.420837	186.700000
757.458130	188.200000
757.495422	183.700000
757.532593	190.700000
757.569885	181.100000
757.607117	186.300000
757.644348	186.700000
757.681580	198.200000
757.718811	178.600000
757.756042	188.200000
757.793335	185.300000
757.830505	189.400000
757.867798	185.600000
757.905029	185.400000
757.942200	188.300000
757.979492	186.800000
758.016724	187.500000
758.053894	186.500000
758.091187	199.800000
758.128418	188.600000
758.165588	187.900000
758.202820	196.800000
758.240112	190.100000
758.277283	195.100000
758.314514	190.000000
758.351685	187.000000
758.388916	194.600000
758.426147	192.200000
758.463379	195.300000
758.500610	190.400000
758.537842	191.900000
758.575012	193.400000
758.612244	188.600000
758.649475	198.400000
758.686646	187.900000
758.723877	194.100000
758.761108	197.500000
758.798279	189.500000
758.835510	193.500000
758.872742	195.800000
758.909851	193.000000
758.947083	192.400000
758.984253	193.700000
759.021484	193.800000
759.058716	194.000000
759.095886	196.200000
759.133057	193.600000
759.170288	192.800000
759.207458	192.300000
759.244690	198.800000
759.281860	199.300000
759.319031	193.400000
759.356262	192.300000
759.393433	190.500000
759.430603	194.000000
759.467773	192.200000
759.505005	197.600000
759.542175	197.400000
759.579346	192.800000
759.616516	193.400000
759.653687	196.800000
759.690918	193.300000
759.728027	194.200000
759.765259	195.600000
759.802429	197.100000
759.839539	195.800000
759.876770	198.700000
759.913940	202.900000
759.951111	197.000000
759.988281	195.800000
760.025452	193.100000
760.062561	193.100000
760.099792	203.000000
760.136963	198.800000
760.174072	194.500000
760.211243	194.700000
760.248413	191.100000
760.285583	194.100000
760.322754	203.300000
760.359863	202.100000
760.397034	201.000000
760.434204	196.900000
760.471375	196.300000
760.508545	196.600000
760.545715	196.400000
760.582825	196.100000
760.619995	199.700000
760.657166	196.000000
760.694275	202.400000
760.731445	198.700000
760.768555	198.100000
760.805664	202.300000
760.842834	199.500000
760.879944	201.000000
760.917114	197.400000
760.954285	197.900000
760.991394	194.700000
761.028564	203.500000
761.065674	199.600000
761.102783	198.200000
761.139954	201.500000
761.177124	202.800000
761.214172	202.500000
761.251343	200.300000
761.288452	198.700000
761.325562	203.200000
761.362732	199.000000
761.399841	200.100000
761.436951	201.700000
761.474121	198.400000
761.511169	201.300000
761.548340	204.500000
761.585449	203.400000
761.622559	203.400000
761.659668	203.000000
761.696838	205.300000
761.733887	205.100000
761.771057	201.300000
761.808167	203.800000
761.845276	205.400000
761.882385	212.200000
761.919434	203.700000
761.956604	216.000000
761.993713	201.600000
762.030762	208.600000
762.067871	203.800000
762.105042	203.700000
762.142090	209.800000
762.179199	205.700000
762.216309	209.600000
762.253418	214.900000
762.290527	213.200000
762.327637	211.000000
762.364685	202.300000
762.401794	210.400000
762.438904	206.300000
762.475952	205.700000
762.513062	202.800000
762.550110	206.000000
762.587219	213.100000
762.624329	215.600000
762.661377	208.600000
762.698486	209.900000
762.735596	208.800000
762.772644	207.200000
762.809753	202.800000
762.846863	207.900000
762.883911	211.600000
762.921021	212.000000
762.958069	209.700000
762.995117	216.500000
763.032227	214.000000
763.069336	209.500000
763.106323	205.900000
763.143433	205.500000
763.180481	210.900000
763.217590	212.000000
763.254639	210.000000
763.291687	210.800000
763.328735	216.300000
763.365845	211.400000
763.402893	211.000000
763.439941	213.800000
763.477051	215.600000
763.514038	213.700000
763.551147	212.300000
763.588196	213.300000
763.625244	214.000000
763.662292	219.400000
763.699402	222.700000
763.736389	217.500000
763.773499	224.900000
763.810486	219.100000
763.847534	217.900000
763.884644	218.300000
763.921631	218.100000
763.958679	222.600000
763.995728	217.800000
764.032776	220.900000
764.069824	216.900000
764.106873	222.700000
764.143860	227.600000
764.180969	217.800000
764.218018	228.000000
764.255005	217.800000
764.292053	221.800000
764.329102	227.900000
764.366089	229.600000
764.403137	224.100000
764.440125	222.800000
764.477173	222.700000
764.514221	228.000000
764.551208	222.500000
764.588257	222.500000
764.625305	227.000000
764.662292	233.500000
764.699341	232.400000
764.736389	228.600000
764.773376	238.400000
764.810425	230.600000
764.847473	234.800000
764.884399	232.700000
764.921448	238.200000
764.958435	236.400000
764.995483	230.300000
765.032532	240.500000
765.069458	231.700000
765.106506	232.000000
765.143555	232.200000
765.180481	234.200000
765.217529	242.800000
765.254578	231.400000
765.291504	237.100000
765.328552	234.500000
765.365540	234.300000
765.402527	243.000000
765.439575	233.900000
765.476501	232.900000
765.513550	233.400000
765.550537	236.300000
765.587463	242.200000
765.624512	234.700000
765.661499	232.000000
765.698486	241.100000
765.735474	236.200000
765.772461	237.200000
765.809448	245.800000
765.846436	241.700000
765.883423	245.900000
765.920410	241.200000
765.957397	238.200000
765.994385	241.800000
766.031311	247.700000
766.068359	241.900000
766.105286	245.200000
766.142273	248.800000
766.179260	245.500000
766.216187	242.400000
766.253174	240.200000
766.290161	244.300000
766.327148	249.100000
766.364136	247.500000
766.401123	257.600000
766.438049	244.000000
766.475037	253.500000
766.512024	249.600000
766.548950	261.800000
766.585937	257.400000
766.622864	251.600000
766.659790	252.400000
766.696777	245.900000
766.733704	257.300000
766.770691	253.200000
766.807678	260.700000
766.844604	254.100000
766.881531	257.000000
766.918518	258.800000
766.955444	260.000000
766.992432	255.400000
767.029358	258.000000
767.066284	260.300000
767.103271	259.400000
767.140198	289.800000
767.177124	269.600000
767.214050	260.900000
767.251038	264.200000
767.287964	260.500000
767.324890	261.200000
767.361816	263.000000
767.398743	265.400000
767.435730	259.400000
767.472595	266.200000
767.509583	267.000000
767.546509	261.700000
767.583374	264.200000
767.620361	259.200000
767.657288	261.900000
767.694214	263.800000
767.731140	262.100000
767.768066	267.000000
767.804993	264.500000
767.841919	263.600000
767.878845	266.900000
767.915710	272.000000
767.952698	265.500000
767.989563	269.600000
768.026489	268.800000
