Model Number: SPM-001-M   
Serial Number: 10090201
Firmware Version: 004.17.6
Exposure Time: 500000.000000us
Data Taken on: 20-03-2021 09:16:27.659
Wavelength	Amplitude
733.770752	0.000000
733.808716	0.000000
733.846619	0.000000
733.884583	0.000000
733.922546	0.000000
733.960449	0.000000
733.998413	0.000000
734.036377	0.000000
734.074219	0.000000
734.112183	0.000000
734.150085	0.000000
734.188049	0.000000
734.226013	0.000000
734.263916	0.000000
734.301819	0.000000
734.339783	0.000000
734.377686	0.000000
734.415588	0.000000
734.453552	0.000000
734.491455	0.000000
734.529419	0.000000
734.567322	0.000000
734.605225	0.000000
734.643127	0.000000
734.681091	0.000000
734.718994	0.000000
734.756897	0.000000
734.794800	0.000000
734.832703	0.000000
734.870667	0.000000
734.908508	0.000000
734.946472	0.000000
734.984375	0.000000
735.022278	0.000000
735.060181	0.000000
735.098083	0.000000
735.135986	0.000000
735.173889	0.000000
735.211792	0.000000
735.249695	0.000000
735.287598	0.000000
735.325439	0.000000
735.363403	0.000000
735.401306	0.000000
735.439148	0.000000
735.477051	0.000000
735.515015	0.000000
735.552856	0.000000
735.590759	0.000000
735.628662	0.000000
735.666504	0.000000
735.704407	0.000000
735.742310	0.000000
735.780212	0.000000
735.818115	0.000000
735.856018	0.000000
735.893860	0.000000
735.931763	0.000000
735.969604	0.000000
736.007507	0.000000
736.045410	0.000000
736.083252	0.000000
736.121094	0.000000
736.158997	0.000000
736.196838	0.000000
736.234741	0.000000
736.272644	0.000000
736.310486	0.000000
736.348389	0.000000
736.386230	0.000000
736.424072	0.000000
736.461975	0.000000
736.499878	0.000000
736.537720	0.000000
736.575562	0.000000
736.613403	0.000000
736.651306	0.000000
736.689148	0.000000
736.726990	0.000000
736.764893	0.000000
736.802734	0.000000
736.840576	0.000000
736.878418	0.000000
736.916321	0.000000
736.954102	0.000000
736.992004	0.000000
737.029846	0.000000
737.067688	0.000000
737.105530	0.000000
737.143372	0.000000
737.181213	0.000000
737.219116	0.000000
737.256897	0.000000
737.294739	0.000000
737.332642	0.000000
737.370422	0.000000
737.408325	0.000000
737.446167	0.000000
737.483948	0.000000
737.521790	0.000000
737.559692	0.000000
737.597473	0.000000
737.635315	0.000000
737.673157	0.000000
737.710999	0.000000
737.748840	0.000000
737.786621	0.000000
737.824463	0.000000
737.862305	0.000000
737.900085	0.000000
737.937927	0.000000
737.975769	0.000000
738.013550	0.000000
738.051392	0.000000
738.089233	0.000000
738.127014	0.000000
738.164856	0.000000
738.202698	0.000000
738.240479	0.000000
738.278320	0.000000
738.316162	0.000000
738.353943	0.000000
738.391785	0.000000
738.429565	0.000000
738.467407	0.000000
738.505188	0.000000
738.542969	0.000000
738.580811	0.000000
738.618652	0.000000
738.656372	0.000000
738.694214	0.000000
738.732056	0.000000
738.769836	0.000000
738.807617	0.000000
738.845459	0.000000
738.883240	0.000000
738.921021	0.000000
738.958862	0.000000
738.996582	0.000000
739.034424	0.000000
739.072205	0.000000
739.109985	0.000000
739.147827	0.000000
739.185547	0.000000
739.223389	0.000000
739.261169	0.000000
739.298889	0.000000
739.336731	0.000000
739.374512	0.000000
739.412292	0.000000
739.450073	0.000000
739.487854	0.000000
739.525635	0.000000
739.563416	0.000000
739.601135	0.000000
739.638977	0.000000
739.676758	0.000000
739.714478	0.000000
739.752258	0.000000
739.790100	0.000000
739.827820	0.000000
739.865601	0.000000
739.903381	0.000000
739.941101	0.000000
739.978882	192.500000
740.016724	186.400000
740.054443	194.100000
740.092224	185.900000
740.130005	185.500000
740.167725	186.000000
740.205505	185.100000
740.243225	196.100000
740.281006	189.700000
740.318787	180.500000
740.356506	193.400000
740.394287	193.500000
740.432068	185.000000
740.469727	180.600000
740.507507	193.000000
740.545288	187.400000
740.583008	190.700000
740.620789	188.500000
740.658569	180.500000
740.696228	188.400000
740.734009	193.600000
740.771790	177.400000
740.809509	191.300000
740.847229	185.000000
740.884949	184.500000
740.922729	182.200000
740.960449	187.200000
740.998169	183.100000
741.035950	185.200000
741.073669	190.200000
741.111389	190.100000
741.149170	198.300000
741.186890	198.800000
741.224609	193.600000
741.262329	191.700000
741.300110	199.900000
741.337769	182.900000
741.375549	183.900000
741.413208	190.400000
741.450989	185.300000
741.488708	187.000000
741.526367	187.200000
741.564148	191.900000
741.601868	192.900000
741.639526	188.700000
741.677307	190.700000
741.715027	191.300000
741.752686	184.900000
741.790466	194.600000
741.828186	192.800000
741.865845	183.200000
741.903564	180.800000
741.941345	188.600000
741.979004	185.600000
742.016724	192.200000
742.054382	190.900000
742.092102	193.300000
742.129822	181.100000
742.167480	187.000000
742.205200	187.400000
742.242920	190.600000
742.280640	193.500000
742.318359	184.200000
742.356079	186.200000
742.393738	192.000000
742.431396	187.700000
742.469116	192.500000
742.506775	178.500000
742.544495	191.100000
742.582214	191.600000
742.619873	185.400000
742.657593	195.200000
742.695251	192.200000
742.732971	188.800000
742.770630	190.800000
742.808289	188.900000
742.846008	188.700000
742.883728	191.300000
742.921326	189.700000
742.959045	185.600000
742.996765	189.200000
743.034424	187.500000
743.072083	187.300000
743.109802	188.700000
743.147400	182.800000
743.185120	190.400000
743.222839	188.700000
743.260437	194.500000
743.298157	190.300000
743.335754	182.400000
743.373474	188.000000
743.411133	180.500000
743.448792	188.200000
743.486450	188.100000
743.524170	181.500000
743.561768	190.100000
743.599487	196.100000
743.637146	200.000000
743.674744	188.000000
743.712463	186.200000
743.750122	191.200000
743.787720	191.400000
743.825439	186.200000
743.863037	186.400000
743.900696	189.200000
743.938416	214.300000
743.976013	188.600000
744.013672	197.600000
744.051331	193.300000
744.088928	197.700000
744.126587	195.000000
744.164307	188.600000
744.201904	186.400000
744.239563	191.600000
744.277222	190.900000
744.314819	189.100000
744.352478	195.800000
744.390137	190.400000
744.427734	190.800000
744.465393	185.600000
744.502991	186.000000
744.540649	191.600000
744.578308	189.700000
744.615906	183.200000
744.653564	178.100000
744.691223	192.400000
744.728821	181.600000
744.766418	189.200000
744.804077	190.800000
744.841675	185.600000
744.879333	183.100000
744.916992	187.200000
744.954529	186.600000
744.992187	194.100000
745.029785	187.800000
745.067444	185.400000
745.105042	188.600000
745.142639	192.000000
745.180298	198.600000
745.217896	187.700000
745.255493	187.500000
745.293152	194.300000
745.330750	193.500000
745.368347	197.000000
745.405945	192.200000
745.443604	190.000000
745.481140	192.300000
745.518799	188.000000
745.556396	192.300000
745.593994	193.500000
745.631592	188.600000
745.669189	184.800000
745.706787	191.200000
745.744385	186.300000
745.781982	190.800000
745.819580	187.200000
745.857178	189.400000
745.894775	190.100000
745.932373	190.000000
745.969971	189.800000
746.007568	180.900000
746.045166	197.400000
746.082764	193.900000
746.120300	191.400000
746.157898	191.200000
746.195557	187.200000
746.233093	183.500000
746.270691	190.600000
746.308228	190.100000
746.345825	192.500000
746.383423	192.300000
746.420959	185.000000
746.458557	186.300000
746.496155	187.100000
746.533691	188.900000
746.571289	184.100000
746.608887	189.400000
746.646423	189.800000
746.684021	188.500000
746.721619	186.600000
746.759155	189.200000
746.796753	183.000000
746.834351	182.400000
746.871826	184.900000
746.909424	196.300000
746.946960	191.800000
746.984558	187.200000
747.022156	187.100000
747.059631	196.400000
747.097229	190.600000
747.134827	187.500000
747.172363	196.900000
747.209900	192.600000
747.247498	185.900000
747.285034	196.200000
747.322571	197.000000
747.360168	188.500000
747.397644	183.200000
747.435242	193.200000
747.472778	195.400000
747.510315	187.300000
747.547913	186.700000
747.585388	195.800000
747.622925	188.600000
747.660522	181.400000
747.697998	185.400000
747.735596	188.900000
747.773132	186.700000
747.810669	190.000000
747.848206	193.400000
747.885742	183.900000
747.923279	183.300000
747.960815	191.400000
747.998352	188.500000
748.035889	194.300000
748.073425	191.500000
748.110901	185.700000
748.148437	184.700000
748.185974	190.200000
748.223511	199.100000
748.261047	191.100000
748.298584	191.700000
748.336060	187.600000
748.373596	191.700000
748.411133	209.000000
748.448608	185.900000
748.486145	192.600000
748.523682	196.500000
748.561218	195.400000
748.598755	189.800000
748.636292	192.800000
748.673706	187.700000
748.711243	196.300000
748.748718	191.600000
748.786255	188.700000
748.823792	188.700000
748.861267	184.600000
748.898804	192.400000
748.936340	192.200000
748.973816	188.400000
749.011292	194.600000
749.048828	190.700000
749.086304	193.300000
749.123840	202.000000
749.161316	185.500000
749.198792	200.600000
749.236328	196.000000
749.273743	190.800000
749.311279	188.300000
749.348816	191.300000
749.386230	189.800000
749.423767	178.000000
749.461304	191.700000
749.498718	190.400000
749.536255	195.000000
749.573730	203.200000
749.611206	195.400000
749.648682	188.300000
749.686218	189.600000
749.723633	193.200000
749.761169	186.400000
749.798645	184.900000
749.836060	188.000000
749.873596	186.900000
749.911011	189.500000
749.948547	195.200000
749.986023	188.700000
750.023437	188.800000
750.060913	182.700000
750.098450	183.300000
750.135864	187.000000
750.173340	189.700000
750.210815	192.100000
750.248291	183.100000
750.285767	189.600000
750.323242	195.700000
750.360657	190.300000
750.398132	184.700000
750.435608	194.200000
750.473022	184.500000
750.510498	184.900000
750.547974	185.700000
750.585449	186.000000
750.622925	178.300000
750.660339	198.700000
750.697815	190.400000
750.735291	189.900000
750.772644	191.100000
750.810120	189.800000
750.847595	192.600000
750.885010	185.400000
750.922485	197.700000
750.959961	187.900000
750.997375	195.900000
751.034851	194.400000
751.072266	193.500000
751.109680	182.500000
751.147156	195.500000
751.184570	192.000000
751.221985	190.900000
751.259460	182.000000
751.296875	189.400000
751.334290	189.400000
751.371765	192.200000
751.409180	192.900000
751.446594	195.900000
751.484070	192.100000
751.521423	190.700000
751.558899	191.600000
751.596375	196.000000
751.633728	196.100000
751.671204	200.800000
751.708618	184.300000
751.746033	190.000000
751.783447	184.000000
751.820801	185.500000
751.858276	192.000000
751.895691	189.100000
751.933105	187.100000
751.970520	183.100000
752.007935	186.800000
752.045349	194.100000
752.082764	189.100000
752.120178	187.000000
752.157532	185.700000
752.195007	186.700000
752.232422	191.300000
752.269775	195.100000
752.307190	192.900000
752.344543	185.300000
752.382019	186.800000
752.419434	187.700000
752.456787	191.200000
752.494202	193.600000
752.531616	190.400000
752.568970	193.400000
752.606384	189.900000
752.643799	189.700000
752.681152	199.100000
752.718567	193.000000
752.755981	182.100000
752.793335	193.000000
752.830750	181.500000
752.868164	196.900000
752.905518	184.600000
752.942932	194.600000
752.980225	185.600000
753.017639	193.100000
753.055054	187.400000
753.092407	192.900000
753.129822	195.800000
753.167175	199.200000
753.204529	189.400000
753.241943	186.900000
753.279358	184.300000
753.316650	194.800000
753.354065	192.100000
753.391479	193.500000
753.428772	197.500000
753.466187	193.400000
753.503479	183.300000
753.540894	188.800000
753.578308	183.700000
753.615601	185.700000
753.653015	190.200000
753.690369	188.100000
753.727722	184.900000
753.765076	183.000000
753.802490	185.100000
753.839783	180.000000
753.877136	186.400000
753.914551	205.400000
753.951843	183.500000
753.989258	192.900000
754.026611	189.000000
754.063904	192.500000
754.101257	184.200000
754.138611	182.200000
754.175964	189.700000
754.213318	201.400000
754.250610	182.400000
754.288025	186.600000
754.325378	183.100000
754.362671	195.600000
754.400024	187.300000
754.437378	199.400000
754.474670	197.600000
754.512085	186.000000
754.549438	190.200000
754.586731	188.200000
754.624084	187.800000
754.661438	185.000000
754.698730	198.600000
754.736084	187.500000
754.773376	187.900000
754.810730	192.400000
754.848083	188.400000
754.885315	193.800000
754.922668	182.800000
754.960022	184.500000
754.997314	194.400000
755.034668	189.900000
755.072021	191.400000
755.109253	188.300000
755.146606	197.700000
755.183960	188.000000
755.221252	198.400000
755.258545	194.700000
755.295898	196.000000
755.333191	196.300000
755.370544	193.700000
755.407776	190.600000
755.445129	191.400000
755.482422	195.100000
755.519714	187.700000
755.557068	183.200000
755.594360	182.900000
755.631653	195.700000
755.668945	200.100000
755.706299	192.500000
755.743530	202.400000
755.780884	198.500000
755.818176	196.200000
755.855408	194.900000
755.892761	194.100000
755.930054	192.700000
755.967346	193.000000
756.004639	195.700000
756.041870	192.400000
756.079224	196.000000
756.116516	188.400000
756.153748	196.100000
756.191040	199.500000
756.228394	195.700000
756.265625	188.500000
756.302917	192.900000
756.340210	189.700000
756.377441	198.500000
756.414795	199.900000
756.452087	193.000000
756.489319	188.000000
756.526611	195.700000
756.563843	194.800000
756.601135	204.200000
756.638428	201.800000
756.675659	194.100000
756.712952	198.800000
756.750244	197.000000
756.787476	195.200000
756.824768	203.900000
756.862061	191.700000
756.899292	241.100000
756.936584	199.500000
756.973816	206.700000
757.011047	206.900000
757.048340	197.300000
757.085632	195.600000
757.122864	213.100000
757.160156	194.500000
757.197327	198.400000
757.234619	200.800000
757.271912	196.200000
757.309082	202.000000
757.346375	193.500000
757.383667	202.600000
757.420837	198.200000
757.458130	197.600000
757.495422	195.600000
757.532593	198.600000
757.569885	189.900000
757.607117	193.800000
757.644348	200.600000
757.681580	210.900000
757.718811	186.100000
757.756042	197.300000
757.793335	193.400000
757.830505	200.000000
757.867798	196.000000
757.905029	195.000000
757.942200	200.500000
757.979492	193.400000
758.016724	197.100000
758.053894	196.800000
758.091187	217.500000
758.128418	199.800000
758.165588	198.900000
758.202820	210.000000
758.240112	201.300000
758.277283	211.600000
758.314514	201.000000
758.351685	198.600000
758.388916	209.600000
758.426147	209.000000
758.463379	210.700000
758.500610	204.900000
758.537842	202.400000
758.575012	209.300000
758.612244	198.800000
758.649475	214.800000
758.686646	196.300000
758.723877	211.100000
758.761108	211.300000
758.798279	203.500000
758.835510	205.400000
758.872742	210.400000
758.909851	205.800000
758.947083	205.900000
758.984253	206.700000
759.021484	209.900000
759.058716	209.500000
759.095886	209.900000
759.133057	204.100000
759.170288	208.100000
759.207458	201.400000
759.244690	217.300000
759.281860	214.700000
759.319031	206.300000
759.356262	204.100000
759.393433	203.800000
759.430603	205.000000
759.467773	205.500000
759.505005	211.900000
759.542175	211.300000
759.579346	205.100000
759.616516	207.500000
759.653687	209.100000
759.690918	201.900000
759.728027	207.000000
759.765259	208.400000
759.802429	210.500000
759.839539	211.600000
759.876770	215.000000
759.913940	217.600000
759.951111	211.100000
759.988281	209.500000
760.025452	205.000000
760.062561	205.300000
760.099792	217.000000
760.136963	212.300000
760.174072	207.800000
760.211243	203.300000
760.248413	204.800000
760.285583	205.700000
760.322754	219.900000
760.359863	216.900000
760.397034	217.300000
760.434204	208.900000
760.471375	210.600000
760.508545	209.200000
760.545715	209.300000
760.582825	206.900000
760.619995	216.900000
760.657166	205.400000
760.694275	218.100000
760.731445	213.700000
760.768555	214.500000
760.805664	215.800000
760.842834	215.200000
760.879944	216.700000
760.917114	216.100000
760.954285	211.800000
760.991394	207.700000
761.028564	218.800000
761.065674	218.100000
761.102783	210.800000
761.139954	218.800000
761.177124	218.700000
761.214172	220.500000
761.251343	212.000000
761.288452	214.700000
761.325562	218.400000
761.362732	212.800000
761.399841	213.000000
761.436951	216.800000
761.474121	213.500000
761.511169	217.000000
761.548340	219.800000
761.585449	219.700000
761.622559	221.500000
761.659668	219.200000
761.696838	225.500000
761.733887	221.200000
761.771057	217.400000
761.808167	219.800000
761.845276	225.300000
761.882385	233.700000
761.919434	221.600000
761.956604	241.400000
761.993713	217.200000
762.030762	229.300000
762.067871	223.100000
762.105042	220.600000
762.142090	230.900000
762.179199	226.400000
762.216309	229.200000
762.253418	241.400000
762.290527	235.600000
762.327637	233.100000
762.364685	222.300000
762.401794	231.400000
762.438904	230.800000
762.475952	224.400000
762.513062	222.900000
762.550110	224.700000
762.587219	240.900000
762.624329	238.400000
762.661377	231.600000
762.698486	233.300000
762.735596	232.600000
762.772644	226.500000
762.809753	225.100000
762.846863	230.700000
762.883911	237.800000
762.921021	234.600000
762.958069	233.600000
762.995117	240.500000
763.032227	243.800000
763.069336	232.900000
763.106323	231.300000
763.143433	227.500000
763.180481	237.200000
763.217590	237.200000
763.254639	234.100000
763.291687	235.600000
763.328735	244.300000
763.365845	235.600000
763.402893	235.500000
763.439941	239.700000
763.477051	243.700000
763.514038	244.300000
763.551147	236.000000
763.588196	240.900000
763.625244	239.000000
763.662292	246.000000
763.699402	248.200000
763.736389	244.800000
763.773499	253.400000
763.810486	247.000000
763.847534	245.800000
763.884644	246.500000
763.921631	242.100000
763.958679	255.500000
763.995728	246.700000
764.032776	253.300000
764.069824	241.300000
764.106873	249.600000
764.143860	255.900000
764.180969	247.900000
764.218018	257.100000
764.255005	246.600000
764.292053	250.900000
764.329102	260.200000
764.366089	260.000000
764.403137	257.400000
764.440125	250.100000
764.477173	253.900000
764.514221	256.900000
764.551208	253.500000
764.588257	249.800000
764.625305	260.300000
764.662292	264.300000
764.699341	268.500000
764.736389	259.000000
764.773376	275.600000
764.810425	262.100000
764.847473	270.200000
764.884399	266.300000
764.921448	274.900000
764.958435	271.900000
764.995483	262.200000
765.032532	276.400000
765.069458	263.000000
765.106506	264.800000
765.143555	262.400000
765.180481	268.100000
765.217529	276.100000
765.254578	262.000000
765.291504	270.600000
765.328552	267.600000
765.365540	265.000000
765.402527	280.200000
765.439575	265.500000
765.476501	263.000000
765.513550	263.200000
765.550537	267.600000
765.587463	276.200000
765.624512	265.700000
765.661499	259.600000
765.698486	276.700000
765.735474	267.700000
765.772461	268.100000
765.809448	275.800000
765.846436	275.200000
765.883423	277.700000
765.920410	272.900000
765.957397	270.000000
765.994385	273.700000
766.031311	283.900000
766.068359	277.300000
766.105286	277.900000
766.142273	283.800000
766.179260	278.400000
766.216187	273.600000
766.253174	270.300000
766.290161	279.800000
766.327148	282.200000
766.364136	283.200000
766.401123	295.700000
766.438049	277.100000
766.475037	292.000000
766.512024	288.400000
766.548950	300.000000
766.585937	294.500000
766.622864	287.500000
766.659790	289.800000
766.696777	277.700000
766.733704	293.700000
766.770691	284.100000
766.807678	300.300000
766.844604	294.000000
766.881531	294.400000
766.918518	300.000000
766.955444	300.600000
766.992432	292.600000
767.029358	296.300000
767.066284	300.900000
767.103271	297.600000
767.140198	326.000000
767.177124	313.800000
767.214050	304.600000
767.251038	305.000000
767.287964	300.500000
767.324890	300.100000
767.361816	304.100000
767.398743	310.700000
767.435730	304.900000
767.472595	308.300000
767.509583	315.500000
767.546509	301.900000
767.583374	310.100000
767.620361	303.100000
767.657288	307.700000
767.694214	310.100000
767.731140	307.900000
767.768066	307.000000
767.804993	315.300000
767.841919	305.500000
767.878845	314.000000
767.915710	320.900000
767.952698	315.400000
767.989563	317.900000
768.026489	321.500000
