Model Number: SPM-001-M   
Serial Number: 10090201
Firmware Version: 004.17.6
Exposure Time: 500000.000000us
Data Taken on: 20-03-2021 10:17:09.141
Wavelength	Amplitude
733.770752	0.000000
733.808716	0.000000
733.846619	0.000000
733.884583	0.000000
733.922546	0.000000
733.960449	0.000000
733.998413	0.000000
734.036377	0.000000
734.074219	0.000000
734.112183	0.000000
734.150085	0.000000
734.188049	0.000000
734.226013	0.000000
734.263916	0.000000
734.301819	0.000000
734.339783	0.000000
734.377686	0.000000
734.415588	0.000000
734.453552	0.000000
734.491455	0.000000
734.529419	0.000000
734.567322	0.000000
734.605225	0.000000
734.643127	0.000000
734.681091	0.000000
734.718994	0.000000
734.756897	0.000000
734.794800	0.000000
734.832703	0.000000
734.870667	0.000000
734.908508	0.000000
734.946472	0.000000
734.984375	0.000000
735.022278	0.000000
735.060181	0.000000
735.098083	0.000000
735.135986	0.000000
735.173889	0.000000
735.211792	0.000000
735.249695	0.000000
735.287598	0.000000
735.325439	0.000000
735.363403	0.000000
735.401306	0.000000
735.439148	0.000000
735.477051	0.000000
735.515015	0.000000
735.552856	0.000000
735.590759	0.000000
735.628662	0.000000
735.666504	0.000000
735.704407	0.000000
735.742310	0.000000
735.780212	0.000000
735.818115	0.000000
735.856018	0.000000
735.893860	0.000000
735.931763	0.000000
735.969604	0.000000
736.007507	0.000000
736.045410	0.000000
736.083252	0.000000
736.121094	0.000000
736.158997	0.000000
736.196838	0.000000
736.234741	0.000000
736.272644	0.000000
736.310486	0.000000
736.348389	0.000000
736.386230	0.000000
736.424072	0.000000
736.461975	0.000000
736.499878	0.000000
736.537720	0.000000
736.575562	0.000000
736.613403	0.000000
736.651306	0.000000
736.689148	0.000000
736.726990	0.000000
736.764893	0.000000
736.802734	0.000000
736.840576	0.000000
736.878418	0.000000
736.916321	0.000000
736.954102	0.000000
736.992004	0.000000
737.029846	0.000000
737.067688	0.000000
737.105530	0.000000
737.143372	0.000000
737.181213	0.000000
737.219116	0.000000
737.256897	0.000000
737.294739	0.000000
737.332642	0.000000
737.370422	0.000000
737.408325	0.000000
737.446167	0.000000
737.483948	0.000000
737.521790	0.000000
737.559692	0.000000
737.597473	0.000000
737.635315	0.000000
737.673157	0.000000
737.710999	0.000000
737.748840	0.000000
737.786621	0.000000
737.824463	0.000000
737.862305	0.000000
737.900085	0.000000
737.937927	0.000000
737.975769	0.000000
738.013550	0.000000
738.051392	0.000000
738.089233	0.000000
738.127014	0.000000
738.164856	0.000000
738.202698	0.000000
738.240479	0.000000
738.278320	0.000000
738.316162	0.000000
738.353943	0.000000
738.391785	0.000000
738.429565	0.000000
738.467407	0.000000
738.505188	0.000000
738.542969	0.000000
738.580811	0.000000
738.618652	0.000000
738.656372	0.000000
738.694214	0.000000
738.732056	0.000000
738.769836	0.000000
738.807617	0.000000
738.845459	0.000000
738.883240	0.000000
738.921021	0.000000
738.958862	0.000000
738.996582	0.000000
739.034424	0.000000
739.072205	0.000000
739.109985	0.000000
739.147827	0.000000
739.185547	0.000000
739.223389	0.000000
739.261169	0.000000
739.298889	0.000000
739.336731	0.000000
739.374512	0.000000
739.412292	0.000000
739.450073	0.000000
739.487854	0.000000
739.525635	0.000000
739.563416	0.000000
739.601135	0.000000
739.638977	0.000000
739.676758	0.000000
739.714478	0.000000
739.752258	0.000000
739.790100	0.000000
739.827820	0.000000
739.865601	0.000000
739.903381	0.000000
739.941101	0.000000
739.978882	192.100000
740.016724	188.200000
740.054443	192.400000
740.092224	186.800000
740.130005	184.700000
740.167725	188.100000
740.205505	184.200000
740.243225	195.700000
740.281006	188.200000
740.318787	181.800000
740.356506	193.400000
740.394287	195.500000
740.432068	183.000000
740.469727	184.000000
740.507507	192.900000
740.545288	189.900000
740.583008	192.800000
740.620789	191.300000
740.658569	179.800000
740.696228	190.200000
740.734009	195.100000
740.771790	177.100000
740.809509	192.800000
740.847229	185.100000
740.884949	186.100000
740.922729	183.500000
740.960449	188.800000
740.998169	184.000000
741.035950	186.100000
741.073669	191.600000
741.111389	189.200000
741.149170	200.300000
741.186890	198.600000
741.224609	193.300000
741.262329	190.600000
741.300110	199.600000
741.337769	184.900000
741.375549	183.700000
741.413208	188.800000
741.450989	185.500000
741.488708	186.500000
741.526367	185.800000
741.564148	192.100000
741.601868	192.100000
741.639526	189.700000
741.677307	191.500000
741.715027	191.300000
741.752686	184.800000
741.790466	196.400000
741.828186	192.000000
741.865845	185.400000
741.903564	181.300000
741.941345	189.200000
741.979004	185.000000
742.016724	193.300000
742.054382	188.900000
742.092102	195.000000
742.129822	181.300000
742.167480	188.300000
742.205200	187.500000
742.242920	190.100000
742.280640	192.200000
742.318359	185.600000
742.356079	184.900000
742.393738	192.800000
742.431396	187.000000
742.469116	191.200000
742.506775	178.700000
742.544495	193.700000
742.582214	191.400000
742.619873	189.500000
742.657593	195.500000
742.695251	194.200000
742.732971	188.200000
742.770630	192.400000
742.808289	188.400000
742.846008	190.900000
742.883728	190.800000
742.921326	189.900000
742.959045	185.800000
742.996765	189.200000
743.034424	188.700000
743.072083	187.700000
743.109802	189.400000
743.147400	182.900000
743.185120	189.200000
743.222839	188.900000
743.260437	194.800000
743.298157	191.400000
743.335754	181.200000
743.373474	186.800000
743.411133	182.400000
743.448792	188.400000
743.486450	188.100000
743.524170	181.600000
743.561768	189.000000
743.599487	194.800000
743.637146	200.300000
743.674744	188.000000
743.712463	186.700000
743.750122	189.300000
743.787720	190.000000
743.825439	183.900000
743.863037	186.700000
743.900696	187.100000
743.938416	214.500000
743.976013	188.400000
744.013672	198.100000
744.051331	192.700000
744.088928	198.700000
744.126587	193.400000
744.164307	191.100000
744.201904	185.900000
744.239563	192.800000
744.277222	190.300000
744.314819	190.100000
744.352478	197.700000
744.390137	192.400000
744.427734	191.000000
744.465393	188.600000
744.502991	184.000000
744.540649	194.000000
744.578308	190.200000
744.615906	185.000000
744.653564	177.700000
744.691223	193.800000
744.728821	182.000000
744.766418	190.900000
744.804077	193.200000
744.841675	187.200000
744.879333	182.700000
744.916992	189.200000
744.954529	185.800000
744.992187	194.700000
745.029785	187.900000
745.067444	186.500000
745.105042	189.800000
745.142639	191.800000
745.180298	197.800000
745.217896	186.500000
745.255493	188.900000
745.293152	193.900000
745.330750	192.800000
745.368347	197.000000
745.405945	193.600000
745.443604	189.300000
745.481140	193.100000
745.518799	187.300000
745.556396	193.300000
745.593994	193.100000
745.631592	188.200000
745.669189	181.600000
745.706787	192.300000
745.744385	184.900000
745.781982	191.600000
745.819580	186.200000
745.857178	188.700000
745.894775	188.400000
745.932373	191.800000
745.969971	188.700000
746.007568	180.600000
746.045166	196.700000
746.082764	194.600000
746.120300	190.700000
746.157898	194.600000
746.195557	187.200000
746.233093	184.200000
746.270691	191.300000
746.308228	192.600000
746.345825	194.200000
746.383423	194.100000
746.420959	183.500000
746.458557	187.500000
746.496155	186.800000
746.533691	188.700000
746.571289	183.800000
746.608887	190.800000
746.646423	189.000000
746.684021	191.400000
746.721619	186.900000
746.759155	192.200000
746.796753	181.900000
746.834351	183.800000
746.871826	185.700000
746.909424	197.600000
746.946960	191.700000
746.984558	190.000000
747.022156	188.000000
747.059631	196.600000
747.097229	190.700000
747.134827	186.400000
747.172363	196.300000
747.209900	192.500000
747.247498	185.000000
747.285034	196.300000
747.322571	196.800000
747.360168	187.400000
747.397644	182.200000
747.435242	193.400000
747.472778	196.800000
747.510315	187.200000
747.547913	188.300000
747.585388	195.900000
747.622925	189.300000
747.660522	179.800000
747.697998	186.700000
747.735596	187.600000
747.773132	186.600000
747.810669	188.600000
747.848206	193.900000
747.885742	183.000000
747.923279	185.000000
747.960815	191.600000
747.998352	190.200000
748.035889	193.600000
748.073425	195.500000
748.110901	185.800000
748.148437	184.700000
748.185974	191.000000
748.223511	200.400000
748.261047	190.000000
748.298584	192.300000
748.336060	188.300000
748.373596	193.100000
748.411133	208.000000
748.448608	187.700000
748.486145	193.400000
748.523682	197.200000
748.561218	195.600000
748.598755	190.500000
748.636292	193.900000
748.673706	188.300000
748.711243	194.900000
748.748718	191.900000
748.786255	188.500000
748.823792	190.200000
748.861267	186.500000
748.898804	192.000000
748.936340	192.100000
748.973816	188.600000
749.011292	195.300000
749.048828	192.000000
749.086304	192.500000
749.123840	203.200000
749.161316	184.900000
749.198792	198.800000
749.236328	196.900000
749.273743	190.300000
749.311279	188.100000
749.348816	191.900000
749.386230	190.700000
749.423767	176.200000
749.461304	193.400000
749.498718	189.800000
749.536255	195.900000
749.573730	201.600000
749.611206	195.700000
749.648682	188.800000
749.686218	189.700000
749.723633	191.700000
749.761169	187.700000
749.798645	184.800000
749.836060	190.200000
749.873596	185.200000
749.911011	189.100000
749.948547	195.500000
749.986023	189.300000
750.023437	187.400000
750.060913	183.500000
750.098450	182.700000
750.135864	188.900000
750.173340	189.500000
750.210815	195.500000
750.248291	182.000000
750.285767	189.500000
750.323242	194.600000
750.360657	192.200000
750.398132	183.900000
750.435608	195.000000
750.473022	185.500000
750.510498	186.700000
750.547974	184.800000
750.585449	188.000000
750.622925	179.100000
750.660339	199.500000
750.697815	190.700000
750.735291	189.400000
750.772644	190.500000
750.810120	191.600000
750.847595	191.400000
750.885010	185.000000
750.922485	198.600000
750.959961	188.400000
750.997375	197.000000
751.034851	194.500000
751.072266	194.700000
751.109680	182.100000
751.147156	194.900000
751.184570	191.100000
751.221985	190.900000
751.259460	179.400000
751.296875	188.500000
751.334290	189.800000
751.371765	193.500000
751.409180	191.500000
751.446594	195.700000
751.484070	190.600000
751.521423	191.400000
751.558899	189.400000
751.596375	197.600000
751.633728	195.500000
751.671204	202.400000
751.708618	184.300000
751.746033	190.600000
751.783447	182.200000
751.820801	187.000000
751.858276	191.700000
751.895691	190.200000
751.933105	185.800000
751.970520	184.900000
752.007935	187.700000
752.045349	195.300000
752.082764	188.500000
752.120178	187.900000
752.157532	185.400000
752.195007	188.900000
752.232422	192.000000
752.269775	195.500000
752.307190	192.600000
752.344543	185.700000
752.382019	189.100000
752.419434	189.500000
752.456787	191.000000
752.494202	194.800000
752.531616	192.400000
752.568970	194.300000
752.606384	191.100000
752.643799	193.600000
752.681152	198.400000
752.718567	194.700000
752.755981	183.000000
752.793335	193.600000
752.830750	182.100000
752.868164	196.900000
752.905518	186.000000
752.942932	194.600000
752.980225	186.100000
753.017639	193.200000
753.055054	189.200000
753.092407	191.000000
753.129822	195.700000
753.167175	198.400000
753.204529	189.700000
753.241943	185.700000
753.279358	184.600000
753.316650	192.700000
753.354065	192.700000
753.391479	194.100000
753.428772	198.200000
753.466187	191.900000
753.503479	184.400000
753.540894	186.400000
753.578308	184.900000
753.615601	182.100000
753.653015	190.500000
753.690369	187.200000
753.727722	186.900000
753.765076	181.000000
753.802490	185.200000
753.839783	179.500000
753.877136	188.500000
753.914551	204.700000
753.951843	184.500000
753.989258	191.200000
754.026611	192.000000
754.063904	190.800000
754.101257	187.200000
754.138611	181.800000
754.175964	191.300000
754.213318	201.400000
754.250610	183.600000
754.288025	186.700000
754.325378	184.600000
754.362671	194.600000
754.400024	189.500000
754.437378	197.800000
754.474670	199.500000
754.512085	187.200000
754.549438	191.500000
754.586731	188.200000
754.624084	190.600000
754.661438	185.500000
754.698730	197.700000
754.736084	187.900000
754.773376	188.700000
754.810730	193.200000
754.848083	188.300000
754.885315	194.500000
754.922668	181.800000
754.960022	185.000000
754.997314	193.600000
755.034668	191.300000
755.072021	192.600000
755.109253	187.600000
755.146606	197.800000
755.183960	188.600000
755.221252	198.900000
755.258545	196.700000
755.295898	195.800000
755.333191	196.200000
755.370544	193.800000
755.407776	190.500000
755.445129	189.700000
755.482422	197.600000
755.519714	187.900000
755.557068	183.900000
755.594360	182.200000
755.631653	197.800000
755.668945	199.200000
755.706299	193.900000
755.743530	203.400000
755.780884	199.000000
755.818176	197.000000
755.855408	197.700000
755.892761	193.300000
755.930054	195.600000
755.967346	192.400000
756.004639	196.500000
756.041870	192.400000
756.079224	198.800000
756.116516	189.300000
756.153748	197.700000
756.191040	200.600000
756.228394	197.600000
756.265625	189.300000
756.302917	196.000000
756.340210	189.500000
756.377441	199.300000
756.414795	201.300000
756.452087	194.400000
756.489319	188.300000
756.526611	197.300000
756.563843	194.900000
756.601135	204.100000
756.638428	202.600000
756.675659	193.500000
756.712952	199.000000
756.750244	198.700000
756.787476	194.700000
756.824768	201.500000
756.862061	193.200000
756.899292	240.900000
756.936584	199.400000
756.973816	206.100000
757.011047	207.200000
757.048340	195.100000
757.085632	196.400000
757.122864	211.600000
757.160156	195.600000
757.197327	197.600000
757.234619	202.400000
757.271912	195.500000
757.309082	201.800000
757.346375	193.300000
757.383667	205.100000
757.420837	198.200000
757.458130	198.400000
757.495422	195.800000
757.532593	200.500000
757.569885	190.500000
757.607117	196.000000
757.644348	197.800000
757.681580	212.600000
757.718811	187.700000
757.756042	200.600000
757.793335	195.900000
757.830505	203.400000
757.867798	194.900000
757.905029	197.300000
757.942200	201.200000
757.979492	196.300000
758.016724	197.300000
758.053894	198.800000
758.091187	218.600000
758.128418	200.700000
758.165588	199.700000
758.202820	212.200000
758.240112	201.400000
758.277283	211.800000
758.314514	202.500000
758.351685	199.200000
758.388916	210.500000
758.426147	209.700000
758.463379	212.400000
758.500610	205.200000
758.537842	202.300000
758.575012	209.500000
758.612244	198.000000
758.649475	215.900000
758.686646	198.200000
758.723877	211.400000
758.761108	212.400000
758.798279	202.800000
758.835510	206.300000
758.872742	209.400000
758.909851	207.300000
758.947083	206.200000
758.984253	206.700000
759.021484	209.100000
759.058716	209.800000
759.095886	208.600000
759.133057	205.800000
759.170288	208.500000
759.207458	202.300000
759.244690	217.300000
759.281860	216.700000
759.319031	205.400000
759.356262	205.400000
759.393433	204.200000
759.430603	207.200000
759.467773	205.900000
759.505005	215.500000
759.542175	211.300000
759.579346	207.500000
759.616516	208.100000
759.653687	210.700000
759.690918	204.700000
759.728027	210.700000
759.765259	210.100000
759.802429	214.100000
759.839539	211.300000
759.876770	217.000000
759.913940	218.300000
759.951111	211.900000
759.988281	210.200000
760.025452	207.600000
760.062561	206.000000
760.099792	219.600000
760.136963	213.200000
760.174072	209.500000
760.211243	205.300000
760.248413	206.900000
760.285583	206.400000
760.322754	222.700000
760.359863	217.200000
760.397034	217.600000
760.434204	211.500000
760.471375	211.100000
760.508545	209.700000
760.545715	210.200000
760.582825	207.200000
760.619995	215.700000
760.657166	204.800000
760.694275	218.000000
760.731445	215.200000
760.768555	215.700000
760.805664	216.600000
760.842834	215.200000
760.879944	217.400000
760.917114	215.500000
760.954285	212.800000
760.991394	206.500000
761.028564	221.300000
761.065674	217.500000
761.102783	211.800000
761.139954	219.500000
761.177124	219.100000
761.214172	220.100000
761.251343	215.500000
761.288452	215.000000
761.325562	219.700000
761.362732	213.300000
761.399841	218.100000
761.436951	218.700000
761.474121	216.200000
761.511169	219.600000
761.548340	224.200000
761.585449	221.400000
761.622559	223.200000
761.659668	220.600000
761.696838	228.000000
761.733887	222.300000
761.771057	220.600000
761.808167	221.200000
761.845276	226.200000
761.882385	233.600000
761.919434	225.700000
761.956604	242.700000
761.993713	221.100000
762.030762	230.900000
762.067871	226.700000
762.105042	222.800000
762.142090	232.800000
762.179199	227.200000
762.216309	229.700000
762.253418	242.200000
762.290527	237.600000
762.327637	233.000000
762.364685	223.200000
762.401794	233.300000
762.438904	230.100000
762.475952	225.300000
762.513062	223.300000
762.550110	225.600000
762.587219	240.000000
762.624329	239.900000
762.661377	233.600000
762.698486	234.200000
762.735596	231.200000
762.772644	228.400000
762.809753	224.600000
762.846863	232.300000
762.883911	235.000000
762.921021	238.500000
762.958069	234.000000
762.995117	243.500000
763.032227	243.100000
763.069336	235.700000
763.106323	230.500000
763.143433	230.600000
763.180481	239.400000
763.217590	238.300000
763.254639	235.500000
763.291687	237.100000
763.328735	245.300000
763.365845	239.400000
763.402893	236.200000
763.439941	242.200000
763.477051	245.300000
763.514038	246.900000
763.551147	239.100000
763.588196	243.700000
763.625244	241.500000
763.662292	248.500000
763.699402	251.400000
763.736389	247.300000
763.773499	255.100000
763.810486	250.200000
763.847534	247.500000
763.884644	248.900000
763.921631	245.800000
763.958679	257.800000
763.995728	247.000000
764.032776	257.200000
764.069824	242.600000
764.106873	253.000000
764.143860	258.400000
764.180969	249.700000
764.218018	258.900000
764.255005	251.200000
764.292053	251.900000
764.329102	262.700000
764.366089	262.600000
764.403137	261.600000
764.440125	253.100000
764.477173	256.800000
764.514221	257.500000
764.551208	255.100000
764.588257	251.600000
764.625305	262.000000
764.662292	267.600000
764.699341	270.700000
764.736389	262.100000
764.773376	277.100000
764.810425	266.400000
764.847473	271.400000
764.884399	267.900000
764.921448	276.000000
764.958435	275.500000
764.995483	262.400000
765.032532	280.700000
765.069458	264.100000
765.106506	268.100000
765.143555	264.000000
765.180481	270.900000
765.217529	277.800000
765.254578	266.300000
765.291504	272.500000
765.328552	269.900000
765.365540	267.800000
765.402527	285.600000
765.439575	267.300000
765.476501	266.200000
765.513550	267.400000
765.550537	272.800000
765.587463	279.100000
765.624512	269.500000
765.661499	260.500000
765.698486	278.800000
765.735474	267.300000
765.772461	273.300000
765.809448	279.300000
765.846436	278.500000
765.883423	281.700000
765.920410	276.600000
765.957397	272.900000
765.994385	277.100000
766.031311	286.200000
766.068359	279.100000
766.105286	279.500000
766.142273	286.300000
766.179260	280.300000
766.216187	275.800000
766.253174	271.300000
766.290161	281.300000
766.327148	284.600000
766.364136	286.200000
766.401123	301.300000
766.438049	277.600000
766.475037	291.900000
766.512024	287.600000
766.548950	301.000000
766.585937	296.800000
766.622864	293.900000
766.659790	290.000000
766.696777	282.300000
766.733704	295.500000
766.770691	288.400000
766.807678	300.800000
766.844604	293.900000
766.881531	294.300000
766.918518	302.100000
766.955444	303.300000
766.992432	296.500000
767.029358	297.300000
767.066284	303.500000
767.103271	301.200000
767.140198	330.200000
767.177124	315.900000
767.214050	307.800000
767.251038	308.800000
767.287964	306.400000
767.324890	300.700000
767.361816	310.500000
767.398743	314.700000
767.435730	309.100000
767.472595	311.500000
767.509583	318.600000
767.546509	306.500000
767.583374	315.000000
767.620361	307.200000
767.657288	313.900000
767.694214	312.600000
767.731140	312.800000
767.768066	313.100000
767.804993	319.000000
767.841919	310.200000
767.878845	318.700000
767.915710	326.400000
767.952698	318.000000
767.989563	322.800000
768.026489	324.500000
