Model Number: SPM-001-M   
Serial Number: 10090201
Firmware Version: 004.17.6
Exposure Time: 500000.000000us
Data Taken on: 20-03-2021 10:22:30.635
Wavelength	Amplitude
733.770752	0.000000
733.808716	0.000000
733.846619	0.000000
733.884583	0.000000
733.922546	0.000000
733.960449	0.000000
733.998413	0.000000
734.036377	0.000000
734.074219	0.000000
734.112183	0.000000
734.150085	0.000000
734.188049	0.000000
734.226013	0.000000
734.263916	0.000000
734.301819	0.000000
734.339783	0.000000
734.377686	0.000000
734.415588	0.000000
734.453552	0.000000
734.491455	0.000000
734.529419	0.000000
734.567322	0.000000
734.605225	0.000000
734.643127	0.000000
734.681091	0.000000
734.718994	0.000000
734.756897	0.000000
734.794800	0.000000
734.832703	0.000000
734.870667	0.000000
734.908508	0.000000
734.946472	0.000000
734.984375	0.000000
735.022278	0.000000
735.060181	0.000000
735.098083	0.000000
735.135986	0.000000
735.173889	0.000000
735.211792	0.000000
735.249695	0.000000
735.287598	0.000000
735.325439	0.000000
735.363403	0.000000
735.401306	0.000000
735.439148	0.000000
735.477051	0.000000
735.515015	0.000000
735.552856	0.000000
735.590759	0.000000
735.628662	0.000000
735.666504	0.000000
735.704407	0.000000
735.742310	0.000000
735.780212	0.000000
735.818115	0.000000
735.856018	0.000000
735.893860	0.000000
735.931763	0.000000
735.969604	0.000000
736.007507	0.000000
736.045410	0.000000
736.083252	0.000000
736.121094	0.000000
736.158997	0.000000
736.196838	0.000000
736.234741	0.000000
736.272644	0.000000
736.310486	0.000000
736.348389	0.000000
736.386230	0.000000
736.424072	0.000000
736.461975	0.000000
736.499878	0.000000
736.537720	0.000000
736.575562	0.000000
736.613403	0.000000
736.651306	0.000000
736.689148	0.000000
736.726990	0.000000
736.764893	0.000000
736.802734	0.000000
736.840576	0.000000
736.878418	0.000000
736.916321	0.000000
736.954102	0.000000
736.992004	0.000000
737.029846	0.000000
737.067688	0.000000
737.105530	0.000000
737.143372	0.000000
737.181213	0.000000
737.219116	0.000000
737.256897	0.000000
737.294739	0.000000
737.332642	0.000000
737.370422	0.000000
737.408325	0.000000
737.446167	0.000000
737.483948	0.000000
737.521790	0.000000
737.559692	0.000000
737.597473	0.000000
737.635315	0.000000
737.673157	0.000000
737.710999	0.000000
737.748840	0.000000
737.786621	0.000000
737.824463	0.000000
737.862305	0.000000
737.900085	0.000000
737.937927	0.000000
737.975769	0.000000
738.013550	0.000000
738.051392	0.000000
738.089233	0.000000
738.127014	0.000000
738.164856	0.000000
738.202698	0.000000
738.240479	0.000000
738.278320	0.000000
738.316162	0.000000
738.353943	0.000000
738.391785	0.000000
738.429565	0.000000
738.467407	0.000000
738.505188	0.000000
738.542969	0.000000
738.580811	0.000000
738.618652	0.000000
738.656372	0.000000
738.694214	0.000000
738.732056	0.000000
738.769836	0.000000
738.807617	0.000000
738.845459	0.000000
738.883240	0.000000
738.921021	0.000000
738.958862	0.000000
738.996582	0.000000
739.034424	0.000000
739.072205	0.000000
739.109985	0.000000
739.147827	0.000000
739.185547	0.000000
739.223389	0.000000
739.261169	0.000000
739.298889	0.000000
739.336731	0.000000
739.374512	0.000000
739.412292	0.000000
739.450073	0.000000
739.487854	0.000000
739.525635	0.000000
739.563416	0.000000
739.601135	0.000000
739.638977	0.000000
739.676758	0.000000
739.714478	0.000000
739.752258	0.000000
739.790100	0.000000
739.827820	0.000000
739.865601	0.000000
739.903381	0.000000
739.941101	0.000000
739.978882	192.400000
740.016724	188.800000
740.054443	194.100000
740.092224	185.400000
740.130005	183.700000
740.167725	185.200000
740.205505	185.400000
740.243225	194.900000
740.281006	191.100000
740.318787	181.600000
740.356506	195.000000
740.394287	192.400000
740.432068	185.200000
740.469727	181.700000
740.507507	193.300000
740.545288	188.200000
740.583008	193.000000
740.620789	189.100000
740.658569	181.200000
740.696228	188.700000
740.734009	194.800000
740.771790	176.000000
740.809509	193.300000
740.847229	181.500000
740.884949	186.100000
740.922729	180.900000
740.960449	187.300000
740.998169	182.800000
741.035950	183.500000
741.073669	188.500000
741.111389	189.000000
741.149170	198.000000
741.186890	199.600000
741.224609	191.500000
741.262329	189.500000
741.300110	196.800000
741.337769	183.200000
741.375549	181.800000
741.413208	189.700000
741.450989	182.300000
741.488708	185.000000
741.526367	185.700000
741.564148	192.900000
741.601868	192.200000
741.639526	188.700000
741.677307	190.900000
741.715027	191.200000
741.752686	185.100000
741.790466	195.000000
741.828186	191.500000
741.865845	186.300000
741.903564	179.900000
741.941345	187.900000
741.979004	184.300000
742.016724	191.400000
742.054382	189.900000
742.092102	191.900000
742.129822	180.900000
742.167480	187.400000
742.205200	187.600000
742.242920	191.200000
742.280640	192.800000
742.318359	184.700000
742.356079	186.200000
742.393738	192.900000
742.431396	188.400000
742.469116	192.400000
742.506775	179.800000
742.544495	189.900000
742.582214	193.100000
742.619873	185.900000
742.657593	195.700000
742.695251	191.300000
742.732971	187.200000
742.770630	188.900000
742.808289	189.500000
742.846008	186.300000
742.883728	191.100000
742.921326	188.200000
742.959045	186.000000
742.996765	188.900000
743.034424	188.100000
743.072083	185.400000
743.109802	189.700000
743.147400	181.300000
743.185120	189.900000
743.222839	186.200000
743.260437	195.300000
743.298157	188.600000
743.335754	180.800000
743.373474	186.500000
743.411133	182.000000
743.448792	188.200000
743.486450	188.200000
743.524170	181.000000
743.561768	188.000000
743.599487	194.700000
743.637146	200.000000
743.674744	187.400000
743.712463	185.600000
743.750122	189.600000
743.787720	191.400000
743.825439	185.300000
743.863037	185.600000
743.900696	189.200000
743.938416	214.600000
743.976013	188.200000
744.013672	197.100000
744.051331	192.500000
744.088928	198.000000
744.126587	194.000000
744.164307	190.200000
744.201904	185.500000
744.239563	191.000000
744.277222	191.500000
744.314819	188.000000
744.352478	196.900000
744.390137	190.300000
744.427734	192.100000
744.465393	185.900000
744.502991	184.400000
744.540649	190.800000
744.578308	190.400000
744.615906	183.200000
744.653564	178.400000
744.691223	193.200000
744.728821	181.800000
744.766418	186.900000
744.804077	190.500000
744.841675	184.500000
744.879333	182.800000
744.916992	187.100000
744.954529	185.800000
744.992187	195.200000
745.029785	188.200000
745.067444	183.400000
745.105042	189.800000
745.142639	191.300000
745.180298	197.700000
745.217896	185.500000
745.255493	186.400000
745.293152	192.200000
745.330750	192.500000
745.368347	196.500000
745.405945	192.300000
745.443604	189.400000
745.481140	193.500000
745.518799	186.500000
745.556396	193.400000
745.593994	193.300000
745.631592	188.900000
745.669189	183.800000
745.706787	190.300000
745.744385	185.700000
745.781982	190.900000
745.819580	186.100000
745.857178	189.400000
745.894775	188.500000
745.932373	189.600000
745.969971	188.900000
746.007568	179.800000
746.045166	199.900000
746.082764	194.000000
746.120300	191.800000
746.157898	192.800000
746.195557	188.500000
746.233093	181.600000
746.270691	192.600000
746.308228	191.000000
746.345825	194.400000
746.383423	191.400000
746.420959	184.200000
746.458557	185.800000
746.496155	186.600000
746.533691	186.500000
746.571289	183.500000
746.608887	188.200000
746.646423	190.000000
746.684021	189.100000
746.721619	187.100000
746.759155	188.900000
746.796753	182.000000
746.834351	182.100000
746.871826	184.400000
746.909424	195.600000
746.946960	190.700000
746.984558	186.600000
747.022156	187.300000
747.059631	194.400000
747.097229	190.500000
747.134827	186.200000
747.172363	196.500000
747.209900	189.900000
747.247498	183.700000
747.285034	194.400000
747.322571	196.200000
747.360168	187.300000
747.397644	181.400000
747.435242	192.300000
747.472778	196.500000
747.510315	187.100000
747.547913	186.600000
747.585388	194.800000
747.622925	188.400000
747.660522	179.500000
747.697998	184.200000
747.735596	189.500000
747.773132	185.800000
747.810669	188.700000
747.848206	191.800000
747.885742	184.400000
747.923279	182.700000
747.960815	191.200000
747.998352	188.600000
748.035889	194.900000
748.073425	192.900000
748.110901	186.600000
748.148437	184.500000
748.185974	189.600000
748.223511	198.100000
748.261047	190.300000
748.298584	189.200000
748.336060	188.600000
748.373596	189.900000
748.411133	208.700000
748.448608	184.600000
748.486145	193.500000
748.523682	195.800000
748.561218	195.700000
748.598755	189.200000
748.636292	193.100000
748.673706	185.600000
748.711243	196.100000
748.748718	189.800000
748.786255	188.600000
748.823792	187.200000
748.861267	183.700000
748.898804	190.300000
748.936340	190.500000
748.973816	185.800000
749.011292	194.400000
749.048828	190.200000
749.086304	192.300000
749.123840	200.600000
749.161316	184.000000
749.198792	197.900000
749.236328	194.700000
749.273743	188.800000
749.311279	187.600000
749.348816	190.500000
749.386230	190.200000
749.423767	177.200000
749.461304	192.200000
749.498718	188.700000
749.536255	195.200000
749.573730	201.100000
749.611206	195.300000
749.648682	189.000000
749.686218	188.700000
749.723633	194.000000
749.761169	186.900000
749.798645	185.800000
749.836060	188.500000
749.873596	187.500000
749.911011	189.000000
749.948547	196.000000
749.986023	190.100000
750.023437	187.300000
750.060913	182.900000
750.098450	184.100000
750.135864	186.700000
750.173340	189.900000
750.210815	193.200000
750.248291	184.600000
750.285767	187.800000
750.323242	195.300000
750.360657	189.800000
750.398132	185.100000
750.435608	191.700000
750.473022	184.600000
750.510498	184.100000
750.547974	184.600000
750.585449	185.700000
750.622925	178.900000
750.660339	198.100000
750.697815	189.800000
750.735291	187.800000
750.772644	190.100000
750.810120	189.600000
750.847595	190.800000
750.885010	183.600000
750.922485	196.600000
750.959961	187.300000
750.997375	195.900000
751.034851	192.500000
751.072266	193.500000
751.109680	181.700000
751.147156	194.700000
751.184570	190.900000
751.221985	191.100000
751.259460	179.600000
751.296875	189.800000
751.334290	189.100000
751.371765	193.800000
751.409180	191.600000
751.446594	194.400000
751.484070	191.400000
751.521423	191.200000
751.558899	190.900000
751.596375	197.800000
751.633728	196.800000
751.671204	203.200000
751.708618	185.600000
751.746033	189.800000
751.783447	184.400000
751.820801	183.800000
751.858276	192.400000
751.895691	188.800000
751.933105	187.700000
751.970520	183.700000
752.007935	187.300000
752.045349	193.200000
752.082764	190.200000
752.120178	187.200000
752.157532	185.300000
752.195007	185.900000
752.232422	192.200000
752.269775	193.900000
752.307190	192.000000
752.344543	183.500000
752.382019	188.400000
752.419434	186.100000
752.456787	190.800000
752.494202	192.200000
752.531616	191.100000
752.568970	191.400000
752.606384	189.300000
752.643799	189.800000
752.681152	196.900000
752.718567	190.700000
752.755981	182.700000
752.793335	192.200000
752.830750	182.000000
752.868164	194.800000
752.905518	184.600000
752.942932	191.700000
752.980225	184.200000
753.017639	193.000000
753.055054	187.700000
753.092407	190.600000
753.129822	195.300000
753.167175	197.800000
753.204529	189.800000
753.241943	187.100000
753.279358	182.100000
753.316650	192.400000
753.354065	190.800000
753.391479	192.000000
753.428772	197.600000
753.466187	192.800000
753.503479	183.100000
753.540894	189.000000
753.578308	183.500000
753.615601	184.100000
753.653015	189.900000
753.690369	188.700000
753.727722	185.000000
753.765076	183.500000
753.802490	184.200000
753.839783	181.500000
753.877136	186.600000
753.914551	204.700000
753.951843	183.200000
753.989258	194.000000
754.026611	190.100000
754.063904	191.100000
754.101257	182.800000
754.138611	180.900000
754.175964	188.500000
754.213318	200.600000
754.250610	181.500000
754.288025	187.200000
754.325378	182.500000
754.362671	193.500000
754.400024	184.700000
754.437378	198.400000
754.474670	198.200000
754.512085	186.700000
754.549438	189.800000
754.586731	188.200000
754.624084	187.900000
754.661438	184.400000
754.698730	197.200000
754.736084	187.500000
754.773376	188.700000
754.810730	192.500000
754.848083	188.600000
754.885315	192.900000
754.922668	182.800000
754.960022	185.500000
754.997314	192.400000
755.034668	190.600000
755.072021	188.100000
755.109253	187.600000
755.146606	197.100000
755.183960	187.800000
755.221252	198.800000
755.258545	196.000000
755.295898	195.700000
755.333191	197.000000
755.370544	194.000000
755.407776	190.800000
755.445129	190.700000
755.482422	194.100000
755.519714	186.400000
755.557068	183.500000
755.594360	182.600000
755.631653	194.800000
755.668945	199.900000
755.706299	192.100000
755.743530	202.500000
755.780884	198.400000
755.818176	196.700000
755.855408	196.000000
755.892761	194.000000
755.930054	190.800000
755.967346	193.800000
756.004639	195.400000
756.041870	192.600000
756.079224	196.900000
756.116516	188.800000
756.153748	194.200000
756.191040	200.500000
756.228394	195.700000
756.265625	189.300000
756.302917	192.200000
756.340210	189.300000
756.377441	197.500000
756.414795	200.100000
756.452087	191.400000
756.489319	186.400000
756.526611	193.700000
756.563843	195.000000
756.601135	202.500000
756.638428	203.700000
756.675659	193.100000
756.712952	198.700000
756.750244	196.000000
756.787476	195.700000
756.824768	201.800000
756.862061	192.800000
756.899292	241.100000
756.936584	200.700000
756.973816	205.100000
757.011047	206.600000
757.048340	195.800000
757.085632	195.200000
757.122864	211.200000
757.160156	195.700000
757.197327	196.500000
757.234619	200.100000
757.271912	194.300000
757.309082	201.000000
757.346375	194.300000
757.383667	201.900000
757.420837	198.600000
757.458130	198.000000
757.495422	196.200000
757.532593	198.000000
757.569885	190.800000
757.607117	193.600000
757.644348	200.000000
757.681580	211.100000
757.718811	188.200000
757.756042	196.800000
757.793335	196.500000
757.830505	200.700000
757.867798	196.400000
757.905029	193.800000
757.942200	200.600000
757.979492	194.200000
758.016724	197.700000
758.053894	195.700000
758.091187	216.700000
758.128418	197.700000
758.165588	198.800000
758.202820	208.900000
758.240112	201.300000
758.277283	209.900000
758.314514	202.700000
758.351685	197.200000
758.388916	210.700000
758.426147	206.900000
758.463379	211.200000
758.500610	204.400000
758.537842	200.800000
758.575012	208.800000
758.612244	198.100000
758.649475	213.600000
758.686646	195.200000
758.723877	209.100000
758.761108	211.100000
758.798279	201.900000
758.835510	205.100000
758.872742	210.200000
758.909851	206.100000
758.947083	207.000000
758.984253	206.500000
759.021484	208.100000
759.058716	207.800000
759.095886	208.100000
759.133057	202.900000
759.170288	209.400000
759.207458	200.900000
759.244690	217.500000
759.281860	215.700000
759.319031	204.900000
759.356262	205.300000
759.393433	205.100000
759.430603	204.800000
759.467773	205.000000
759.505005	212.200000
759.542175	213.400000
759.579346	205.300000
759.616516	208.600000
759.653687	210.100000
759.690918	204.800000
759.728027	208.700000
759.765259	208.800000
759.802429	209.800000
759.839539	210.500000
759.876770	213.600000
759.913940	219.000000
759.951111	209.300000
759.988281	209.900000
760.025452	205.400000
760.062561	204.200000
760.099792	218.300000
760.136963	212.300000
760.174072	207.700000
760.211243	203.400000
760.248413	203.700000
760.285583	205.700000
760.322754	219.100000
760.359863	216.800000
760.397034	216.200000
760.434204	209.600000
760.471375	211.800000
760.508545	208.000000
760.545715	208.000000
760.582825	204.700000
760.619995	214.600000
760.657166	205.800000
760.694275	216.200000
760.731445	213.900000
760.768555	212.800000
760.805664	214.300000
760.842834	214.700000
760.879944	216.700000
760.917114	214.000000
760.954285	211.500000
760.991394	207.900000
761.028564	218.900000
761.065674	216.800000
761.102783	210.300000
761.139954	219.400000
761.177124	218.800000
761.214172	220.700000
761.251343	214.300000
761.288452	215.500000
761.325562	220.200000
761.362732	214.100000
761.399841	215.900000
761.436951	219.100000
761.474121	212.800000
761.511169	218.600000
761.548340	220.500000
761.585449	221.200000
761.622559	220.300000
761.659668	218.200000
761.696838	223.800000
761.733887	221.600000
761.771057	216.500000
761.808167	220.900000
761.845276	223.300000
761.882385	232.800000
761.919434	221.300000
761.956604	240.800000
761.993713	216.800000
762.030762	227.800000
762.067871	221.900000
762.105042	221.900000
762.142090	230.200000
762.179199	226.000000
762.216309	229.600000
762.253418	240.700000
762.290527	235.500000
762.327637	231.800000
762.364685	219.800000
762.401794	231.200000
762.438904	229.500000
762.475952	223.000000
762.513062	223.400000
762.550110	224.400000
762.587219	238.200000
762.624329	237.400000
762.661377	231.500000
762.698486	233.700000
762.735596	232.100000
762.772644	227.500000
762.809753	223.600000
762.846863	231.300000
762.883911	235.200000
762.921021	234.600000
762.958069	234.600000
762.995117	242.400000
763.032227	242.500000
763.069336	231.900000
763.106323	230.700000
763.143433	228.600000
763.180481	236.900000
763.217590	237.300000
763.254639	233.500000
763.291687	235.600000
763.328735	244.900000
763.365845	236.300000
763.402893	234.900000
763.439941	239.400000
763.477051	243.700000
763.514038	244.100000
763.551147	236.700000
763.588196	240.100000
763.625244	239.500000
763.662292	247.800000
763.699402	248.100000
763.736389	243.800000
763.773499	254.600000
763.810486	246.500000
763.847534	245.100000
763.884644	247.000000
763.921631	242.700000
763.958679	256.100000
763.995728	245.200000
764.032776	252.300000
764.069824	241.900000
764.106873	249.000000
764.143860	257.000000
764.180969	246.400000
764.218018	256.300000
764.255005	248.400000
764.292053	251.600000
764.329102	259.000000
764.366089	260.200000
764.403137	257.500000
764.440125	251.600000
764.477173	254.200000
764.514221	256.400000
764.551208	254.000000
764.588257	249.100000
764.625305	261.000000
764.662292	266.300000
764.699341	268.200000
764.736389	261.600000
764.773376	276.500000
764.810425	261.700000
764.847473	272.300000
764.884399	267.500000
764.921448	274.700000
764.958435	272.700000
764.995483	263.300000
765.032532	277.800000
765.069458	264.500000
765.106506	264.500000
765.143555	264.400000
765.180481	268.300000
765.217529	277.100000
765.254578	260.700000
765.291504	272.300000
765.328552	267.400000
765.365540	266.900000
765.402527	281.100000
765.439575	266.900000
765.476501	261.500000
765.513550	263.000000
765.550537	268.200000
765.587463	276.100000
765.624512	266.100000
765.661499	261.000000
765.698486	274.400000
765.735474	266.600000
765.772461	268.400000
765.809448	277.500000
765.846436	276.100000
765.883423	280.400000
765.920410	274.700000
765.957397	271.200000
765.994385	273.500000
766.031311	284.000000
766.068359	277.000000
766.105286	277.800000
766.142273	284.600000
766.179260	279.600000
766.216187	272.700000
766.253174	270.400000
766.290161	280.600000
766.327148	280.900000
766.364136	282.000000
766.401123	298.700000
766.438049	276.200000
766.475037	289.900000
766.512024	285.400000
766.548950	299.000000
766.585937	294.300000
766.622864	290.400000
766.659790	288.300000
766.696777	280.200000
766.733704	293.600000
766.770691	285.700000
766.807678	300.300000
766.844604	294.500000
766.881531	295.000000
766.918518	300.100000
766.955444	301.400000
766.992432	293.400000
767.029358	299.200000
767.066284	299.300000
767.103271	299.900000
767.140198	327.800000
767.177124	313.800000
767.214050	302.900000
767.251038	308.300000
767.287964	301.000000
767.324890	298.800000
767.361816	305.000000
767.398743	311.600000
767.435730	304.500000
767.472595	309.500000
767.509583	314.000000
767.546509	305.700000
767.583374	310.600000
767.620361	303.700000
767.657288	307.200000
767.694214	310.200000
767.731140	309.700000
767.768066	310.200000
767.804993	314.700000
767.841919	307.200000
767.878845	313.500000
767.915710	323.300000
767.952698	314.800000
767.989563	318.800000
768.026489	321.400000
