Model Number: SPM-002-B   
Serial Number: 70087108
Firmware Version: 004.15.4
Exposure Time: 100000.000000us
Data Taken on: 15-01-2021 16:34:22.753
Wavelength	Amplitude
221.570786	0.000000
221.663406	0.000000
221.756027	0.000000
221.848648	0.000000
221.941269	0.000000
222.033905	0.000000
222.126526	0.000000
222.219162	0.000000
222.311798	0.000000
222.404419	0.000000
222.497055	0.000000
222.589676	0.000000
222.682312	0.000000
222.774933	0.000000
222.867569	0.000000
222.960205	0.000000
223.052841	0.000000
223.145462	0.000000
223.238098	0.000000
223.330734	0.000000
223.423386	0.000000
223.516022	0.000000
223.608658	0.000000
223.701309	0.000000
223.793945	0.000000
223.886581	0.000000
223.979218	0.000000
224.071869	0.000000
224.164505	0.000000
224.257156	0.000000
224.349792	0.000000
224.442444	0.000000
224.535095	0.000000
224.627747	0.000000
224.720398	0.000000
224.813034	0.000000
224.905685	0.000000
224.998337	152.320000
225.090988	152.260000
225.183640	152.560000
225.276291	152.380000
225.368942	152.520000
225.461594	153.300000
225.554245	153.480000
225.646912	153.640000
225.739578	154.140000
225.832230	154.700000
225.924896	153.680000
226.017548	153.860000
226.110199	154.160000
226.202866	153.680000
226.295532	153.480000
226.388184	153.540000
226.480850	153.040000
226.573517	152.080000
226.666168	151.960000
226.758835	152.360000
226.851501	153.100000
226.944183	153.340000
227.036850	153.480000
227.129517	153.480000
227.222183	153.420000
227.314850	153.020000
227.407516	153.320000
227.500198	154.160000
227.592865	154.000000
227.685532	153.500000
227.778214	153.560000
227.870880	153.860000
227.963562	154.080000
228.056229	154.780000
228.148926	154.980000
228.241592	155.520000
228.334274	154.880000
228.426956	154.280000
228.519638	154.300000
228.612305	153.700000
228.704987	153.520000
228.797668	153.860000
228.890350	153.660000
228.983032	152.700000
229.075714	153.660000
229.168396	153.140000
229.261108	152.540000
229.353790	152.720000
229.446472	153.340000
229.539169	153.060000
229.631851	152.860000
229.724533	153.460000
229.817230	153.620000
229.909912	154.500000
230.002609	154.260000
230.095306	154.600000
230.187988	154.460000
230.280685	153.920000
230.373383	152.860000
230.466095	152.720000
230.558792	152.900000
230.651474	152.680000
230.744171	152.900000
230.836868	152.740000
230.929581	153.140000
231.022278	153.020000
231.114975	153.140000
231.207672	153.040000
231.300369	153.620000
231.393082	153.360000
231.485779	153.180000
231.578506	153.200000
231.671204	153.600000
231.763916	153.320000
231.856613	153.300000
231.949326	153.380000
232.042023	153.340000
232.134735	153.080000
232.227448	153.020000
232.320160	153.720000
232.412872	153.600000
232.505585	153.980000
232.598297	154.200000
232.691010	153.820000
232.783722	152.820000
232.876450	153.840000
232.969162	153.060000
233.061874	152.340000
233.154587	152.000000
233.247314	152.560000
233.340027	151.680000
233.432739	152.580000
233.525467	152.920000
233.618179	153.620000
233.710907	153.240000
233.803635	153.400000
233.896347	153.240000
233.989090	153.820000
234.081818	153.680000
234.174545	154.080000
234.267258	153.820000
234.359985	153.640000
234.452713	153.480000
234.545441	153.440000
234.638168	153.200000
234.730896	153.260000
234.823639	153.020000
234.916367	153.140000
235.009094	153.380000
235.101822	153.420000
235.194580	153.540000
235.287308	153.800000
235.380051	153.420000
235.472778	153.780000
235.565521	153.940000
235.658249	153.900000
235.750992	154.000000
235.843719	153.860000
235.936462	153.740000
236.029205	153.340000
236.121948	152.820000
236.214691	153.220000
236.307449	154.080000
236.400192	153.680000
236.492935	153.740000
236.585678	154.200000
236.678421	153.600000
236.771164	153.200000
236.863907	153.580000
236.956665	153.740000
237.049408	155.600000
237.142151	155.300000
237.234909	155.960000
237.327652	156.040000
237.420410	155.960000
237.513153	154.580000
237.605927	154.640000
237.698669	153.820000
237.791428	153.140000
237.884186	153.660000
237.976944	153.140000
238.069702	153.500000
238.162445	153.160000
238.255203	153.560000
238.347961	153.620000
238.440720	153.500000
238.533478	153.200000
238.626266	153.080000
238.719025	153.080000
238.811783	152.580000
238.904541	152.880000
238.997314	153.040000
239.090073	153.140000
239.182831	153.540000
239.275604	154.720000
239.368362	154.220000
239.461136	154.240000
239.553909	154.460000
239.646667	153.900000
239.739441	152.880000
239.832214	153.380000
239.925003	153.400000
240.017761	153.860000
240.110535	154.520000
240.203308	154.280000
240.296082	154.420000
240.388855	154.240000
240.481628	154.000000
240.574417	154.080000
240.667191	154.540000
240.759964	153.860000
240.852737	153.940000
240.945526	153.640000
241.038315	153.060000
241.131088	152.840000
241.223877	153.460000
241.316650	153.140000
241.409439	153.680000
241.502228	153.460000
241.595001	154.020000
241.687790	153.500000
241.780579	154.220000
241.873367	154.260000
241.966141	154.740000
242.058929	154.020000
242.151718	154.680000
242.244507	154.780000
242.337311	153.820000
242.430099	154.340000
242.522903	154.720000
242.615692	154.140000
242.708481	153.880000
242.801270	154.740000
242.894073	154.160000
242.986862	154.160000
243.079651	154.900000
243.172455	154.360000
243.265244	154.060000
243.358063	153.500000
243.450867	153.600000
243.543655	153.340000
243.636459	153.340000
243.729263	153.920000
243.822067	154.160000
243.914856	154.360000
244.007660	154.480000
244.100464	154.760000
244.193268	153.940000
244.286072	154.120000
244.378876	153.420000
244.471680	153.220000
244.564499	153.300000
244.657318	154.240000
244.750122	154.240000
244.842926	153.860000
244.935745	153.900000
245.028549	153.640000
245.121368	152.940000
245.214172	153.140000
245.306992	154.100000
245.399796	154.060000
245.492615	154.220000
245.585434	154.120000
245.678253	154.000000
245.771072	153.580000
245.863892	153.780000
245.956711	154.000000
246.049530	153.940000
246.142349	153.700000
246.235168	153.800000
246.327988	154.200000
246.420807	153.960000
246.513626	154.240000
246.606445	153.920000
246.699280	153.620000
246.792099	153.260000
246.884918	152.860000
246.977753	152.420000
247.070587	152.880000
247.163422	152.860000
247.256241	152.620000
247.349075	153.220000
247.441895	153.620000
247.534729	153.420000
247.627563	153.520000
247.720383	154.180000
247.813217	154.060000
247.906052	153.960000
247.998886	154.340000
248.091736	154.160000
248.184570	153.420000
248.277405	153.120000
248.370239	153.820000
248.463074	154.480000
248.555908	154.840000
248.648743	154.960000
248.741592	155.400000
248.834427	154.600000
248.927261	153.480000
249.020111	154.060000
249.112946	154.780000
249.205795	154.340000
249.298630	154.580000
249.391495	154.820000
249.484344	153.940000
249.577179	153.560000
249.670029	154.020000
249.762878	154.260000
249.855728	154.340000
249.948563	154.520000
250.041412	153.940000
250.134262	154.020000
250.227112	154.080000
250.319962	154.040000
250.412827	154.120000
250.505692	153.560000
250.598541	153.460000
250.691391	153.120000
250.784241	153.220000
250.877106	153.300000
250.969955	153.640000
251.062805	153.840000
251.155670	154.380000
251.248520	154.080000
251.341385	154.320000
251.434235	154.240000
251.527100	154.120000
251.619965	153.560000
251.712814	154.200000
251.805695	154.160000
251.898560	154.780000
251.991425	154.920000
252.084290	155.000000
252.177155	154.320000
252.270020	153.820000
252.362885	153.680000
252.455750	153.640000
252.548615	153.700000
252.641479	153.780000
252.734360	153.880000
252.827240	153.720000
252.920105	153.720000
253.012970	153.320000
253.105850	153.000000
253.198715	152.860000
253.291595	152.820000
253.384460	152.340000
253.477341	152.520000
253.570221	152.940000
253.663086	152.620000
253.755966	153.220000
253.848846	153.420000
253.941727	153.560000
254.034592	153.440000
254.127472	153.120000
254.220367	152.900000
254.313248	153.060000
254.406128	152.660000
254.499008	152.900000
254.591904	154.060000
254.684784	154.320000
254.777664	154.000000
254.870544	153.900000
254.963440	153.720000
255.056335	153.600000
255.149216	153.380000
255.242111	153.940000
255.334991	154.160000
255.427887	154.340000
255.520767	154.320000
255.613663	154.240000
255.706558	153.740000
255.799438	153.520000
255.892334	153.140000
255.985229	153.060000
256.078125	152.820000
256.171021	152.940000
256.263916	153.600000
256.356812	154.040000
256.449707	154.180000
256.542603	154.040000
256.635498	154.540000
256.728394	154.260000
256.821289	153.800000
256.914215	153.780000
257.007080	154.300000
257.100006	154.300000
257.192932	154.600000
257.285828	154.940000
257.378723	154.840000
257.471619	154.380000
257.564545	153.560000
257.657440	153.620000
257.750336	153.940000
257.843262	153.760000
257.936157	155.040000
258.029053	155.800000
258.121979	156.020000
258.214874	155.720000
258.307800	155.580000
258.400696	154.200000
258.493622	153.760000
258.586517	152.640000
258.679443	153.000000
258.772339	152.560000
258.865265	152.900000
258.958160	152.420000
259.051086	153.580000
259.144012	153.340000
259.236938	154.500000
259.329834	154.460000
259.422791	154.420000
259.515717	153.520000
259.608612	153.140000
259.701538	152.980000
259.794464	152.560000
259.887390	152.840000
259.980316	153.000000
260.073212	152.840000
260.166138	151.740000
260.259064	152.320000
260.351990	152.800000
260.444916	153.000000
260.537842	153.500000
260.630768	154.440000
260.723694	154.380000
260.816620	154.520000
260.909546	154.140000
261.002472	153.840000
261.095398	153.520000
261.188354	153.320000
261.281281	152.600000
261.374207	152.980000
261.467133	153.640000
261.560089	153.820000
261.653015	153.660000
261.745972	154.600000
261.838867	155.260000
261.931824	155.160000
262.024780	154.680000
262.117706	155.020000
262.210663	154.480000
262.303589	153.940000
262.396515	153.980000
262.489471	154.760000
262.582397	154.600000
262.675354	154.420000
262.768280	154.280000
262.861237	153.800000
262.954163	153.500000
263.047119	153.620000
263.140045	153.300000
263.233002	153.200000
263.325958	153.320000
263.418884	152.700000
263.511841	152.440000
263.604797	152.440000
263.697723	152.260000
263.790680	152.180000
263.883636	153.040000
263.976593	152.980000
264.069550	153.440000
264.162476	153.220000
264.255463	153.240000
264.348419	153.060000
264.441376	153.580000
264.534332	153.020000
264.627289	153.120000
264.720245	153.680000
264.813202	152.980000
264.906158	152.900000
264.999115	153.580000
265.092072	153.960000
265.185028	154.520000
265.277985	155.120000
265.370941	155.180000
265.463898	154.900000
265.556854	154.420000
265.649811	153.220000
265.742798	153.020000
265.835754	152.820000
265.928711	153.300000
266.021667	153.840000
266.114655	154.300000
266.207611	154.640000
266.300568	154.260000
266.393585	153.660000
266.486511	153.660000
266.579498	152.700000
266.672485	152.320000
266.765442	152.500000
266.858429	153.120000
266.951385	152.560000
267.044342	152.800000
267.137329	153.000000
267.230316	153.140000
267.323273	152.680000
267.416260	153.380000
267.509216	153.500000
267.602203	153.280000
267.695160	153.820000
267.788147	153.780000
267.881134	153.200000
267.974091	153.560000
268.067078	153.700000
268.160065	153.020000
268.253052	153.300000
268.346008	153.600000
268.438995	153.280000
268.531982	153.240000
268.624969	153.060000
268.717987	153.140000
268.810944	153.300000
268.903961	153.500000
268.996948	153.460000
269.089905	154.540000
269.182892	154.380000
269.275879	154.760000
269.368866	154.380000
269.461853	154.440000
269.554871	153.560000
269.647858	153.540000
269.740845	153.520000
269.833832	154.220000
269.926819	154.180000
270.019806	154.360000
270.112793	153.900000
270.205811	153.720000
270.298798	153.120000
270.391785	153.520000
270.484772	153.500000
270.577789	153.820000
270.670776	153.160000
270.763763	153.100000
270.856750	152.740000
270.949768	152.280000
271.042786	152.440000
271.135773	152.620000
271.228790	153.060000
271.321808	152.940000
271.414795	152.960000
271.507782	152.380000
271.600800	152.120000
271.693817	152.340000
271.786804	152.640000
271.879822	153.080000
271.972809	153.200000
272.065826	154.260000
272.158844	153.560000
272.251831	154.200000
272.344849	154.020000
272.437866	154.000000
272.530853	153.460000
272.623871	153.620000
272.716888	152.440000
272.809906	152.940000
272.902893	153.120000
272.995911	152.740000
273.088928	152.720000
273.181946	153.200000
273.274963	152.660000
273.367981	152.560000
273.460999	152.880000
273.554047	153.600000
273.647003	154.140000
273.740051	154.120000
273.833069	154.780000
273.926086	154.680000
274.019135	154.060000
274.112152	153.420000
274.205170	153.740000
274.298187	153.580000
274.391205	153.220000
274.484222	153.320000
274.577240	153.300000
274.670258	152.920000
274.763306	152.900000
274.856323	153.700000
274.949341	153.680000
275.042358	153.960000
275.135406	153.920000
275.228424	153.800000
275.321442	153.520000
275.414490	153.260000
275.507507	153.840000
275.600525	154.360000
275.693573	153.880000
275.786591	153.620000
275.879669	154.000000
275.972656	153.280000
276.065735	153.100000
276.158752	153.560000
276.251801	154.100000
276.344818	154.260000
276.437866	154.360000
276.530884	153.720000
276.623932	153.280000
276.716980	153.180000
276.809998	152.960000
276.903046	153.040000
276.996094	154.420000
277.089111	155.180000
277.182159	155.800000
277.275208	155.460000
277.368256	155.240000
277.461304	154.640000
277.554321	153.780000
277.647369	153.260000
277.740417	153.600000
277.833466	153.380000
277.926514	153.120000
278.019562	154.080000
278.112610	153.440000
278.205688	153.700000
278.298706	154.200000
278.391785	153.780000
278.484833	153.320000
278.577881	153.440000
278.670929	153.360000
278.763977	153.280000
278.857025	153.920000
278.950073	153.760000
279.043121	153.800000
279.136169	153.800000
279.229248	153.340000
279.322296	153.400000
279.415344	153.380000
279.508392	153.420000
279.601440	153.180000
279.694519	153.400000
279.787567	153.120000
279.880615	153.040000
279.973694	153.080000
280.066742	153.360000
280.159790	153.380000
280.252869	153.160000
280.345917	153.340000
280.438995	153.080000
280.532074	152.960000
280.625122	153.260000
280.718201	154.300000
280.811279	154.460000
280.904327	154.640000
280.997406	154.740000
281.090454	154.640000
281.183533	153.680000
281.276581	153.360000
281.369659	152.960000
281.462738	152.840000
281.555786	152.860000
281.648865	153.260000
281.741943	153.420000
281.835022	154.260000
281.928070	154.040000
282.021149	153.720000
282.114227	153.280000
282.207306	153.180000
282.300385	153.260000
282.393433	153.500000
282.486511	153.720000
282.579590	154.420000
282.672668	154.740000
282.765747	154.100000
282.858856	153.640000
282.951904	153.920000
283.045013	153.960000
283.138062	154.020000
283.231171	154.500000
283.324249	155.000000
283.417328	154.920000
283.510406	154.320000
283.603485	154.020000
283.696564	153.880000
283.789642	153.640000
283.882751	153.300000
283.975830	154.220000
284.068909	153.820000
284.161987	154.140000
284.255066	153.920000
284.348175	154.100000
284.441254	153.540000
284.534332	154.180000
284.627441	153.720000
284.720520	153.460000
284.813599	153.460000
284.906708	153.260000
284.999786	152.640000
285.092896	152.280000
285.185974	153.440000
285.279053	153.000000
285.372192	153.080000
285.465240	153.720000
285.558380	153.800000
285.651459	153.280000
285.744568	154.140000
285.837677	154.080000
285.930756	153.880000
286.023865	154.160000
286.116943	153.420000
286.210052	153.200000
286.303162	152.860000
286.396240	152.940000
286.489349	152.680000
286.582458	153.560000
286.675568	153.380000
286.768646	153.860000
286.861755	153.940000
286.954865	154.640000
287.047974	153.960000
287.141083	153.500000
287.234161	153.020000
287.327271	152.720000
287.420380	153.140000
287.513519	153.180000
287.606598	153.640000
287.699738	153.880000
287.792816	154.100000
287.885956	153.420000
287.979034	153.220000
288.072174	153.200000
288.165283	153.360000
288.258392	153.520000
288.351501	152.840000
288.444611	153.460000
288.537720	153.780000
288.630859	153.840000
288.723969	154.020000
288.817078	154.880000
288.910187	155.020000
289.003296	154.060000
289.096436	153.680000
289.189545	153.260000
289.282654	152.760000
289.375763	152.860000
289.468903	153.800000
289.562012	154.020000
289.655121	153.940000
289.748260	154.260000
289.841400	154.580000
289.934509	154.420000
290.027649	154.920000
290.120728	154.900000
290.213898	154.680000
290.306976	154.180000
290.400146	154.060000
290.493256	152.940000
290.586395	153.040000
290.679535	153.400000
290.772644	153.240000
290.865784	152.660000
290.958893	153.200000
291.052032	152.900000
291.145172	152.820000
291.238281	152.340000
291.331421	152.500000
291.424561	153.020000
291.517670	153.200000
291.610809	152.940000
291.703949	153.240000
291.797089	153.560000
291.890228	152.720000
291.983337	152.580000
292.076477	152.620000
292.169617	153.180000
292.262756	153.120000
292.355927	153.200000
292.449036	153.220000
292.542206	153.160000
292.635315	153.000000
292.728485	153.180000
292.821625	153.220000
292.914764	154.560000
293.007904	154.680000
293.101044	154.700000
293.194183	154.660000
293.287323	154.460000
293.380463	153.400000
293.473602	153.340000
293.566742	153.360000
293.659882	153.700000
293.753021	154.180000
293.846191	154.180000
293.939331	154.000000
294.032471	153.840000
294.125610	153.260000
294.218781	153.380000
294.311920	153.540000
294.405060	153.700000
294.498230	153.580000
294.591370	153.640000
294.684540	153.020000
294.777679	152.620000
294.870850	152.720000
294.963959	152.500000
295.057159	152.580000
295.150299	153.200000
295.243469	153.260000
295.336609	152.880000
295.429779	153.100000
295.522919	153.420000
295.616089	153.180000
295.709229	153.960000
295.802399	154.280000
295.895569	154.080000
295.988708	153.820000
296.081879	154.160000
296.175018	153.300000
296.268188	153.060000
296.361359	153.500000
296.454529	153.560000
296.547668	152.920000
296.640839	153.200000
296.734009	153.140000
296.827179	153.240000
296.920319	153.700000
297.013519	154.060000
297.106659	154.160000
297.199860	154.120000
297.292999	153.920000
297.386200	153.260000
297.479309	152.980000
297.572510	152.900000
297.665680	152.700000
297.758850	152.440000
297.852020	152.440000
297.945190	152.360000
298.038361	151.820000
298.131531	153.060000
298.224701	153.220000
298.317871	152.840000
298.411072	152.420000
298.504242	152.500000
298.597412	151.700000
298.690582	151.940000
298.783752	152.200000
298.876923	153.160000
298.970093	153.640000
299.063293	154.100000
299.156464	154.200000
299.249634	154.660000
299.342834	154.640000
299.436005	154.680000
299.529205	154.300000
299.622345	154.420000
299.715576	153.680000
299.808716	153.300000
299.901917	153.060000
299.995117	153.460000
300.088287	153.380000
300.181488	153.560000
300.274658	153.400000
300.367828	153.660000
300.461029	153.360000
300.554199	153.440000
300.647400	153.580000
300.740601	154.300000
300.833771	153.820000
300.926971	154.360000
301.020142	154.060000
301.113342	153.960000
301.206512	153.820000
301.299713	154.360000
301.392914	153.660000
301.486084	153.840000
301.579285	153.860000
301.672516	153.860000
301.765686	153.600000
301.858887	153.540000
301.952057	153.260000
302.045288	153.540000
302.138458	153.300000
302.231659	153.160000
302.324860	153.380000
302.418060	153.460000
302.511261	152.980000
302.604462	153.160000
302.697662	152.820000
302.790863	152.540000
302.884064	152.080000
302.977264	152.220000
303.070465	152.460000
303.163666	153.660000
303.256866	153.920000
303.350067	153.960000
303.443268	154.240000
303.536469	153.980000
303.629669	153.160000
303.722870	153.340000
303.816071	153.420000
303.909271	153.320000
304.002472	152.880000
304.095673	152.500000
304.188934	151.720000
304.282104	152.820000
304.375336	152.900000
304.468506	152.960000
304.561768	153.200000
304.654968	153.760000
304.748169	152.860000
304.841370	152.540000
304.934601	153.160000
305.027802	152.720000
305.121002	152.580000
305.214233	152.860000
305.307434	153.060000
305.400665	153.440000
305.493866	153.480000
