Model Number: SPM-002-B   
Serial Number: 70087108
Firmware Version: 004.15.4
Exposure Time: 100000.000000us
Data Taken on: 15-01-2021 16:35:08.195
Wavelength	Amplitude
221.570786	0.000000
221.663406	0.000000
221.756027	0.000000
221.848648	0.000000
221.941269	0.000000
222.033905	0.000000
222.126526	0.000000
222.219162	0.000000
222.311798	0.000000
222.404419	0.000000
222.497055	0.000000
222.589676	0.000000
222.682312	0.000000
222.774933	0.000000
222.867569	0.000000
222.960205	0.000000
223.052841	0.000000
223.145462	0.000000
223.238098	0.000000
223.330734	0.000000
223.423386	0.000000
223.516022	0.000000
223.608658	0.000000
223.701309	0.000000
223.793945	0.000000
223.886581	0.000000
223.979218	0.000000
224.071869	0.000000
224.164505	0.000000
224.257156	0.000000
224.349792	0.000000
224.442444	0.000000
224.535095	0.000000
224.627747	0.000000
224.720398	0.000000
224.813034	0.000000
224.905685	0.000000
224.998337	152.480000
225.090988	152.120000
225.183640	152.400000
225.276291	152.200000
225.368942	152.900000
225.461594	153.640000
225.554245	153.920000
225.646912	153.840000
225.739578	154.220000
225.832230	154.080000
225.924896	153.060000
226.017548	153.240000
226.110199	153.580000
226.202866	153.080000
226.295532	153.160000
226.388184	153.040000
226.480850	152.400000
226.573517	151.800000
226.666168	151.780000
226.758835	151.920000
226.851501	152.720000
226.944183	153.060000
227.036850	152.860000
227.129517	153.320000
227.222183	153.420000
227.314850	153.100000
227.407516	153.420000
227.500198	154.780000
227.592865	154.120000
227.685532	153.460000
227.778214	153.440000
227.870880	153.760000
227.963562	153.400000
228.056229	153.960000
228.148926	154.440000
228.241592	155.520000
228.334274	154.900000
228.426956	154.700000
228.519638	154.720000
228.612305	154.100000
228.704987	153.320000
228.797668	153.340000
228.890350	152.960000
228.983032	152.260000
229.075714	152.920000
229.168396	152.700000
229.261108	152.060000
229.353790	152.080000
229.446472	152.520000
229.539169	152.420000
229.631851	152.040000
229.724533	152.540000
229.817230	153.080000
229.909912	154.140000
230.002609	154.120000
230.095306	154.180000
230.187988	154.500000
230.280685	154.340000
230.373383	152.980000
230.466095	152.920000
230.558792	153.420000
230.651474	153.200000
230.744171	152.900000
230.836868	153.000000
230.929581	153.040000
231.022278	152.880000
231.114975	153.140000
231.207672	153.100000
231.300369	153.780000
231.393082	153.920000
231.485779	153.900000
231.578506	153.520000
231.671204	153.760000
231.763916	153.260000
231.856613	153.100000
231.949326	153.020000
232.042023	153.140000
232.134735	153.080000
232.227448	152.760000
232.320160	153.080000
232.412872	153.020000
232.505585	153.920000
232.598297	154.060000
232.691010	154.220000
232.783722	153.660000
232.876450	154.500000
232.969162	153.620000
233.061874	153.260000
233.154587	152.960000
233.247314	153.400000
233.340027	152.360000
233.432739	153.100000
233.525467	153.200000
233.618179	153.520000
233.710907	153.220000
233.803635	153.760000
233.896347	153.100000
233.989090	153.700000
234.081818	153.860000
234.174545	153.820000
234.267258	153.880000
234.359985	154.000000
234.452713	153.440000
234.545441	153.320000
234.638168	153.560000
234.730896	153.600000
234.823639	153.420000
234.916367	153.780000
235.009094	153.980000
235.101822	153.800000
235.194580	153.620000
235.287308	153.740000
235.380051	153.180000
235.472778	153.420000
235.565521	153.760000
235.658249	153.380000
235.750992	153.520000
235.843719	153.700000
235.936462	153.780000
236.029205	153.340000
236.121948	153.240000
236.214691	153.620000
236.307449	154.220000
236.400192	153.860000
236.492935	153.760000
236.585678	154.300000
236.678421	153.900000
236.771164	153.720000
236.863907	154.040000
236.956665	154.140000
237.049408	155.600000
237.142151	154.880000
237.234909	155.520000
237.327652	155.440000
237.420410	155.520000
237.513153	154.180000
237.605927	154.840000
237.698669	153.940000
237.791428	153.320000
237.884186	153.660000
237.976944	153.180000
238.069702	152.960000
238.162445	152.740000
238.255203	153.140000
238.347961	153.380000
238.440720	153.660000
238.533478	153.680000
238.626266	153.260000
238.719025	153.440000
238.811783	152.800000
238.904541	152.440000
238.997314	152.440000
239.090073	152.260000
239.182831	152.240000
239.275604	153.360000
239.368362	153.320000
239.461136	153.620000
239.553909	154.040000
239.646667	153.540000
239.739441	152.760000
239.832214	153.200000
239.925003	153.240000
240.017761	153.820000
240.110535	154.480000
240.203308	153.940000
240.296082	154.180000
240.388855	153.880000
240.481628	154.000000
240.574417	153.900000
240.667191	154.460000
240.759964	153.860000
240.852737	153.760000
240.945526	153.160000
241.038315	153.080000
241.131088	153.160000
241.223877	153.560000
241.316650	153.460000
241.409439	154.200000
241.502228	153.980000
241.595001	154.460000
241.687790	154.140000
241.780579	154.380000
241.873367	154.220000
241.966141	154.480000
242.058929	153.460000
242.151718	153.980000
242.244507	154.100000
242.337311	153.220000
242.430099	153.700000
242.522903	154.080000
242.615692	153.340000
242.708481	153.280000
242.801270	154.040000
242.894073	153.700000
242.986862	153.760000
243.079651	154.580000
243.172455	154.400000
243.265244	154.660000
243.358063	153.880000
243.450867	154.360000
243.543655	154.180000
243.636459	154.260000
243.729263	154.020000
243.822067	154.520000
243.914856	154.380000
244.007660	154.300000
244.100464	154.180000
244.193268	153.660000
244.286072	153.360000
244.378876	152.620000
244.471680	152.260000
244.564499	152.580000
244.657318	153.560000
244.750122	153.940000
244.842926	153.820000
244.935745	154.380000
245.028549	154.040000
245.121368	153.340000
245.214172	153.020000
245.306992	153.640000
245.399796	152.980000
245.492615	153.080000
245.585434	152.780000
245.678253	153.040000
245.771072	152.860000
245.863892	153.400000
245.956711	153.760000
246.049530	153.980000
246.142349	153.880000
246.235168	153.900000
246.327988	154.260000
246.420807	153.860000
246.513626	153.840000
246.606445	153.860000
246.699280	153.900000
246.792099	153.340000
246.884918	153.100000
246.977753	152.800000
247.070587	152.960000
247.163422	153.020000
247.256241	152.960000
247.349075	153.540000
247.441895	153.880000
247.534729	153.740000
247.627563	153.480000
247.720383	154.200000
247.813217	154.000000
247.906052	154.160000
247.998886	154.160000
248.091736	154.420000
248.184570	153.780000
248.277405	153.440000
248.370239	153.900000
248.463074	154.820000
248.555908	154.860000
248.648743	154.940000
248.741592	155.400000
248.834427	154.740000
248.927261	153.440000
249.020111	154.020000
249.112946	154.620000
249.205795	153.820000
249.298630	153.960000
249.391495	154.280000
249.484344	153.600000
249.577179	153.540000
249.670029	154.220000
249.762878	154.540000
249.855728	154.740000
249.948563	154.980000
250.041412	154.080000
250.134262	154.180000
250.227112	154.160000
250.319962	154.040000
250.412827	153.860000
250.505692	153.580000
250.598541	153.420000
250.691391	153.240000
250.784241	153.240000
250.877106	153.200000
250.969955	153.480000
251.062805	153.980000
251.155670	154.460000
251.248520	154.360000
251.341385	154.760000
251.434235	154.600000
251.527100	154.320000
251.619965	153.760000
251.712814	154.560000
251.805695	154.300000
251.898560	154.680000
251.991425	154.640000
252.084290	154.760000
252.177155	153.960000
252.270020	153.820000
252.362885	153.740000
252.455750	153.580000
252.548615	153.280000
252.641479	153.240000
252.734360	152.880000
252.827240	152.800000
252.920105	153.140000
253.012970	152.660000
253.105850	152.680000
253.198715	152.860000
253.291595	152.960000
253.384460	152.340000
253.477341	152.800000
253.570221	152.680000
253.663086	152.480000
253.755966	153.300000
253.848846	153.780000
253.941727	153.940000
254.034592	154.160000
254.127472	153.720000
254.220367	153.300000
254.313248	153.440000
254.406128	153.100000
254.499008	153.240000
254.591904	154.420000
254.684784	154.740000
254.777664	154.280000
254.870544	154.020000
254.963440	153.780000
255.056335	153.520000
255.149216	153.100000
255.242111	153.560000
255.334991	154.200000
255.427887	154.360000
255.520767	154.200000
255.613663	154.240000
255.706558	153.500000
255.799438	153.140000
255.892334	153.120000
255.985229	153.280000
256.078125	153.140000
256.171021	153.480000
256.263916	154.160000
256.356812	154.380000
256.449707	154.120000
256.542603	154.060000
256.635498	154.560000
256.728394	154.260000
256.821289	153.640000
256.914215	153.980000
257.007080	154.060000
257.100006	154.020000
257.192932	154.060000
257.285828	154.500000
257.378723	153.960000
257.471619	153.700000
257.564545	153.100000
257.657440	153.480000
257.750336	153.800000
257.843262	153.860000
257.936157	155.120000
258.029053	155.660000
258.121979	155.360000
258.214874	154.900000
258.307800	154.760000
258.400696	153.520000
258.493622	153.220000
258.586517	152.460000
258.679443	152.920000
258.772339	152.660000
258.865265	152.580000
258.958160	152.140000
259.051086	153.320000
259.144012	152.800000
259.236938	153.700000
259.329834	153.720000
259.422791	153.700000
259.515717	152.720000
259.608612	152.320000
259.701538	152.100000
259.794464	152.140000
259.887390	152.460000
259.980316	152.540000
260.073212	152.680000
260.166138	151.940000
260.259064	152.400000
260.351990	153.360000
260.444916	153.600000
260.537842	154.140000
260.630768	154.780000
260.723694	154.460000
260.816620	153.560000
260.909546	153.220000
261.002472	152.880000
261.095398	152.560000
261.188354	152.440000
261.281281	152.160000
261.374207	152.400000
261.467133	153.100000
261.560089	153.400000
261.653015	153.060000
261.745972	153.760000
261.838867	154.160000
261.931824	154.120000
262.024780	153.800000
262.117706	154.560000
262.210663	154.920000
262.303589	154.520000
262.396515	154.460000
262.489471	155.300000
262.582397	154.960000
262.675354	153.940000
262.768280	154.180000
262.861237	153.780000
262.954163	153.640000
263.047119	153.840000
263.140045	154.000000
263.233002	153.920000
263.325958	154.060000
263.418884	153.420000
263.511841	153.160000
263.604797	152.980000
263.697723	153.220000
263.790680	153.080000
263.883636	153.520000
263.976593	153.460000
264.069550	153.880000
264.162476	153.320000
264.255463	153.580000
264.348419	153.640000
264.441376	154.100000
264.534332	153.400000
264.627289	153.680000
264.720245	153.980000
264.813202	153.220000
264.906158	153.060000
264.999115	153.940000
265.092072	153.800000
265.185028	154.100000
265.277985	154.920000
265.370941	154.940000
265.463898	154.560000
265.556854	154.280000
265.649811	153.120000
265.742798	152.620000
265.835754	152.280000
265.928711	152.760000
266.021667	152.980000
266.114655	153.380000
266.207611	154.080000
266.300568	153.780000
266.393585	153.040000
266.486511	153.200000
266.579498	152.780000
266.672485	152.240000
266.765442	152.320000
266.858429	153.180000
266.951385	152.960000
267.044342	153.100000
267.137329	153.260000
267.230316	153.480000
267.323273	152.900000
267.416260	153.600000
267.509216	153.520000
267.602203	153.160000
267.695160	153.780000
267.788147	153.700000
267.881134	153.040000
267.974091	153.380000
268.067078	153.280000
268.160065	153.040000
268.253052	153.020000
268.346008	153.300000
268.438995	152.920000
268.531982	153.380000
268.624969	153.100000
268.717987	153.560000
268.810944	153.300000
268.903961	153.860000
268.996948	153.400000
269.089905	153.680000
269.182892	153.680000
269.275879	154.080000
269.368866	153.380000
269.461853	153.680000
269.554871	153.720000
269.647858	153.460000
269.740845	153.640000
269.833832	154.120000
269.926819	153.600000
270.019806	153.780000
270.112793	153.320000
270.205811	153.080000
270.298798	152.800000
270.391785	153.480000
270.484772	153.060000
270.577789	153.600000
270.670776	153.260000
270.763763	153.280000
270.856750	153.300000
270.949768	152.980000
271.042786	152.780000
271.135773	152.840000
271.228790	153.260000
271.321808	152.800000
271.414795	152.440000
271.507782	152.440000
271.600800	152.400000
271.693817	152.500000
271.786804	153.120000
271.879822	153.540000
271.972809	153.420000
272.065826	153.860000
272.158844	153.280000
272.251831	153.660000
272.344849	153.780000
272.437866	153.460000
272.530853	153.520000
272.623871	153.840000
272.716888	152.480000
272.809906	152.800000
272.902893	153.000000
272.995911	152.160000
273.088928	151.820000
273.181946	152.420000
273.274963	152.040000
273.367981	152.100000
273.460999	152.540000
273.554047	153.040000
273.647003	153.740000
273.740051	153.780000
273.833069	154.300000
273.926086	154.340000
274.019135	154.020000
274.112152	153.620000
274.205170	153.840000
274.298187	153.880000
274.391205	153.720000
274.484222	153.860000
274.577240	153.780000
274.670258	153.480000
274.763306	153.000000
274.856323	153.440000
274.949341	153.640000
275.042358	153.740000
275.135406	153.720000
275.228424	154.000000
275.321442	153.840000
275.414490	153.480000
275.507507	153.620000
275.600525	154.040000
275.693573	153.720000
275.786591	153.080000
275.879669	153.220000
275.972656	152.840000
276.065735	152.520000
276.158752	153.140000
276.251801	154.060000
276.344818	154.080000
276.437866	154.200000
276.530884	153.860000
276.623932	153.020000
276.716980	153.100000
276.809998	153.080000
276.903046	153.140000
276.996094	154.460000
277.089111	155.340000
277.182159	155.620000
277.275208	155.180000
277.368256	155.380000
277.461304	154.740000
277.554321	153.760000
277.647369	153.420000
277.740417	153.840000
277.833466	153.420000
277.926514	153.360000
278.019562	154.400000
278.112610	153.600000
278.205688	153.520000
278.298706	153.720000
278.391785	153.360000
278.484833	152.660000
278.577881	152.920000
278.670929	153.620000
278.763977	153.740000
278.857025	154.420000
278.950073	154.340000
279.043121	154.180000
279.136169	153.780000
279.229248	153.300000
279.322296	153.280000
279.415344	153.280000
279.508392	153.100000
279.601440	152.680000
279.694519	152.900000
279.787567	152.400000
279.880615	152.320000
279.973694	152.620000
280.066742	152.960000
280.159790	152.840000
280.252869	152.740000
280.345917	152.840000
280.438995	152.720000
280.532074	152.640000
280.625122	152.740000
280.718201	153.740000
280.811279	153.860000
280.904327	153.940000
280.997406	153.940000
281.090454	154.100000
281.183533	153.120000
281.276581	153.140000
281.369659	153.040000
281.462738	152.780000
281.555786	153.000000
281.648865	153.020000
281.741943	152.680000
281.835022	153.560000
281.928070	153.500000
282.021149	153.120000
282.114227	153.320000
282.207306	153.420000
282.300385	153.280000
282.393433	153.680000
282.486511	153.960000
282.579590	154.240000
282.672668	154.920000
282.765747	154.100000
282.858856	153.580000
282.951904	153.500000
283.045013	153.680000
283.138062	153.600000
283.231171	154.040000
283.324249	154.840000
283.417328	155.060000
283.510406	154.540000
283.603485	154.000000
283.696564	153.820000
283.789642	153.540000
283.882751	153.120000
283.975830	153.680000
284.068909	153.620000
284.161987	154.180000
284.255066	153.440000
284.348175	153.560000
284.441254	153.060000
284.534332	153.720000
284.627441	153.080000
284.720520	153.140000
284.813599	153.220000
284.906708	153.380000
284.999786	152.460000
285.092896	152.200000
285.185974	153.640000
285.279053	153.040000
285.372192	152.980000
285.465240	153.980000
285.558380	154.220000
285.651459	153.480000
285.744568	154.360000
285.837677	154.060000
285.930756	153.900000
286.023865	153.640000
286.116943	153.140000
286.210052	153.100000
286.303162	153.220000
286.396240	153.120000
286.489349	153.180000
286.582458	153.640000
286.675568	153.200000
286.768646	153.360000
286.861755	153.500000
286.954865	154.260000
287.047974	153.700000
287.141083	153.840000
287.234161	153.760000
287.327271	153.380000
287.420380	153.420000
287.513519	153.640000
287.606598	153.580000
287.699738	153.840000
287.792816	154.040000
287.885956	153.720000
287.979034	153.720000
288.072174	153.700000
288.165283	153.260000
288.258392	153.540000
288.351501	153.200000
288.444611	153.380000
288.537720	153.760000
288.630859	154.140000
288.723969	154.020000
288.817078	154.760000
288.910187	155.020000
289.003296	154.300000
289.096436	153.820000
289.189545	153.600000
289.282654	152.600000
289.375763	152.580000
289.468903	153.200000
289.562012	153.380000
289.655121	153.300000
289.748260	153.960000
289.841400	154.160000
289.934509	153.820000
290.027649	154.080000
290.120728	154.060000
290.213898	153.960000
290.306976	153.480000
290.400146	153.820000
290.493256	153.200000
290.586395	153.560000
290.679535	154.020000
290.772644	154.200000
290.865784	153.400000
290.958893	153.460000
291.052032	153.020000
291.145172	152.820000
291.238281	152.260000
291.331421	152.640000
291.424561	153.160000
291.517670	153.080000
291.610809	153.100000
291.703949	153.420000
291.797089	153.980000
291.890228	153.500000
291.983337	153.540000
292.076477	153.240000
292.169617	153.460000
292.262756	152.980000
292.355927	152.860000
292.449036	152.680000
292.542206	152.840000
292.635315	152.820000
292.728485	153.140000
292.821625	152.940000
292.914764	154.260000
293.007904	154.220000
293.101044	154.480000
293.194183	154.200000
293.287323	154.640000
293.380463	153.820000
293.473602	153.700000
293.566742	153.460000
293.659882	154.020000
293.753021	154.160000
293.846191	154.040000
293.939331	154.020000
294.032471	153.720000
294.125610	153.040000
294.218781	153.600000
294.311920	154.120000
294.405060	154.100000
294.498230	154.240000
294.591370	154.460000
294.684540	153.440000
294.777679	152.640000
294.870850	152.960000
294.963959	152.860000
295.057159	152.800000
295.150299	153.580000
295.243469	153.640000
295.336609	153.060000
295.429779	153.120000
295.522919	153.500000
295.616089	153.180000
295.709229	153.840000
295.802399	153.860000
295.895569	153.780000
295.988708	153.400000
296.081879	153.760000
296.175018	152.940000
296.268188	153.260000
296.361359	153.800000
296.454529	154.020000
296.547668	153.560000
296.640839	154.140000
296.734009	153.620000
296.827179	153.540000
296.920319	153.520000
297.013519	153.300000
297.106659	153.300000
297.199860	153.620000
297.292999	153.600000
297.386200	153.180000
297.479309	153.200000
297.572510	153.160000
297.665680	153.000000
297.758850	152.680000
297.852020	152.680000
297.945190	152.700000
298.038361	152.300000
298.131531	152.980000
298.224701	153.160000
298.317871	153.000000
298.411072	152.740000
298.504242	152.600000
298.597412	152.360000
298.690582	152.440000
298.783752	152.560000
298.876923	153.280000
298.970093	153.400000
299.063293	153.660000
299.156464	153.940000
299.249634	154.500000
299.342834	154.380000
299.436005	155.060000
299.529205	154.680000
299.622345	154.340000
299.715576	153.320000
299.808716	152.760000
299.901917	152.480000
299.995117	152.700000
300.088287	152.880000
300.181488	153.260000
300.274658	153.420000
300.367828	153.420000
300.461029	153.420000
300.554199	153.620000
300.647400	153.720000
300.740601	154.540000
300.833771	153.960000
300.926971	154.360000
301.020142	154.000000
301.113342	154.060000
301.206512	153.920000
301.299713	154.320000
301.392914	153.680000
301.486084	154.100000
301.579285	154.120000
301.672516	154.340000
301.765686	154.440000
301.858887	154.560000
301.952057	154.080000
302.045288	154.520000
302.138458	153.960000
302.231659	153.920000
302.324860	153.940000
302.418060	153.680000
302.511261	153.320000
302.604462	153.840000
302.697662	153.500000
302.790863	153.220000
302.884064	153.160000
302.977264	153.060000
303.070465	152.840000
303.163666	153.900000
303.256866	154.380000
303.350067	154.680000
303.443268	155.000000
303.536469	155.080000
303.629669	154.120000
303.722870	153.980000
303.816071	153.760000
303.909271	153.220000
304.002472	152.460000
304.095673	152.280000
304.188934	151.680000
304.282104	152.780000
304.375336	153.020000
304.468506	153.020000
304.561768	153.000000
304.654968	153.540000
304.748169	152.840000
304.841370	152.680000
304.934601	153.380000
305.027802	153.340000
305.121002	152.860000
305.214233	152.680000
305.307434	152.880000
305.400665	153.360000
305.493866	153.520000
