Model Number: SPM-002-B   
Serial Number: 70087108
Firmware Version: 004.15.4
Exposure Time: 100000.000000us
Data Taken on: 15-01-2021 16:35:03.886
Wavelength	Amplitude
221.570786	0.000000
221.663406	0.000000
221.756027	0.000000
221.848648	0.000000
221.941269	0.000000
222.033905	0.000000
222.126526	0.000000
222.219162	0.000000
222.311798	0.000000
222.404419	0.000000
222.497055	0.000000
222.589676	0.000000
222.682312	0.000000
222.774933	0.000000
222.867569	0.000000
222.960205	0.000000
223.052841	0.000000
223.145462	0.000000
223.238098	0.000000
223.330734	0.000000
223.423386	0.000000
223.516022	0.000000
223.608658	0.000000
223.701309	0.000000
223.793945	0.000000
223.886581	0.000000
223.979218	0.000000
224.071869	0.000000
224.164505	0.000000
224.257156	0.000000
224.349792	0.000000
224.442444	0.000000
224.535095	0.000000
224.627747	0.000000
224.720398	0.000000
224.813034	0.000000
224.905685	0.000000
224.998337	153.180000
225.090988	153.000000
225.183640	152.780000
225.276291	152.460000
225.368942	152.600000
225.461594	153.280000
225.554245	153.520000
225.646912	153.520000
225.739578	154.300000
225.832230	155.100000
225.924896	154.400000
226.017548	154.720000
226.110199	155.360000
226.202866	154.240000
226.295532	153.760000
226.388184	153.560000
226.480850	152.680000
226.573517	151.960000
226.666168	152.680000
226.758835	153.020000
226.851501	153.580000
226.944183	153.840000
227.036850	153.420000
227.129517	153.480000
227.222183	153.400000
227.314850	153.560000
227.407516	153.960000
227.500198	155.040000
227.592865	154.440000
227.685532	153.880000
227.778214	153.340000
227.870880	153.520000
227.963562	153.580000
228.056229	154.220000
228.148926	154.540000
228.241592	155.540000
228.334274	155.260000
228.426956	155.140000
228.519638	155.120000
228.612305	154.720000
228.704987	154.620000
228.797668	154.580000
228.890350	153.820000
228.983032	153.320000
229.075714	154.180000
229.168396	153.460000
229.261108	153.180000
229.353790	153.460000
229.446472	153.860000
229.539169	153.480000
229.631851	153.240000
229.724533	153.440000
229.817230	153.640000
229.909912	154.340000
230.002609	154.140000
230.095306	154.420000
230.187988	154.400000
230.280685	154.180000
230.373383	153.020000
230.466095	153.080000
230.558792	153.400000
230.651474	153.400000
230.744171	153.440000
230.836868	153.460000
230.929581	153.260000
231.022278	153.060000
231.114975	153.360000
231.207672	153.180000
231.300369	153.640000
231.393082	154.300000
231.485779	154.340000
231.578506	154.060000
231.671204	154.420000
231.763916	154.440000
231.856613	154.140000
231.949326	153.900000
232.042023	153.800000
232.134735	153.580000
232.227448	152.980000
232.320160	153.160000
232.412872	153.180000
232.505585	154.200000
232.598297	154.400000
232.691010	154.700000
232.783722	154.340000
232.876450	155.020000
232.969162	154.080000
233.061874	153.740000
233.154587	153.540000
233.247314	153.540000
233.340027	152.660000
233.432739	152.980000
233.525467	153.020000
233.618179	153.620000
233.710907	153.660000
233.803635	154.080000
233.896347	153.820000
233.989090	154.800000
234.081818	154.380000
234.174545	154.600000
234.267258	154.220000
234.359985	154.580000
234.452713	153.900000
234.545441	153.920000
234.638168	153.680000
234.730896	154.320000
234.823639	153.860000
234.916367	154.220000
235.009094	154.440000
235.101822	154.500000
235.194580	154.240000
235.287308	154.580000
235.380051	154.040000
235.472778	154.100000
235.565521	154.340000
235.658249	154.140000
235.750992	153.860000
235.843719	153.940000
235.936462	154.000000
236.029205	153.460000
236.121948	153.140000
236.214691	153.900000
236.307449	154.740000
236.400192	154.320000
236.492935	154.500000
236.585678	155.000000
236.678421	154.740000
236.771164	154.300000
236.863907	154.880000
236.956665	155.060000
237.049408	156.780000
237.142151	156.060000
237.234909	156.900000
237.327652	156.660000
237.420410	156.360000
237.513153	154.800000
237.605927	155.100000
237.698669	154.180000
237.791428	153.540000
237.884186	154.000000
237.976944	153.340000
238.069702	153.540000
238.162445	152.900000
238.255203	153.260000
238.347961	153.300000
238.440720	153.500000
238.533478	153.020000
238.626266	153.000000
238.719025	153.240000
238.811783	152.980000
238.904541	153.120000
238.997314	153.420000
239.090073	153.020000
239.182831	153.240000
239.275604	153.820000
239.368362	153.520000
239.461136	153.620000
239.553909	154.060000
239.646667	153.620000
239.739441	153.140000
239.832214	153.880000
239.925003	153.980000
240.017761	154.520000
240.110535	155.240000
240.203308	154.820000
240.296082	154.840000
240.388855	154.580000
240.481628	154.640000
240.574417	154.500000
240.667191	154.820000
240.759964	154.440000
240.852737	154.480000
240.945526	153.860000
241.038315	153.500000
241.131088	153.940000
241.223877	153.960000
241.316650	153.540000
241.409439	153.940000
241.502228	153.640000
241.595001	153.760000
241.687790	153.660000
241.780579	153.960000
241.873367	154.060000
241.966141	154.680000
242.058929	153.940000
242.151718	154.160000
242.244507	154.720000
242.337311	154.020000
242.430099	154.100000
242.522903	154.500000
242.615692	154.220000
242.708481	154.000000
242.801270	154.860000
242.894073	154.740000
242.986862	154.460000
243.079651	154.940000
243.172455	154.540000
243.265244	154.160000
243.358063	153.320000
243.450867	153.940000
243.543655	153.800000
243.636459	153.840000
243.729263	154.420000
243.822067	155.140000
243.914856	155.240000
244.007660	155.060000
244.100464	155.080000
244.193268	154.300000
244.286072	153.960000
244.378876	153.060000
244.471680	152.600000
244.564499	152.680000
244.657318	153.960000
244.750122	154.140000
244.842926	154.060000
244.935745	154.780000
245.028549	154.560000
245.121368	153.300000
245.214172	153.160000
245.306992	153.480000
245.399796	153.140000
245.492615	153.640000
245.585434	153.880000
245.678253	153.880000
245.771072	153.700000
245.863892	154.060000
245.956711	154.040000
246.049530	153.680000
246.142349	153.540000
246.235168	153.840000
246.327988	154.280000
246.420807	153.700000
246.513626	153.880000
246.606445	154.140000
246.699280	154.160000
246.792099	153.480000
246.884918	153.460000
246.977753	153.380000
247.070587	153.340000
247.163422	153.060000
247.256241	153.080000
247.349075	153.640000
247.441895	153.920000
247.534729	153.560000
247.627563	153.780000
247.720383	154.460000
247.813217	154.140000
247.906052	153.720000
247.998886	154.120000
248.091736	153.840000
248.184570	153.380000
248.277405	153.180000
248.370239	154.440000
248.463074	155.120000
248.555908	155.540000
248.648743	155.160000
248.741592	155.520000
248.834427	154.820000
248.927261	153.920000
249.020111	154.200000
249.112946	154.880000
249.205795	154.360000
249.298630	154.120000
249.391495	153.960000
249.484344	153.180000
249.577179	153.080000
249.670029	153.500000
249.762878	153.920000
249.855728	154.140000
249.948563	154.500000
250.041412	153.940000
250.134262	154.020000
250.227112	153.900000
250.319962	154.000000
250.412827	153.940000
250.505692	153.700000
250.598541	153.800000
250.691391	153.780000
250.784241	153.960000
250.877106	154.220000
250.969955	154.200000
251.062805	154.500000
251.155670	154.960000
251.248520	154.620000
251.341385	154.820000
251.434235	154.720000
251.527100	154.480000
251.619965	153.660000
251.712814	154.240000
251.805695	153.960000
251.898560	154.540000
251.991425	154.520000
252.084290	154.780000
252.177155	153.940000
252.270020	153.660000
252.362885	153.760000
252.455750	153.840000
252.548615	153.460000
252.641479	153.780000
252.734360	153.580000
252.827240	153.180000
252.920105	153.280000
253.012970	153.360000
253.105850	153.220000
253.198715	152.980000
253.291595	153.120000
253.384460	152.580000
253.477341	152.720000
253.570221	153.080000
253.663086	153.140000
253.755966	154.000000
253.848846	154.300000
253.941727	154.340000
254.034592	154.000000
254.127472	153.820000
254.220367	153.340000
254.313248	153.540000
254.406128	153.360000
254.499008	153.900000
254.591904	155.000000
254.684784	155.400000
254.777664	155.160000
254.870544	154.940000
254.963440	154.720000
255.056335	154.600000
255.149216	153.860000
255.242111	154.160000
255.334991	154.620000
255.427887	154.560000
255.520767	154.360000
255.613663	154.760000
255.706558	153.960000
255.799438	153.580000
255.892334	153.360000
255.985229	153.240000
256.078125	152.940000
256.171021	153.400000
256.263916	154.100000
256.356812	154.380000
256.449707	154.760000
256.542603	154.540000
256.635498	155.280000
256.728394	154.720000
256.821289	154.600000
256.914215	154.560000
257.007080	154.640000
257.100006	154.380000
257.192932	155.140000
257.285828	155.360000
257.378723	154.860000
257.471619	154.740000
257.564545	154.080000
257.657440	153.960000
257.750336	154.200000
257.843262	154.080000
257.936157	155.440000
258.029053	155.900000
258.121979	155.560000
258.214874	155.200000
258.307800	155.060000
258.400696	153.900000
258.493622	153.760000
258.586517	153.100000
258.679443	153.320000
258.772339	153.240000
258.865265	153.000000
258.958160	152.520000
259.051086	153.840000
259.144012	153.580000
259.236938	154.400000
259.329834	154.880000
259.422791	154.880000
259.515717	153.700000
259.608612	153.480000
259.701538	153.400000
259.794464	152.940000
259.887390	153.260000
259.980316	153.520000
260.073212	153.440000
260.166138	152.480000
260.259064	153.080000
260.351990	153.480000
260.444916	153.520000
260.537842	153.860000
260.630768	154.740000
260.723694	154.580000
260.816620	154.480000
260.909546	154.460000
261.002472	154.140000
261.095398	153.780000
261.188354	153.560000
261.281281	153.140000
261.374207	153.120000
261.467133	153.840000
261.560089	153.960000
261.653015	153.420000
261.745972	153.960000
261.838867	154.580000
261.931824	154.640000
262.024780	154.300000
262.117706	155.080000
262.210663	155.240000
262.303589	154.800000
262.396515	154.660000
262.489471	155.400000
262.582397	155.160000
262.675354	154.420000
262.768280	154.280000
262.861237	153.840000
262.954163	153.840000
263.047119	154.120000
263.140045	153.920000
263.233002	154.040000
263.325958	153.980000
263.418884	153.100000
263.511841	152.980000
263.604797	153.280000
263.697723	153.280000
263.790680	153.300000
263.883636	153.960000
263.976593	153.680000
264.069550	153.940000
264.162476	153.620000
264.255463	153.960000
264.348419	153.800000
264.441376	154.080000
264.534332	153.220000
264.627289	153.340000
264.720245	153.700000
264.813202	153.220000
264.906158	153.380000
264.999115	154.340000
265.092072	154.400000
265.185028	154.700000
265.277985	155.200000
265.370941	155.060000
265.463898	154.700000
265.556854	154.400000
265.649811	153.320000
265.742798	153.320000
265.835754	153.320000
265.928711	153.740000
266.021667	154.000000
266.114655	154.700000
266.207611	155.080000
266.300568	154.660000
266.393585	154.280000
266.486511	154.580000
266.579498	153.700000
266.672485	153.440000
266.765442	153.340000
266.858429	154.020000
266.951385	153.640000
267.044342	153.980000
267.137329	154.100000
267.230316	154.460000
267.323273	153.700000
267.416260	154.420000
267.509216	154.180000
267.602203	153.980000
267.695160	154.740000
267.788147	154.860000
267.881134	154.300000
267.974091	154.640000
268.067078	154.520000
268.160065	153.680000
268.253052	153.500000
268.346008	153.480000
268.438995	153.140000
268.531982	153.160000
268.624969	153.100000
268.717987	153.560000
268.810944	153.260000
268.903961	153.640000
268.996948	153.460000
269.089905	154.000000
269.182892	154.120000
269.275879	154.880000
269.368866	154.280000
269.461853	154.700000
269.554871	154.580000
269.647858	154.440000
269.740845	154.300000
269.833832	154.900000
269.926819	154.440000
270.019806	154.300000
270.112793	153.620000
270.205811	153.900000
270.298798	153.500000
270.391785	154.220000
270.484772	153.920000
270.577789	154.220000
270.670776	153.560000
270.763763	153.760000
270.856750	153.400000
270.949768	153.100000
271.042786	153.320000
271.135773	153.100000
271.228790	153.400000
271.321808	152.920000
271.414795	152.740000
271.507782	152.340000
271.600800	152.220000
271.693817	152.060000
271.786804	152.920000
271.879822	153.600000
271.972809	153.720000
272.065826	154.600000
272.158844	154.280000
272.251831	154.480000
272.344849	154.360000
272.437866	154.180000
272.530853	153.900000
272.623871	154.180000
272.716888	153.040000
272.809906	153.340000
272.902893	153.360000
272.995911	152.760000
273.088928	152.480000
273.181946	153.000000
273.274963	152.740000
273.367981	152.900000
273.460999	153.620000
273.554047	154.420000
273.647003	155.000000
273.740051	154.740000
273.833069	155.220000
273.926086	155.240000
274.019135	154.480000
274.112152	153.720000
274.205170	153.880000
274.298187	153.940000
274.391205	153.000000
274.484222	153.240000
274.577240	153.440000
274.670258	153.700000
274.763306	153.360000
274.856323	154.420000
274.949341	154.220000
275.042358	154.460000
275.135406	154.040000
275.228424	154.040000
275.321442	153.880000
275.414490	153.880000
275.507507	154.420000
275.600525	154.960000
275.693573	154.680000
275.786591	154.080000
275.879669	154.340000
275.972656	153.740000
276.065735	153.500000
276.158752	154.400000
276.251801	155.420000
276.344818	155.820000
276.437866	155.940000
276.530884	155.680000
276.623932	154.760000
276.716980	154.460000
276.809998	154.200000
276.903046	154.100000
276.996094	154.980000
277.089111	155.560000
277.182159	156.120000
277.275208	155.580000
277.368256	155.820000
277.461304	155.500000
277.554321	154.660000
277.647369	154.260000
277.740417	154.380000
277.833466	153.900000
277.926514	153.560000
278.019562	154.440000
278.112610	153.860000
278.205688	154.120000
278.298706	154.300000
278.391785	153.980000
278.484833	153.540000
278.577881	153.420000
278.670929	153.780000
278.763977	153.760000
278.857025	154.260000
278.950073	154.100000
279.043121	154.100000
279.136169	153.700000
279.229248	153.380000
279.322296	153.340000
279.415344	153.220000
279.508392	153.300000
279.601440	153.360000
279.694519	153.580000
279.787567	153.360000
279.880615	153.360000
279.973694	153.400000
280.066742	153.400000
280.159790	153.460000
280.252869	153.380000
280.345917	153.680000
280.438995	153.980000
280.532074	153.860000
280.625122	154.200000
280.718201	155.160000
280.811279	155.140000
280.904327	154.900000
280.997406	155.280000
281.090454	154.840000
281.183533	153.940000
281.276581	154.040000
281.369659	153.740000
281.462738	153.440000
281.555786	153.820000
281.648865	154.200000
281.741943	153.860000
281.835022	154.520000
281.928070	154.400000
282.021149	153.880000
282.114227	153.580000
282.207306	153.580000
282.300385	153.720000
282.393433	153.760000
282.486511	153.800000
282.579590	154.320000
282.672668	154.920000
282.765747	154.400000
282.858856	154.460000
282.951904	154.920000
283.045013	155.000000
283.138062	154.800000
283.231171	155.040000
283.324249	155.420000
283.417328	155.180000
283.510406	154.660000
283.603485	154.640000
283.696564	154.660000
283.789642	154.600000
283.882751	154.640000
283.975830	155.380000
284.068909	155.040000
284.161987	155.400000
284.255066	154.860000
284.348175	154.940000
284.441254	154.380000
284.534332	154.980000
284.627441	154.480000
284.720520	154.180000
284.813599	154.200000
284.906708	154.280000
284.999786	153.360000
285.092896	153.100000
285.185974	154.600000
285.279053	153.640000
285.372192	153.800000
285.465240	154.980000
285.558380	155.120000
285.651459	154.320000
285.744568	155.700000
285.837677	155.280000
285.930756	154.900000
286.023865	154.980000
286.116943	154.640000
286.210052	154.440000
286.303162	154.420000
286.396240	154.340000
286.489349	154.120000
286.582458	154.760000
286.675568	154.420000
286.768646	154.400000
286.861755	154.620000
286.954865	155.420000
287.047974	154.400000
287.141083	154.520000
287.234161	154.600000
287.327271	154.260000
287.420380	154.360000
287.513519	154.540000
287.606598	154.780000
287.699738	154.860000
287.792816	154.880000
287.885956	154.440000
287.979034	154.520000
288.072174	154.420000
288.165283	154.200000
288.258392	154.400000
288.351501	153.880000
288.444611	154.180000
288.537720	154.300000
288.630859	154.540000
288.723969	154.700000
288.817078	155.400000
288.910187	155.540000
289.003296	154.640000
289.096436	154.320000
289.189545	154.060000
289.282654	153.240000
289.375763	153.580000
289.468903	154.520000
289.562012	154.700000
289.655121	154.780000
289.748260	155.400000
289.841400	155.680000
289.934509	155.460000
290.027649	155.580000
290.120728	155.420000
290.213898	155.280000
290.306976	154.560000
290.400146	154.520000
290.493256	154.220000
290.586395	154.240000
290.679535	154.500000
290.772644	154.520000
290.865784	153.840000
290.958893	153.840000
291.052032	153.780000
291.145172	153.520000
291.238281	152.980000
291.331421	153.020000
291.424561	153.600000
291.517670	153.120000
291.610809	153.240000
291.703949	153.300000
291.797089	153.920000
291.890228	153.240000
291.983337	153.400000
292.076477	153.180000
292.169617	153.860000
292.262756	153.800000
292.355927	153.980000
292.449036	154.060000
292.542206	154.260000
292.635315	154.220000
292.728485	154.520000
292.821625	154.360000
292.914764	155.760000
293.007904	155.860000
293.101044	155.620000
293.194183	155.140000
293.287323	155.320000
293.380463	154.340000
293.473602	153.820000
293.566742	153.960000
293.659882	154.320000
293.753021	154.680000
293.846191	154.300000
293.939331	154.460000
294.032471	154.620000
294.125610	154.380000
294.218781	154.340000
294.311920	154.760000
294.405060	154.940000
294.498230	154.740000
294.591370	154.800000
294.684540	154.020000
294.777679	153.420000
294.870850	153.540000
294.963959	153.360000
295.057159	153.360000
295.150299	154.160000
295.243469	154.320000
295.336609	153.860000
295.429779	154.020000
295.522919	154.080000
295.616089	153.780000
295.709229	154.660000
295.802399	154.900000
295.895569	154.580000
295.988708	154.380000
296.081879	154.640000
296.175018	153.620000
296.268188	153.560000
296.361359	154.220000
296.454529	154.460000
296.547668	154.140000
296.640839	154.600000
296.734009	154.260000
296.827179	154.400000
296.920319	154.520000
297.013519	154.500000
297.106659	154.780000
297.199860	154.840000
297.292999	154.560000
297.386200	154.160000
297.479309	154.080000
297.572510	153.700000
297.665680	153.680000
297.758850	153.600000
297.852020	153.440000
297.945190	153.300000
298.038361	153.140000
298.131531	154.420000
298.224701	154.180000
298.317871	154.020000
298.411072	153.700000
298.504242	153.740000
298.597412	152.800000
298.690582	152.960000
298.783752	153.100000
298.876923	153.900000
298.970093	153.840000
299.063293	154.120000
299.156464	154.680000
299.249634	154.980000
299.342834	155.040000
299.436005	155.700000
299.529205	155.380000
299.622345	154.980000
299.715576	154.480000
299.808716	154.080000
299.901917	153.700000
299.995117	154.220000
300.088287	154.480000
300.181488	154.520000
300.274658	154.400000
300.367828	154.300000
300.461029	154.060000
300.554199	154.020000
300.647400	154.220000
300.740601	154.760000
300.833771	154.880000
300.926971	155.060000
301.020142	154.440000
301.113342	154.440000
301.206512	154.360000
301.299713	154.600000
301.392914	154.580000
301.486084	155.060000
301.579285	155.080000
301.672516	155.460000
301.765686	154.920000
301.858887	154.560000
301.952057	154.500000
302.045288	154.740000
302.138458	154.260000
302.231659	154.420000
302.324860	154.520000
302.418060	154.180000
302.511261	153.800000
302.604462	154.300000
302.697662	154.100000
302.790863	153.880000
302.884064	153.800000
302.977264	153.980000
303.070465	153.960000
303.163666	154.760000
303.256866	155.340000
303.350067	155.380000
303.443268	155.440000
303.536469	155.140000
303.629669	154.460000
303.722870	154.220000
303.816071	154.160000
303.909271	154.140000
304.002472	153.620000
304.095673	153.380000
304.188934	152.820000
304.282104	153.800000
304.375336	153.960000
304.468506	154.100000
304.561768	154.180000
304.654968	154.640000
304.748169	153.580000
304.841370	153.240000
304.934601	153.420000
305.027802	153.220000
305.121002	153.040000
305.214233	153.280000
305.307434	153.580000
305.400665	154.460000
305.493866	154.280000
