Model Number: SPM-002-B   
Serial Number: 70087108
Firmware Version: 004.15.4
Exposure Time: 100000.000000us
Data Taken on: 15-01-2021 16:35:18.166
Wavelength	Amplitude
221.570786	0.000000
221.663406	0.000000
221.756027	0.000000
221.848648	0.000000
221.941269	0.000000
222.033905	0.000000
222.126526	0.000000
222.219162	0.000000
222.311798	0.000000
222.404419	0.000000
222.497055	0.000000
222.589676	0.000000
222.682312	0.000000
222.774933	0.000000
222.867569	0.000000
222.960205	0.000000
223.052841	0.000000
223.145462	0.000000
223.238098	0.000000
223.330734	0.000000
223.423386	0.000000
223.516022	0.000000
223.608658	0.000000
223.701309	0.000000
223.793945	0.000000
223.886581	0.000000
223.979218	0.000000
224.071869	0.000000
224.164505	0.000000
224.257156	0.000000
224.349792	0.000000
224.442444	0.000000
224.535095	0.000000
224.627747	0.000000
224.720398	0.000000
224.813034	0.000000
224.905685	0.000000
224.998337	153.140000
225.090988	152.840000
225.183640	152.960000
225.276291	152.660000
225.368942	153.280000
225.461594	153.960000
225.554245	154.320000
225.646912	154.300000
225.739578	154.840000
225.832230	154.920000
225.924896	153.700000
226.017548	154.040000
226.110199	154.640000
226.202866	153.880000
226.295532	153.840000
226.388184	153.980000
226.480850	153.180000
226.573517	152.600000
226.666168	152.760000
226.758835	152.760000
226.851501	153.440000
226.944183	153.580000
227.036850	152.860000
227.129517	153.140000
227.222183	153.200000
227.314850	152.900000
227.407516	153.240000
227.500198	154.560000
227.592865	154.020000
227.685532	153.480000
227.778214	153.060000
227.870880	153.140000
227.963562	153.520000
228.056229	154.300000
228.148926	154.300000
228.241592	155.340000
228.334274	155.020000
228.426956	154.100000
228.519638	153.860000
228.612305	153.720000
228.704987	153.480000
228.797668	153.480000
228.890350	153.240000
228.983032	152.520000
229.075714	153.280000
229.168396	152.800000
229.261108	152.440000
229.353790	152.820000
229.446472	153.400000
229.539169	152.760000
229.631851	152.280000
229.724533	152.780000
229.817230	152.780000
229.909912	153.620000
230.002609	153.660000
230.095306	153.940000
230.187988	153.980000
230.280685	153.920000
230.373383	152.600000
230.466095	152.720000
230.558792	153.060000
230.651474	152.800000
230.744171	152.460000
230.836868	152.680000
230.929581	153.160000
231.022278	153.320000
231.114975	153.480000
231.207672	153.600000
231.300369	154.200000
231.393082	154.300000
231.485779	153.840000
231.578506	153.680000
231.671204	154.020000
231.763916	153.940000
231.856613	153.620000
231.949326	153.880000
232.042023	154.020000
232.134735	154.120000
232.227448	153.640000
232.320160	153.980000
232.412872	154.140000
232.505585	154.880000
232.598297	154.940000
232.691010	155.060000
232.783722	154.240000
232.876450	154.740000
232.969162	154.040000
233.061874	153.460000
233.154587	153.140000
233.247314	153.800000
233.340027	152.960000
233.432739	153.460000
233.525467	153.440000
233.618179	153.820000
233.710907	153.220000
233.803635	153.480000
233.896347	152.920000
233.989090	153.580000
234.081818	153.460000
234.174545	154.020000
234.267258	153.680000
234.359985	153.960000
234.452713	153.640000
234.545441	153.400000
234.638168	153.000000
234.730896	153.620000
234.823639	153.440000
234.916367	153.720000
235.009094	154.280000
235.101822	154.280000
235.194580	153.980000
235.287308	154.260000
235.380051	153.980000
235.472778	153.860000
235.565521	154.300000
235.658249	153.960000
235.750992	153.640000
235.843719	153.700000
235.936462	153.940000
236.029205	153.340000
236.121948	153.000000
236.214691	153.880000
236.307449	154.540000
236.400192	154.180000
236.492935	154.240000
236.585678	154.920000
236.678421	154.180000
236.771164	153.380000
236.863907	153.720000
236.956665	153.920000
237.049408	155.380000
237.142151	155.160000
237.234909	156.400000
237.327652	156.160000
237.420410	155.980000
237.513153	154.700000
237.605927	154.680000
237.698669	153.560000
237.791428	153.220000
237.884186	153.860000
237.976944	153.400000
238.069702	153.700000
238.162445	153.560000
238.255203	153.760000
238.347961	154.160000
238.440720	154.440000
238.533478	154.480000
238.626266	154.400000
238.719025	154.780000
238.811783	154.080000
238.904541	154.140000
238.997314	153.860000
239.090073	153.520000
239.182831	153.500000
239.275604	154.200000
239.368362	153.800000
239.461136	154.080000
239.553909	154.400000
239.646667	154.220000
239.739441	153.720000
239.832214	153.940000
239.925003	153.840000
240.017761	154.520000
240.110535	154.980000
240.203308	154.720000
240.296082	154.800000
240.388855	154.740000
240.481628	154.660000
240.574417	154.620000
240.667191	154.720000
240.759964	154.080000
240.852737	154.060000
240.945526	153.380000
241.038315	152.900000
241.131088	152.880000
241.223877	153.340000
241.316650	152.680000
241.409439	153.360000
241.502228	153.240000
241.595001	153.600000
241.687790	153.640000
241.780579	154.120000
241.873367	153.900000
241.966141	154.120000
242.058929	153.280000
242.151718	153.560000
242.244507	153.720000
242.337311	153.180000
242.430099	153.580000
242.522903	154.320000
242.615692	153.700000
242.708481	153.840000
242.801270	154.360000
242.894073	154.140000
242.986862	154.060000
243.079651	154.980000
243.172455	154.480000
243.265244	154.540000
243.358063	153.780000
243.450867	153.840000
243.543655	153.760000
243.636459	153.960000
243.729263	154.180000
243.822067	154.880000
243.914856	155.060000
244.007660	154.720000
244.100464	154.720000
244.193268	154.080000
244.286072	153.660000
244.378876	153.340000
244.471680	153.220000
244.564499	153.640000
244.657318	154.580000
244.750122	154.840000
244.842926	154.220000
244.935745	154.860000
245.028549	154.480000
245.121368	153.880000
245.214172	153.780000
245.306992	154.200000
245.399796	153.340000
245.492615	153.640000
245.585434	153.420000
245.678253	153.620000
245.771072	153.240000
245.863892	154.100000
245.956711	153.980000
246.049530	153.800000
246.142349	153.420000
246.235168	154.000000
246.327988	153.820000
246.420807	153.760000
246.513626	154.040000
246.606445	154.080000
246.699280	154.100000
246.792099	154.060000
246.884918	153.740000
246.977753	153.260000
247.070587	153.640000
247.163422	153.120000
247.256241	152.780000
247.349075	153.360000
247.441895	153.780000
247.534729	153.640000
247.627563	154.040000
247.720383	154.960000
247.813217	154.520000
247.906052	154.220000
247.998886	154.140000
248.091736	154.000000
248.184570	153.180000
248.277405	153.080000
248.370239	154.260000
248.463074	155.180000
248.555908	155.160000
248.648743	155.180000
248.741592	155.780000
248.834427	154.740000
248.927261	153.520000
249.020111	154.000000
249.112946	154.420000
249.205795	153.800000
249.298630	154.080000
249.391495	154.120000
249.484344	153.660000
249.577179	153.620000
249.670029	153.880000
249.762878	154.060000
249.855728	154.320000
249.948563	154.480000
250.041412	153.680000
250.134262	153.900000
250.227112	154.000000
250.319962	153.880000
250.412827	153.880000
250.505692	153.780000
250.598541	153.620000
250.691391	153.400000
250.784241	153.580000
250.877106	153.820000
250.969955	154.020000
251.062805	154.400000
251.155670	154.820000
251.248520	154.580000
251.341385	154.800000
251.434235	154.700000
251.527100	154.280000
251.619965	153.760000
251.712814	154.580000
251.805695	154.300000
251.898560	154.560000
251.991425	155.020000
252.084290	155.380000
252.177155	154.120000
252.270020	153.820000
252.362885	153.740000
252.455750	153.500000
252.548615	153.000000
252.641479	153.720000
252.734360	153.480000
252.827240	153.460000
252.920105	153.600000
253.012970	153.820000
253.105850	153.580000
253.198715	153.460000
253.291595	153.620000
253.384460	152.880000
253.477341	152.440000
253.570221	152.640000
253.663086	152.640000
253.755966	153.340000
253.848846	153.780000
253.941727	154.140000
254.034592	154.040000
254.127472	153.760000
254.220367	153.440000
254.313248	153.640000
254.406128	153.460000
254.499008	153.780000
254.591904	154.900000
254.684784	155.080000
254.777664	154.700000
254.870544	154.640000
254.963440	154.480000
255.056335	154.280000
255.149216	153.820000
255.242111	154.680000
255.334991	154.840000
255.427887	154.820000
255.520767	154.800000
255.613663	154.960000
255.706558	154.200000
255.799438	153.740000
255.892334	153.580000
255.985229	153.320000
256.078125	153.440000
256.171021	153.500000
256.263916	154.300000
256.356812	154.460000
256.449707	154.780000
256.542603	154.480000
256.635498	154.900000
256.728394	154.600000
256.821289	154.280000
256.914215	154.120000
257.007080	154.080000
257.100006	154.160000
257.192932	154.720000
257.285828	155.100000
257.378723	154.820000
257.471619	154.900000
257.564545	154.140000
257.657440	153.980000
257.750336	154.340000
257.843262	154.360000
257.936157	155.480000
258.029053	155.900000
258.121979	155.800000
258.214874	155.320000
258.307800	155.080000
258.400696	153.700000
258.493622	153.780000
258.586517	152.900000
258.679443	153.340000
258.772339	153.220000
258.865265	153.560000
258.958160	152.980000
259.051086	153.940000
259.144012	153.360000
259.236938	154.400000
259.329834	154.420000
259.422791	154.620000
259.515717	153.960000
259.608612	153.960000
259.701538	153.740000
259.794464	153.600000
259.887390	153.460000
259.980316	153.500000
260.073212	153.580000
260.166138	152.360000
260.259064	152.880000
260.351990	153.480000
260.444916	153.420000
260.537842	153.660000
260.630768	154.820000
260.723694	154.400000
260.816620	154.400000
260.909546	154.560000
261.002472	154.440000
261.095398	153.760000
261.188354	153.560000
261.281281	152.980000
261.374207	153.200000
261.467133	153.700000
261.560089	154.100000
261.653015	153.920000
261.745972	154.780000
261.838867	155.180000
261.931824	155.200000
262.024780	154.900000
262.117706	155.440000
262.210663	155.340000
262.303589	154.880000
262.396515	154.760000
262.489471	155.700000
262.582397	155.340000
262.675354	154.760000
262.768280	155.000000
262.861237	154.720000
262.954163	154.200000
263.047119	154.500000
263.140045	154.340000
263.233002	154.220000
263.325958	154.220000
263.418884	153.840000
263.511841	153.860000
263.604797	154.040000
263.697723	153.660000
263.790680	153.520000
263.883636	154.220000
263.976593	153.860000
264.069550	153.980000
264.162476	153.880000
264.255463	153.920000
264.348419	153.560000
264.441376	153.660000
264.534332	153.100000
264.627289	153.640000
264.720245	154.180000
264.813202	153.720000
264.906158	153.960000
264.999115	154.660000
265.092072	154.400000
265.185028	154.440000
265.277985	154.780000
265.370941	154.480000
265.463898	153.900000
265.556854	153.680000
265.649811	152.620000
265.742798	152.460000
265.835754	152.780000
265.928711	153.700000
266.021667	153.840000
266.114655	154.220000
266.207611	154.840000
266.300568	154.280000
266.393585	153.480000
266.486511	153.760000
266.579498	153.240000
266.672485	152.800000
266.765442	152.480000
266.858429	153.080000
266.951385	152.560000
267.044342	153.140000
267.137329	153.040000
267.230316	153.660000
267.323273	153.100000
267.416260	153.820000
267.509216	153.660000
267.602203	153.760000
267.695160	154.220000
267.788147	154.400000
267.881134	153.640000
267.974091	153.760000
268.067078	153.540000
268.160065	153.280000
268.253052	153.140000
268.346008	153.460000
268.438995	153.160000
268.531982	153.320000
268.624969	152.820000
268.717987	153.280000
268.810944	153.260000
268.903961	153.560000
268.996948	153.360000
269.089905	154.220000
269.182892	154.220000
269.275879	154.560000
269.368866	153.960000
269.461853	154.220000
269.554871	153.460000
269.647858	153.100000
269.740845	153.400000
269.833832	154.220000
269.926819	153.820000
270.019806	154.060000
270.112793	153.820000
270.205811	153.720000
270.298798	153.380000
270.391785	154.020000
270.484772	153.760000
270.577789	154.040000
270.670776	153.220000
270.763763	152.920000
270.856750	152.720000
270.949768	152.980000
271.042786	153.040000
271.135773	153.260000
271.228790	153.880000
271.321808	153.580000
271.414795	153.180000
271.507782	152.680000
271.600800	152.440000
271.693817	152.340000
271.786804	152.780000
271.879822	153.100000
271.972809	153.240000
272.065826	153.860000
272.158844	153.420000
272.251831	154.100000
272.344849	154.060000
272.437866	154.140000
272.530853	154.140000
272.623871	154.660000
272.716888	152.980000
272.809906	153.120000
272.902893	153.120000
272.995911	152.140000
273.088928	152.020000
273.181946	152.860000
273.274963	152.620000
273.367981	152.440000
273.460999	153.200000
273.554047	153.480000
273.647003	154.080000
273.740051	154.240000
273.833069	154.840000
273.926086	155.200000
274.019135	154.920000
274.112152	154.400000
274.205170	154.280000
274.298187	154.420000
274.391205	153.940000
274.484222	153.960000
274.577240	153.940000
274.670258	153.900000
274.763306	153.580000
274.856323	154.040000
274.949341	154.340000
275.042358	154.480000
275.135406	154.380000
275.228424	154.520000
275.321442	154.120000
275.414490	153.620000
275.507507	154.100000
275.600525	154.640000
275.693573	154.280000
275.786591	153.920000
275.879669	153.880000
275.972656	153.360000
276.065735	152.940000
276.158752	153.400000
276.251801	154.380000
276.344818	154.680000
276.437866	154.760000
276.530884	154.540000
276.623932	153.880000
276.716980	153.660000
276.809998	153.660000
276.903046	153.380000
276.996094	154.560000
277.089111	155.080000
277.182159	155.520000
277.275208	155.180000
277.368256	155.520000
277.461304	155.000000
277.554321	154.280000
277.647369	153.800000
277.740417	153.860000
277.833466	153.380000
277.926514	153.020000
278.019562	154.020000
278.112610	153.540000
278.205688	153.640000
278.298706	154.080000
278.391785	153.960000
278.484833	153.320000
278.577881	153.180000
278.670929	153.500000
278.763977	153.420000
278.857025	154.080000
278.950073	154.240000
279.043121	154.460000
279.136169	154.160000
279.229248	153.960000
279.322296	153.820000
279.415344	153.640000
279.508392	153.580000
279.601440	153.520000
279.694519	153.500000
279.787567	153.320000
279.880615	153.180000
279.973694	153.040000
280.066742	153.080000
280.159790	153.120000
280.252869	152.540000
280.345917	153.120000
280.438995	153.220000
280.532074	153.360000
280.625122	153.720000
280.718201	154.800000
280.811279	154.340000
280.904327	154.060000
280.997406	154.200000
281.090454	154.240000
281.183533	153.480000
281.276581	153.780000
281.369659	153.640000
281.462738	153.560000
281.555786	153.360000
281.648865	153.820000
281.741943	153.740000
281.835022	154.620000
281.928070	154.280000
282.021149	154.160000
282.114227	153.900000
282.207306	153.760000
282.300385	154.060000
282.393433	154.480000
282.486511	154.400000
282.579590	154.840000
282.672668	155.320000
282.765747	154.660000
282.858856	154.720000
282.951904	154.900000
283.045013	154.780000
283.138062	154.800000
283.231171	154.960000
283.324249	154.900000
283.417328	154.900000
283.510406	154.520000
283.603485	154.260000
283.696564	154.140000
283.789642	154.020000
283.882751	153.680000
283.975830	154.020000
284.068909	153.540000
284.161987	154.280000
284.255066	153.620000
284.348175	153.680000
284.441254	153.640000
284.534332	154.420000
284.627441	153.800000
284.720520	153.720000
284.813599	153.980000
284.906708	153.780000
284.999786	153.060000
285.092896	152.820000
285.185974	154.400000
285.279053	153.820000
285.372192	153.760000
285.465240	154.580000
285.558380	154.560000
285.651459	153.900000
285.744568	154.980000
285.837677	155.040000
285.930756	154.800000
286.023865	154.860000
286.116943	154.280000
286.210052	153.980000
286.303162	153.880000
286.396240	153.680000
286.489349	153.400000
286.582458	153.980000
286.675568	153.720000
286.768646	153.740000
286.861755	153.980000
286.954865	154.860000
287.047974	154.240000
287.141083	154.100000
287.234161	154.060000
287.327271	153.760000
287.420380	153.720000
287.513519	153.520000
287.606598	153.660000
287.699738	153.880000
287.792816	153.880000
287.885956	153.840000
287.979034	154.180000
288.072174	154.400000
288.165283	154.300000
288.258392	154.340000
288.351501	153.720000
288.444611	154.080000
288.537720	154.460000
288.630859	154.300000
288.723969	154.460000
288.817078	155.080000
288.910187	154.780000
289.003296	153.820000
289.096436	153.460000
289.189545	153.320000
289.282654	152.480000
289.375763	153.120000
289.468903	153.900000
289.562012	154.340000
289.655121	154.180000
289.748260	154.800000
289.841400	154.800000
289.934509	154.280000
290.027649	154.560000
290.120728	154.860000
290.213898	154.540000
290.306976	153.780000
290.400146	154.140000
290.493256	153.420000
290.586395	153.540000
290.679535	153.880000
290.772644	154.100000
290.865784	153.340000
290.958893	153.580000
291.052032	153.100000
291.145172	153.060000
291.238281	152.740000
291.331421	153.180000
291.424561	153.700000
291.517670	153.440000
291.610809	153.400000
291.703949	153.360000
291.797089	153.520000
291.890228	153.140000
291.983337	153.500000
292.076477	153.360000
292.169617	153.880000
292.262756	153.820000
292.355927	153.580000
292.449036	153.320000
292.542206	153.440000
292.635315	153.460000
292.728485	153.800000
292.821625	153.660000
292.914764	155.060000
293.007904	155.140000
293.101044	155.220000
293.194183	155.040000
293.287323	155.380000
293.380463	154.360000
293.473602	154.000000
293.566742	154.040000
293.659882	154.140000
293.753021	154.280000
293.846191	154.280000
293.939331	154.020000
294.032471	153.740000
294.125610	153.400000
294.218781	153.820000
294.311920	154.140000
294.405060	154.500000
294.498230	154.220000
294.591370	154.140000
294.684540	153.120000
294.777679	152.340000
294.870850	152.780000
294.963959	152.720000
295.057159	152.800000
295.150299	153.440000
295.243469	153.540000
295.336609	152.920000
295.429779	153.380000
295.522919	153.640000
295.616089	153.380000
295.709229	154.280000
295.802399	154.620000
295.895569	154.160000
295.988708	153.900000
296.081879	154.300000
296.175018	153.420000
296.268188	153.180000
296.361359	153.600000
296.454529	153.740000
296.547668	153.440000
296.640839	153.940000
296.734009	153.680000
296.827179	153.720000
296.920319	153.940000
297.013519	153.660000
297.106659	153.880000
297.199860	154.080000
297.292999	154.100000
297.386200	153.680000
297.479309	153.480000
297.572510	153.100000
297.665680	152.800000
297.758850	152.840000
297.852020	152.980000
297.945190	153.300000
298.038361	153.060000
298.131531	154.220000
298.224701	153.920000
298.317871	153.680000
298.411072	153.080000
298.504242	153.100000
298.597412	152.420000
298.690582	152.780000
298.783752	152.600000
298.876923	153.540000
298.970093	153.700000
299.063293	154.000000
299.156464	154.140000
299.249634	154.980000
299.342834	154.680000
299.436005	155.100000
299.529205	154.660000
299.622345	154.580000
299.715576	153.680000
299.808716	153.700000
299.901917	153.300000
299.995117	153.680000
300.088287	153.580000
300.181488	153.640000
300.274658	153.360000
300.367828	153.340000
300.461029	153.400000
300.554199	153.820000
300.647400	154.020000
300.740601	154.580000
300.833771	154.460000
300.926971	154.500000
301.020142	153.720000
301.113342	153.680000
301.206512	153.420000
301.299713	153.940000
301.392914	153.820000
301.486084	154.180000
301.579285	153.900000
301.672516	154.400000
301.765686	153.920000
301.858887	153.580000
301.952057	153.600000
302.045288	153.940000
302.138458	153.420000
302.231659	153.180000
302.324860	153.360000
302.418060	153.080000
302.511261	152.700000
302.604462	153.100000
302.697662	153.060000
302.790863	152.700000
302.884064	152.340000
302.977264	152.980000
303.070465	152.980000
303.163666	153.800000
303.256866	154.360000
303.350067	154.680000
303.443268	154.300000
303.536469	154.480000
303.629669	153.880000
303.722870	153.980000
303.816071	153.920000
303.909271	154.140000
304.002472	153.140000
304.095673	152.940000
304.188934	152.380000
304.282104	153.640000
304.375336	153.680000
304.468506	154.060000
304.561768	154.140000
304.654968	154.620000
304.748169	153.520000
304.841370	153.120000
304.934601	153.560000
305.027802	153.080000
305.121002	152.560000
305.214233	152.700000
305.307434	153.100000
305.400665	153.500000
305.493866	153.880000
