Model Number: SPM-002-B   
Serial Number: 70087108
Firmware Version: 004.15.4
Exposure Time: 100000.000000us
Data Taken on: 15-01-2021 16:35:23.559
Wavelength	Amplitude
221.570786	0.000000
221.663406	0.000000
221.756027	0.000000
221.848648	0.000000
221.941269	0.000000
222.033905	0.000000
222.126526	0.000000
222.219162	0.000000
222.311798	0.000000
222.404419	0.000000
222.497055	0.000000
222.589676	0.000000
222.682312	0.000000
222.774933	0.000000
222.867569	0.000000
222.960205	0.000000
223.052841	0.000000
223.145462	0.000000
223.238098	0.000000
223.330734	0.000000
223.423386	0.000000
223.516022	0.000000
223.608658	0.000000
223.701309	0.000000
223.793945	0.000000
223.886581	0.000000
223.979218	0.000000
224.071869	0.000000
224.164505	0.000000
224.257156	0.000000
224.349792	0.000000
224.442444	0.000000
224.535095	0.000000
224.627747	0.000000
224.720398	0.000000
224.813034	0.000000
224.905685	0.000000
224.998337	152.160000
225.090988	151.720000
225.183640	151.960000
225.276291	151.920000
225.368942	152.480000
225.461594	152.880000
225.554245	153.460000
225.646912	153.140000
225.739578	153.560000
225.832230	153.840000
225.924896	153.280000
226.017548	153.280000
226.110199	154.000000
226.202866	153.680000
226.295532	153.680000
226.388184	153.540000
226.480850	153.140000
226.573517	152.760000
226.666168	153.020000
226.758835	152.900000
226.851501	153.520000
226.944183	153.820000
227.036850	153.400000
227.129517	153.180000
227.222183	153.280000
227.314850	153.220000
227.407516	153.360000
227.500198	154.260000
227.592865	154.000000
227.685532	153.620000
227.778214	153.420000
227.870880	153.820000
227.963562	153.940000
228.056229	154.500000
228.148926	154.400000
228.241592	155.160000
228.334274	154.300000
228.426956	153.580000
228.519638	153.560000
228.612305	153.400000
228.704987	152.960000
228.797668	153.140000
228.890350	153.200000
228.983032	152.560000
229.075714	153.220000
229.168396	152.900000
229.261108	152.660000
229.353790	153.040000
229.446472	153.660000
229.539169	153.320000
229.631851	153.120000
229.724533	153.280000
229.817230	153.320000
229.909912	154.300000
230.002609	154.320000
230.095306	154.380000
230.187988	154.660000
230.280685	154.140000
230.373383	152.780000
230.466095	152.540000
230.558792	152.800000
230.651474	152.660000
230.744171	152.660000
230.836868	152.520000
230.929581	153.040000
231.022278	153.260000
231.114975	153.120000
231.207672	153.040000
231.300369	153.420000
231.393082	153.440000
231.485779	152.960000
231.578506	153.120000
231.671204	153.420000
231.763916	153.240000
231.856613	153.040000
231.949326	153.260000
232.042023	152.980000
232.134735	153.140000
232.227448	153.240000
232.320160	153.480000
232.412872	153.400000
232.505585	154.360000
232.598297	154.460000
232.691010	154.240000
232.783722	153.780000
232.876450	154.240000
232.969162	153.500000
233.061874	152.800000
233.154587	152.680000
233.247314	152.920000
233.340027	152.280000
233.432739	152.580000
233.525467	152.660000
233.618179	153.180000
233.710907	152.880000
233.803635	153.280000
233.896347	152.780000
233.989090	153.660000
234.081818	153.340000
234.174545	153.780000
234.267258	153.740000
234.359985	154.180000
234.452713	153.680000
234.545441	153.420000
234.638168	153.340000
234.730896	153.640000
234.823639	153.560000
234.916367	153.920000
235.009094	154.220000
235.101822	154.120000
235.194580	153.860000
235.287308	153.820000
235.380051	152.920000
235.472778	153.120000
235.565521	153.420000
235.658249	153.040000
235.750992	153.020000
235.843719	153.580000
235.936462	153.740000
236.029205	153.360000
236.121948	153.180000
236.214691	153.560000
236.307449	154.120000
236.400192	153.560000
236.492935	153.580000
236.585678	153.600000
236.678421	153.400000
236.771164	152.980000
236.863907	153.800000
236.956665	153.800000
237.049408	155.620000
237.142151	155.080000
237.234909	155.920000
237.327652	155.320000
237.420410	155.060000
237.513153	154.160000
237.605927	154.300000
237.698669	152.980000
237.791428	152.520000
237.884186	153.100000
237.976944	152.280000
238.069702	152.520000
238.162445	152.260000
238.255203	152.660000
238.347961	152.800000
238.440720	153.020000
238.533478	152.920000
238.626266	153.160000
238.719025	153.180000
238.811783	152.700000
238.904541	152.420000
238.997314	152.180000
239.090073	151.940000
239.182831	152.540000
239.275604	153.240000
239.368362	153.180000
239.461136	153.500000
239.553909	153.640000
239.646667	152.980000
239.739441	152.440000
239.832214	152.920000
239.925003	153.040000
240.017761	153.700000
240.110535	154.300000
240.203308	153.920000
240.296082	153.960000
240.388855	153.780000
240.481628	153.720000
240.574417	153.660000
240.667191	154.140000
240.759964	153.580000
240.852737	153.560000
240.945526	153.100000
241.038315	152.900000
241.131088	152.920000
241.223877	153.340000
241.316650	152.980000
241.409439	153.400000
241.502228	153.000000
241.595001	153.280000
241.687790	153.120000
241.780579	153.340000
241.873367	153.700000
241.966141	153.880000
242.058929	153.340000
242.151718	153.800000
242.244507	154.140000
242.337311	153.080000
242.430099	153.660000
242.522903	154.020000
242.615692	153.400000
242.708481	153.380000
242.801270	154.040000
242.894073	153.820000
242.986862	153.520000
243.079651	154.360000
243.172455	153.960000
243.265244	154.200000
243.358063	153.620000
243.450867	153.640000
243.543655	153.400000
243.636459	153.740000
243.729263	153.860000
243.822067	154.360000
243.914856	154.660000
244.007660	154.480000
244.100464	154.200000
244.193268	153.560000
244.286072	153.200000
244.378876	152.740000
244.471680	152.740000
244.564499	153.300000
244.657318	154.200000
244.750122	154.620000
244.842926	154.400000
244.935745	154.780000
245.028549	154.460000
245.121368	153.880000
245.214172	153.840000
245.306992	154.580000
245.399796	154.100000
245.492615	154.480000
245.585434	154.200000
245.678253	154.060000
245.771072	153.660000
245.863892	153.920000
245.956711	153.800000
246.049530	153.640000
246.142349	153.720000
246.235168	153.900000
246.327988	154.280000
246.420807	154.060000
246.513626	154.280000
246.606445	153.920000
246.699280	153.900000
246.792099	153.660000
246.884918	153.140000
246.977753	152.900000
247.070587	153.080000
247.163422	153.240000
247.256241	153.280000
247.349075	154.000000
247.441895	154.360000
247.534729	154.140000
247.627563	153.580000
247.720383	153.840000
247.813217	153.500000
247.906052	153.400000
247.998886	153.620000
248.091736	153.720000
248.184570	153.160000
248.277405	153.300000
248.370239	154.360000
248.463074	155.240000
248.555908	155.760000
248.648743	156.040000
248.741592	156.200000
248.834427	154.960000
248.927261	153.740000
249.020111	154.080000
249.112946	154.240000
249.205795	153.720000
249.298630	154.240000
249.391495	154.660000
249.484344	153.740000
249.577179	153.500000
249.670029	153.820000
249.762878	153.940000
249.855728	153.880000
249.948563	154.300000
250.041412	153.760000
250.134262	153.980000
250.227112	154.260000
250.319962	154.400000
250.412827	154.580000
250.505692	154.400000
250.598541	154.400000
250.691391	153.640000
250.784241	153.700000
250.877106	153.520000
250.969955	153.500000
251.062805	153.740000
251.155670	154.560000
251.248520	154.000000
251.341385	154.120000
251.434235	154.160000
251.527100	153.640000
251.619965	153.000000
251.712814	153.860000
251.805695	153.740000
251.898560	154.280000
251.991425	154.320000
252.084290	154.380000
252.177155	153.620000
252.270020	153.380000
252.362885	153.120000
252.455750	153.280000
252.548615	153.000000
252.641479	153.260000
252.734360	153.180000
252.827240	153.000000
252.920105	153.120000
253.012970	153.080000
253.105850	153.000000
253.198715	153.020000
253.291595	153.160000
253.384460	152.660000
253.477341	152.620000
253.570221	153.000000
253.663086	152.600000
253.755966	153.560000
253.848846	153.820000
253.941727	154.320000
254.034592	153.780000
254.127472	153.740000
254.220367	153.660000
254.313248	153.800000
254.406128	153.080000
254.499008	153.800000
254.591904	155.020000
254.684784	154.880000
254.777664	154.600000
254.870544	154.600000
254.963440	153.960000
255.056335	153.340000
255.149216	153.100000
255.242111	153.780000
255.334991	154.140000
255.427887	154.360000
255.520767	154.500000
255.613663	154.240000
255.706558	153.460000
255.799438	153.320000
255.892334	153.140000
255.985229	152.820000
256.078125	152.920000
256.171021	152.980000
256.263916	153.580000
256.356812	153.860000
256.449707	154.220000
256.542603	153.940000
256.635498	154.740000
256.728394	154.240000
256.821289	153.680000
256.914215	153.680000
257.007080	153.740000
257.100006	153.360000
257.192932	153.700000
257.285828	154.080000
257.378723	153.460000
257.471619	153.580000
257.564545	152.880000
257.657440	153.040000
257.750336	153.500000
257.843262	153.700000
257.936157	154.680000
258.029053	155.380000
258.121979	155.220000
258.214874	154.840000
258.307800	154.820000
258.400696	153.480000
258.493622	153.080000
258.586517	152.340000
258.679443	152.780000
258.772339	152.360000
258.865265	152.560000
258.958160	152.260000
259.051086	153.240000
259.144012	152.900000
259.236938	153.900000
259.329834	154.060000
259.422791	154.180000
259.515717	153.460000
259.608612	153.080000
259.701538	152.680000
259.794464	152.540000
259.887390	152.520000
259.980316	152.740000
260.073212	152.640000
260.166138	151.920000
260.259064	152.360000
260.351990	152.980000
260.444916	152.700000
260.537842	153.260000
260.630768	154.120000
260.723694	154.100000
260.816620	153.920000
260.909546	154.180000
261.002472	153.600000
261.095398	153.000000
261.188354	152.680000
261.281281	152.420000
261.374207	152.240000
261.467133	152.960000
261.560089	153.440000
261.653015	153.340000
261.745972	154.160000
261.838867	154.880000
261.931824	155.260000
262.024780	154.880000
262.117706	155.060000
262.210663	154.680000
262.303589	154.240000
262.396515	153.820000
262.489471	155.080000
262.582397	154.840000
262.675354	154.380000
262.768280	154.280000
262.861237	154.320000
262.954163	153.800000
263.047119	153.980000
263.140045	153.440000
263.233002	153.380000
263.325958	153.500000
263.418884	152.680000
263.511841	152.460000
263.604797	153.060000
263.697723	153.160000
263.790680	152.620000
263.883636	153.360000
263.976593	153.500000
264.069550	153.540000
264.162476	153.140000
264.255463	153.340000
264.348419	152.940000
264.441376	153.020000
264.534332	152.480000
264.627289	152.980000
264.720245	153.440000
264.813202	153.240000
264.906158	153.540000
264.999115	154.500000
265.092072	154.060000
265.185028	154.340000
265.277985	154.660000
265.370941	154.560000
265.463898	154.340000
265.556854	154.240000
265.649811	153.300000
265.742798	153.340000
265.835754	153.380000
265.928711	154.020000
266.021667	154.440000
266.114655	154.700000
266.207611	154.940000
266.300568	154.220000
266.393585	153.540000
266.486511	153.660000
266.579498	152.980000
266.672485	152.520000
266.765442	152.680000
266.858429	152.980000
266.951385	152.660000
267.044342	152.960000
267.137329	153.120000
267.230316	153.600000
267.323273	152.860000
267.416260	153.660000
267.509216	153.760000
267.602203	153.840000
267.695160	154.040000
267.788147	154.680000
267.881134	153.580000
267.974091	153.800000
268.067078	153.400000
268.160065	153.000000
268.253052	152.500000
268.346008	152.960000
268.438995	152.520000
268.531982	152.940000
268.624969	152.920000
268.717987	153.180000
268.810944	153.020000
268.903961	153.240000
268.996948	152.880000
269.089905	153.380000
269.182892	153.580000
269.275879	154.080000
269.368866	153.720000
269.461853	154.080000
269.554871	153.740000
269.647858	153.500000
269.740845	153.520000
269.833832	154.080000
269.926819	153.660000
270.019806	153.720000
270.112793	153.720000
270.205811	153.920000
270.298798	153.820000
270.391785	154.400000
270.484772	154.060000
270.577789	153.960000
270.670776	153.220000
270.763763	152.860000
270.856750	152.800000
270.949768	152.780000
271.042786	152.860000
271.135773	153.360000
271.228790	154.020000
271.321808	153.460000
271.414795	153.320000
271.507782	153.040000
271.600800	152.540000
271.693817	152.560000
271.786804	153.480000
271.879822	153.960000
271.972809	154.080000
272.065826	154.760000
272.158844	154.280000
272.251831	154.380000
272.344849	154.220000
272.437866	153.720000
272.530853	153.400000
272.623871	153.500000
272.716888	152.260000
272.809906	152.380000
272.902893	152.580000
272.995911	151.940000
273.088928	151.660000
273.181946	152.140000
273.274963	151.860000
273.367981	152.100000
273.460999	152.880000
273.554047	153.740000
273.647003	154.580000
273.740051	154.740000
273.833069	155.340000
273.926086	155.100000
274.019135	154.680000
274.112152	154.000000
274.205170	154.000000
274.298187	154.160000
274.391205	153.780000
274.484222	153.760000
274.577240	153.760000
274.670258	153.580000
274.763306	153.060000
274.856323	153.400000
274.949341	153.160000
275.042358	153.400000
275.135406	153.480000
275.228424	153.500000
275.321442	153.540000
275.414490	153.680000
275.507507	154.120000
275.600525	154.420000
275.693573	154.220000
275.786591	154.100000
275.879669	154.060000
275.972656	153.300000
276.065735	152.960000
276.158752	153.440000
276.251801	154.040000
276.344818	154.380000
276.437866	154.440000
276.530884	154.260000
276.623932	153.660000
276.716980	153.720000
276.809998	153.440000
276.903046	153.480000
276.996094	154.560000
277.089111	154.840000
277.182159	155.140000
277.275208	155.140000
277.368256	155.340000
277.461304	154.900000
277.554321	154.480000
277.647369	154.080000
277.740417	154.100000
277.833466	153.800000
277.926514	153.500000
278.019562	154.200000
278.112610	153.400000
278.205688	153.620000
278.298706	153.680000
278.391785	153.540000
278.484833	153.100000
278.577881	153.160000
278.670929	153.320000
278.763977	153.360000
278.857025	153.780000
278.950073	153.900000
279.043121	154.060000
279.136169	153.740000
279.229248	153.640000
279.322296	153.740000
279.415344	153.300000
279.508392	153.020000
279.601440	152.860000
279.694519	152.940000
279.787567	152.700000
279.880615	152.700000
279.973694	152.820000
280.066742	152.760000
280.159790	153.020000
280.252869	152.680000
280.345917	153.260000
280.438995	153.480000
280.532074	153.660000
280.625122	153.920000
280.718201	154.900000
280.811279	154.700000
280.904327	154.520000
280.997406	154.720000
281.090454	154.260000
281.183533	153.180000
281.276581	153.340000
281.369659	153.160000
281.462738	153.280000
281.555786	153.520000
281.648865	154.020000
281.741943	153.760000
281.835022	154.520000
281.928070	154.080000
282.021149	153.700000
282.114227	153.540000
282.207306	153.280000
282.300385	153.420000
282.393433	153.720000
282.486511	153.820000
282.579590	154.140000
282.672668	154.620000
282.765747	153.960000
282.858856	153.440000
282.951904	153.540000
283.045013	153.520000
283.138062	153.960000
283.231171	154.340000
283.324249	154.840000
283.417328	155.160000
283.510406	154.460000
283.603485	153.920000
283.696564	153.500000
283.789642	153.280000
283.882751	152.600000
283.975830	153.480000
284.068909	153.100000
284.161987	153.920000
284.255066	153.560000
284.348175	154.080000
284.441254	153.720000
284.534332	154.520000
284.627441	153.880000
284.720520	153.760000
284.813599	153.560000
284.906708	153.680000
284.999786	152.820000
285.092896	152.680000
285.185974	154.000000
285.279053	153.600000
285.372192	153.420000
285.465240	154.200000
285.558380	154.300000
285.651459	153.900000
285.744568	154.720000
285.837677	154.760000
285.930756	154.780000
286.023865	154.660000
286.116943	154.140000
286.210052	154.180000
286.303162	154.100000
286.396240	153.760000
286.489349	153.560000
286.582458	154.220000
286.675568	153.740000
286.768646	153.580000
286.861755	153.860000
286.954865	154.840000
287.047974	154.060000
287.141083	153.960000
287.234161	153.980000
287.327271	153.900000
287.420380	154.160000
287.513519	153.980000
287.606598	154.160000
287.699738	154.480000
287.792816	154.280000
287.885956	153.840000
287.979034	154.020000
288.072174	154.000000
288.165283	153.760000
288.258392	153.860000
288.351501	153.200000
288.444611	153.600000
288.537720	154.000000
288.630859	154.040000
288.723969	154.520000
288.817078	155.060000
288.910187	154.820000
289.003296	154.180000
289.096436	153.860000
289.189545	153.320000
289.282654	153.000000
289.375763	153.520000
289.468903	153.740000
289.562012	154.040000
289.655121	153.940000
289.748260	154.040000
289.841400	153.880000
289.934509	153.820000
290.027649	153.960000
290.120728	153.960000
290.213898	154.160000
290.306976	153.620000
290.400146	154.160000
290.493256	153.780000
290.586395	154.200000
290.679535	154.100000
290.772644	154.260000
290.865784	153.060000
290.958893	153.300000
291.052032	152.740000
291.145172	152.880000
291.238281	152.600000
291.331421	153.000000
291.424561	153.380000
291.517670	153.500000
291.610809	153.580000
291.703949	153.740000
291.797089	154.240000
291.890228	153.640000
291.983337	153.560000
292.076477	153.300000
292.169617	153.620000
292.262756	153.320000
292.355927	153.480000
292.449036	153.180000
292.542206	153.180000
292.635315	153.040000
292.728485	153.300000
292.821625	153.020000
292.914764	154.360000
293.007904	154.320000
293.101044	154.660000
293.194183	154.120000
293.287323	154.520000
293.380463	153.720000
293.473602	153.440000
293.566742	153.360000
293.659882	154.120000
293.753021	154.340000
293.846191	154.120000
293.939331	154.140000
294.032471	153.960000
294.125610	153.440000
294.218781	153.780000
294.311920	154.260000
294.405060	154.740000
294.498230	154.720000
294.591370	154.920000
294.684540	153.960000
294.777679	153.460000
294.870850	153.460000
294.963959	153.380000
295.057159	152.960000
295.150299	153.420000
295.243469	153.560000
295.336609	152.940000
295.429779	152.880000
295.522919	153.820000
295.616089	153.480000
295.709229	154.200000
295.802399	154.500000
295.895569	154.400000
295.988708	153.700000
296.081879	154.140000
296.175018	153.140000
296.268188	153.340000
296.361359	153.820000
296.454529	154.040000
296.547668	153.800000
296.640839	154.460000
296.734009	154.100000
296.827179	154.060000
296.920319	154.300000
297.013519	154.120000
297.106659	154.000000
297.199860	154.000000
297.292999	153.620000
297.386200	153.160000
297.479309	152.640000
297.572510	152.520000
297.665680	152.260000
297.758850	152.500000
297.852020	152.420000
297.945190	153.000000
298.038361	152.560000
298.131531	153.940000
298.224701	153.720000
298.317871	153.620000
298.411072	153.140000
298.504242	153.020000
298.597412	151.860000
298.690582	152.200000
298.783752	152.480000
298.876923	153.180000
298.970093	153.500000
299.063293	154.180000
299.156464	154.180000
299.249634	154.420000
299.342834	154.580000
299.436005	155.240000
299.529205	154.900000
299.622345	154.900000
299.715576	154.320000
299.808716	153.940000
299.901917	153.520000
299.995117	153.620000
300.088287	153.940000
300.181488	153.940000
300.274658	153.660000
300.367828	153.480000
300.461029	153.300000
300.554199	153.360000
300.647400	153.580000
300.740601	154.220000
300.833771	154.280000
300.926971	154.580000
301.020142	154.000000
301.113342	153.680000
301.206512	153.320000
301.299713	153.380000
301.392914	153.120000
301.486084	153.440000
301.579285	153.420000
301.672516	153.940000
301.765686	153.740000
301.858887	153.700000
301.952057	153.360000
302.045288	153.540000
302.138458	153.200000
302.231659	153.140000
302.324860	153.020000
302.418060	152.800000
302.511261	152.740000
302.604462	153.000000
302.697662	152.820000
302.790863	152.520000
302.884064	152.360000
302.977264	152.440000
303.070465	152.540000
303.163666	153.460000
303.256866	154.300000
303.350067	154.780000
303.443268	155.060000
303.536469	155.180000
303.629669	154.720000
303.722870	154.320000
303.816071	153.820000
303.909271	153.780000
304.002472	152.840000
304.095673	152.700000
304.188934	152.500000
304.282104	153.760000
304.375336	153.640000
304.468506	154.100000
304.561768	153.760000
304.654968	154.240000
304.748169	153.560000
304.841370	153.440000
304.934601	153.800000
305.027802	153.640000
305.121002	153.060000
305.214233	152.820000
305.307434	152.960000
305.400665	153.220000
305.493866	153.400000
