Model Number: SPM-002-B   
Serial Number: 70087108
Firmware Version: 004.15.4
Exposure Time: 100000.000000us
Data Taken on: 15-01-2021 16:35:33.790
Wavelength	Amplitude
221.570786	0.000000
221.663406	0.000000
221.756027	0.000000
221.848648	0.000000
221.941269	0.000000
222.033905	0.000000
222.126526	0.000000
222.219162	0.000000
222.311798	0.000000
222.404419	0.000000
222.497055	0.000000
222.589676	0.000000
222.682312	0.000000
222.774933	0.000000
222.867569	0.000000
222.960205	0.000000
223.052841	0.000000
223.145462	0.000000
223.238098	0.000000
223.330734	0.000000
223.423386	0.000000
223.516022	0.000000
223.608658	0.000000
223.701309	0.000000
223.793945	0.000000
223.886581	0.000000
223.979218	0.000000
224.071869	0.000000
224.164505	0.000000
224.257156	0.000000
224.349792	0.000000
224.442444	0.000000
224.535095	0.000000
224.627747	0.000000
224.720398	0.000000
224.813034	0.000000
224.905685	0.000000
224.998337	153.640000
225.090988	153.000000
225.183640	152.820000
225.276291	152.860000
225.368942	153.180000
225.461594	153.640000
225.554245	153.940000
225.646912	154.080000
225.739578	154.700000
225.832230	155.320000
225.924896	154.440000
226.017548	155.040000
226.110199	155.520000
226.202866	154.760000
226.295532	154.600000
226.388184	154.560000
226.480850	153.860000
226.573517	153.160000
226.666168	153.480000
226.758835	153.620000
226.851501	154.440000
226.944183	154.700000
227.036850	154.820000
227.129517	154.920000
227.222183	154.860000
227.314850	154.760000
227.407516	155.020000
227.500198	155.780000
227.592865	155.440000
227.685532	154.920000
227.778214	154.440000
227.870880	154.620000
227.963562	154.440000
228.056229	154.920000
228.148926	155.160000
228.241592	155.840000
228.334274	155.200000
228.426956	155.040000
228.519638	155.020000
228.612305	154.600000
228.704987	154.280000
228.797668	154.380000
228.890350	154.260000
228.983032	153.600000
229.075714	154.640000
229.168396	154.520000
229.261108	154.320000
229.353790	154.300000
229.446472	154.700000
229.539169	153.960000
229.631851	153.480000
229.724533	153.720000
229.817230	153.800000
229.909912	154.380000
230.002609	154.500000
230.095306	154.520000
230.187988	154.760000
230.280685	154.540000
230.373383	153.560000
230.466095	153.380000
230.558792	153.980000
230.651474	153.360000
230.744171	153.280000
230.836868	153.400000
230.929581	153.820000
231.022278	153.520000
231.114975	153.940000
231.207672	153.860000
231.300369	154.220000
231.393082	154.360000
231.485779	154.300000
231.578506	154.060000
231.671204	154.320000
231.763916	154.100000
231.856613	153.560000
231.949326	153.900000
232.042023	153.920000
232.134735	154.060000
232.227448	153.880000
232.320160	154.420000
232.412872	154.180000
232.505585	154.880000
232.598297	154.980000
232.691010	154.860000
232.783722	154.200000
232.876450	154.700000
232.969162	153.980000
233.061874	153.420000
233.154587	153.440000
233.247314	153.720000
233.340027	153.060000
233.432739	153.720000
233.525467	153.460000
233.618179	153.740000
233.710907	153.500000
233.803635	153.940000
233.896347	153.340000
233.989090	154.400000
234.081818	154.480000
234.174545	155.020000
234.267258	154.660000
234.359985	155.020000
234.452713	154.820000
234.545441	154.600000
234.638168	154.320000
234.730896	154.740000
234.823639	154.640000
234.916367	154.560000
235.009094	154.900000
235.101822	154.640000
235.194580	154.580000
235.287308	154.680000
235.380051	154.180000
235.472778	154.180000
235.565521	154.580000
235.658249	154.060000
235.750992	153.860000
235.843719	154.140000
235.936462	154.420000
236.029205	154.320000
236.121948	154.220000
236.214691	154.940000
236.307449	155.440000
236.400192	154.480000
236.492935	154.120000
236.585678	154.480000
236.678421	153.620000
236.771164	153.220000
236.863907	154.260000
236.956665	154.560000
237.049408	156.100000
237.142151	155.860000
237.234909	156.520000
237.327652	156.340000
237.420410	155.940000
237.513153	154.760000
237.605927	154.780000
237.698669	153.880000
237.791428	153.100000
237.884186	154.000000
237.976944	153.420000
238.069702	154.020000
238.162445	153.760000
238.255203	154.020000
238.347961	154.100000
238.440720	154.020000
238.533478	153.600000
238.626266	153.600000
238.719025	153.560000
238.811783	152.620000
238.904541	153.160000
238.997314	153.080000
239.090073	152.960000
239.182831	153.580000
239.275604	154.780000
239.368362	154.180000
239.461136	154.520000
239.553909	154.500000
239.646667	154.000000
239.739441	153.260000
239.832214	153.920000
239.925003	154.000000
240.017761	155.020000
240.110535	155.560000
240.203308	155.420000
240.296082	155.240000
240.388855	155.200000
240.481628	154.760000
240.574417	154.960000
240.667191	154.740000
240.759964	154.460000
240.852737	154.460000
240.945526	154.400000
241.038315	153.760000
241.131088	154.260000
241.223877	154.520000
241.316650	153.960000
241.409439	154.100000
241.502228	153.780000
241.595001	154.260000
241.687790	154.040000
241.780579	154.340000
241.873367	154.340000
241.966141	155.140000
242.058929	154.440000
242.151718	154.500000
242.244507	154.980000
242.337311	154.320000
242.430099	154.460000
242.522903	154.780000
242.615692	154.320000
242.708481	153.940000
242.801270	154.820000
242.894073	154.580000
242.986862	154.560000
243.079651	155.440000
243.172455	155.240000
243.265244	154.880000
243.358063	154.300000
243.450867	154.640000
243.543655	154.520000
243.636459	154.620000
243.729263	154.800000
243.822067	155.280000
243.914856	155.240000
244.007660	155.060000
244.100464	154.960000
244.193268	154.520000
244.286072	154.400000
244.378876	153.680000
244.471680	153.320000
244.564499	153.940000
244.657318	155.020000
244.750122	155.300000
244.842926	155.100000
244.935745	155.700000
245.028549	155.040000
245.121368	154.420000
245.214172	154.220000
245.306992	154.720000
245.399796	154.480000
245.492615	154.660000
245.585434	154.580000
245.678253	154.460000
245.771072	154.320000
245.863892	154.720000
245.956711	155.120000
246.049530	154.780000
246.142349	154.380000
246.235168	154.260000
246.327988	154.420000
246.420807	153.960000
246.513626	154.120000
246.606445	154.160000
246.699280	154.160000
246.792099	153.700000
246.884918	153.720000
246.977753	153.500000
247.070587	153.820000
247.163422	153.820000
247.256241	153.920000
247.349075	154.280000
247.441895	154.620000
247.534729	154.620000
247.627563	154.540000
247.720383	154.920000
247.813217	154.460000
247.906052	154.140000
247.998886	154.280000
248.091736	154.440000
248.184570	153.980000
248.277405	154.220000
248.370239	155.260000
248.463074	155.940000
248.555908	155.800000
248.648743	155.760000
248.741592	155.680000
248.834427	154.720000
248.927261	153.540000
249.020111	154.320000
249.112946	154.800000
249.205795	154.480000
249.298630	154.580000
249.391495	154.720000
249.484344	153.940000
249.577179	154.020000
249.670029	154.440000
249.762878	155.260000
249.855728	155.760000
249.948563	156.240000
250.041412	155.340000
250.134262	155.480000
250.227112	155.140000
250.319962	154.700000
250.412827	154.500000
250.505692	154.200000
250.598541	154.120000
250.691391	153.740000
250.784241	153.900000
250.877106	153.760000
250.969955	154.120000
251.062805	154.580000
251.155670	155.220000
251.248520	155.020000
251.341385	155.380000
251.434235	155.020000
251.527100	154.620000
251.619965	154.000000
251.712814	155.120000
251.805695	154.800000
251.898560	155.360000
251.991425	155.320000
252.084290	155.480000
252.177155	154.440000
252.270020	154.580000
252.362885	154.400000
252.455750	154.480000
252.548615	154.420000
252.641479	154.420000
252.734360	154.260000
252.827240	154.040000
252.920105	154.160000
253.012970	153.820000
253.105850	153.680000
253.198715	153.440000
253.291595	153.660000
253.384460	153.120000
253.477341	153.160000
253.570221	153.440000
253.663086	153.340000
253.755966	154.160000
253.848846	154.280000
253.941727	154.560000
254.034592	154.340000
254.127472	154.080000
254.220367	153.840000
254.313248	154.420000
254.406128	154.060000
254.499008	154.620000
254.591904	155.620000
254.684784	156.080000
254.777664	155.680000
254.870544	155.340000
254.963440	154.740000
255.056335	154.620000
255.149216	153.900000
255.242111	154.300000
255.334991	155.020000
255.427887	155.240000
255.520767	155.300000
255.613663	155.540000
255.706558	154.800000
255.799438	154.220000
255.892334	154.040000
255.985229	153.600000
256.078125	153.500000
256.171021	153.600000
256.263916	154.600000
256.356812	154.880000
256.449707	155.160000
256.542603	154.720000
256.635498	155.440000
256.728394	154.840000
256.821289	154.680000
256.914215	154.960000
257.007080	155.240000
257.100006	155.120000
257.192932	155.380000
257.285828	155.780000
257.378723	155.300000
257.471619	155.320000
257.564545	154.580000
257.657440	154.980000
257.750336	155.180000
257.843262	155.040000
257.936157	156.220000
258.029053	156.720000
258.121979	156.380000
258.214874	155.560000
258.307800	155.580000
258.400696	154.160000
258.493622	153.960000
258.586517	153.220000
258.679443	153.920000
258.772339	153.560000
258.865265	153.680000
258.958160	153.400000
259.051086	154.620000
259.144012	154.320000
259.236938	155.200000
259.329834	155.460000
259.422791	155.420000
259.515717	154.680000
259.608612	154.420000
259.701538	154.260000
259.794464	153.820000
259.887390	154.060000
259.980316	153.840000
260.073212	153.660000
260.166138	152.780000
260.259064	153.320000
260.351990	154.120000
260.444916	154.200000
260.537842	154.700000
260.630768	155.680000
260.723694	155.420000
260.816620	154.720000
260.909546	154.740000
261.002472	154.280000
261.095398	153.840000
261.188354	153.800000
261.281281	153.500000
261.374207	153.420000
261.467133	153.980000
261.560089	154.360000
261.653015	154.040000
261.745972	154.940000
261.838867	155.300000
261.931824	155.340000
262.024780	154.760000
262.117706	155.240000
262.210663	154.780000
262.303589	154.680000
262.396515	154.440000
262.489471	155.280000
262.582397	155.080000
262.675354	154.680000
262.768280	154.560000
262.861237	154.720000
262.954163	154.140000
263.047119	154.280000
263.140045	154.280000
263.233002	154.440000
263.325958	154.460000
263.418884	153.980000
263.511841	153.540000
263.604797	153.640000
263.697723	153.560000
263.790680	153.320000
263.883636	153.960000
263.976593	154.080000
264.069550	154.560000
264.162476	154.220000
264.255463	154.700000
264.348419	154.440000
264.441376	154.940000
264.534332	154.020000
264.627289	154.420000
264.720245	154.260000
264.813202	153.780000
264.906158	153.620000
264.999115	154.400000
265.092072	154.220000
265.185028	154.640000
265.277985	155.320000
265.370941	155.260000
265.463898	155.020000
265.556854	154.820000
265.649811	153.940000
265.742798	153.820000
265.835754	153.780000
265.928711	154.400000
266.021667	154.440000
266.114655	154.640000
266.207611	154.840000
266.300568	154.360000
266.393585	153.380000
266.486511	153.800000
266.579498	153.280000
266.672485	153.060000
266.765442	153.120000
266.858429	153.800000
266.951385	153.280000
267.044342	153.660000
267.137329	153.520000
267.230316	153.980000
267.323273	153.560000
267.416260	154.340000
267.509216	154.280000
267.602203	154.580000
267.695160	154.820000
267.788147	154.680000
267.881134	154.080000
267.974091	154.440000
268.067078	153.800000
268.160065	153.440000
268.253052	153.900000
268.346008	154.020000
268.438995	153.760000
268.531982	154.540000
268.624969	154.240000
268.717987	154.140000
268.810944	153.940000
268.903961	154.060000
268.996948	153.520000
269.089905	154.160000
269.182892	154.340000
269.275879	154.840000
269.368866	154.140000
269.461853	154.340000
269.554871	154.380000
269.647858	154.260000
269.740845	154.300000
269.833832	155.200000
269.926819	154.840000
270.019806	154.560000
270.112793	154.240000
270.205811	154.280000
270.298798	153.880000
270.391785	154.740000
270.484772	154.460000
270.577789	154.680000
270.670776	154.060000
270.763763	154.080000
270.856750	153.520000
270.949768	153.240000
271.042786	153.140000
271.135773	153.400000
271.228790	153.780000
271.321808	153.680000
271.414795	153.780000
271.507782	153.560000
271.600800	153.300000
271.693817	153.100000
271.786804	153.500000
271.879822	153.840000
271.972809	153.820000
272.065826	154.380000
272.158844	153.980000
272.251831	154.460000
272.344849	154.620000
272.437866	154.620000
272.530853	154.300000
272.623871	154.780000
272.716888	153.500000
272.809906	153.560000
272.902893	153.560000
272.995911	153.260000
273.088928	152.840000
273.181946	153.440000
273.274963	153.100000
273.367981	152.840000
273.460999	153.220000
273.554047	153.640000
273.647003	154.280000
273.740051	154.400000
273.833069	155.220000
273.926086	155.260000
274.019135	155.000000
274.112152	154.400000
274.205170	154.580000
274.298187	154.820000
274.391205	154.280000
274.484222	154.300000
274.577240	154.180000
274.670258	153.920000
274.763306	153.420000
274.856323	154.200000
274.949341	154.340000
275.042358	154.880000
275.135406	154.840000
275.228424	154.620000
275.321442	154.380000
275.414490	154.120000
275.507507	154.240000
275.600525	154.760000
275.693573	154.800000
275.786591	154.260000
275.879669	154.400000
275.972656	153.980000
276.065735	153.700000
276.158752	154.220000
276.251801	155.180000
276.344818	155.540000
276.437866	155.620000
276.530884	155.320000
276.623932	154.660000
276.716980	154.460000
276.809998	154.400000
276.903046	154.540000
276.996094	155.400000
277.089111	156.020000
277.182159	156.440000
277.275208	155.960000
277.368256	155.960000
277.461304	155.380000
277.554321	154.620000
277.647369	154.360000
277.740417	154.660000
277.833466	154.360000
277.926514	154.040000
278.019562	154.760000
278.112610	153.940000
278.205688	153.960000
278.298706	154.140000
278.391785	154.300000
278.484833	153.780000
278.577881	154.020000
278.670929	154.420000
278.763977	154.700000
278.857025	155.000000
278.950073	155.220000
279.043121	155.260000
279.136169	154.880000
279.229248	154.340000
279.322296	154.260000
279.415344	154.000000
279.508392	153.740000
279.601440	153.840000
279.694519	153.980000
279.787567	153.920000
279.880615	154.040000
279.973694	154.480000
280.066742	154.380000
280.159790	154.340000
280.252869	153.860000
280.345917	154.100000
280.438995	153.760000
280.532074	153.720000
280.625122	153.980000
280.718201	155.260000
280.811279	154.960000
280.904327	154.940000
280.997406	155.040000
281.090454	154.960000
281.183533	154.160000
281.276581	154.440000
281.369659	154.320000
281.462738	154.300000
281.555786	154.400000
281.648865	154.520000
281.741943	154.060000
281.835022	154.780000
281.928070	154.520000
282.021149	154.280000
282.114227	153.920000
282.207306	153.820000
282.300385	153.760000
282.393433	154.420000
282.486511	154.580000
282.579590	155.020000
282.672668	155.660000
282.765747	155.120000
282.858856	154.360000
282.951904	154.280000
283.045013	154.460000
283.138062	154.440000
283.231171	154.920000
283.324249	155.440000
283.417328	155.780000
283.510406	154.940000
283.603485	154.860000
283.696564	154.340000
283.789642	154.420000
283.882751	154.020000
283.975830	155.060000
284.068909	154.780000
284.161987	155.740000
284.255066	154.900000
284.348175	154.900000
284.441254	154.380000
284.534332	154.980000
284.627441	154.080000
284.720520	154.240000
284.813599	154.520000
284.906708	154.620000
284.999786	153.880000
285.092896	153.820000
285.185974	154.940000
285.279053	154.360000
285.372192	154.260000
285.465240	155.120000
285.558380	155.320000
285.651459	154.720000
285.744568	155.620000
285.837677	155.300000
285.930756	155.060000
286.023865	154.960000
286.116943	154.460000
286.210052	154.360000
286.303162	154.480000
286.396240	154.400000
286.489349	154.360000
286.582458	154.840000
286.675568	154.480000
286.768646	154.680000
286.861755	155.100000
286.954865	155.800000
287.047974	155.200000
287.141083	154.900000
287.234161	154.780000
287.327271	154.180000
287.420380	154.380000
287.513519	154.720000
287.606598	154.820000
287.699738	154.960000
287.792816	155.000000
287.885956	154.460000
287.979034	154.300000
288.072174	154.500000
288.165283	154.100000
288.258392	154.060000
288.351501	153.480000
288.444611	153.880000
288.537720	154.220000
288.630859	154.220000
288.723969	154.360000
288.817078	155.060000
288.910187	154.900000
289.003296	154.100000
289.096436	154.220000
289.189545	154.000000
289.282654	153.460000
289.375763	153.820000
289.468903	154.520000
289.562012	154.540000
289.655121	154.760000
289.748260	155.260000
289.841400	155.220000
289.934509	154.900000
290.027649	155.400000
290.120728	155.200000
290.213898	154.980000
290.306976	154.680000
290.400146	154.820000
290.493256	153.940000
290.586395	154.000000
290.679535	153.960000
290.772644	154.100000
290.865784	152.900000
290.958893	153.360000
291.052032	153.240000
291.145172	153.580000
291.238281	152.960000
291.331421	153.940000
291.424561	154.160000
291.517670	153.740000
291.610809	153.820000
291.703949	153.820000
291.797089	153.740000
291.890228	153.220000
291.983337	153.600000
292.076477	153.260000
292.169617	153.760000
292.262756	153.480000
292.355927	153.920000
292.449036	154.000000
292.542206	153.980000
292.635315	153.920000
292.728485	154.520000
292.821625	154.320000
292.914764	155.340000
293.007904	155.680000
293.101044	155.440000
293.194183	155.120000
293.287323	155.260000
293.380463	154.300000
293.473602	153.660000
293.566742	154.320000
293.659882	154.680000
293.753021	154.840000
293.846191	154.700000
293.939331	154.820000
294.032471	154.280000
294.125610	154.040000
294.218781	154.000000
294.311920	154.700000
294.405060	154.840000
294.498230	155.060000
294.591370	154.960000
294.684540	154.340000
294.777679	153.360000
294.870850	153.540000
294.963959	153.380000
295.057159	153.700000
295.150299	154.140000
295.243469	154.480000
295.336609	153.880000
295.429779	153.800000
295.522919	153.880000
295.616089	153.940000
295.709229	154.540000
295.802399	155.020000
295.895569	154.880000
295.988708	154.780000
296.081879	154.980000
296.175018	154.140000
296.268188	154.080000
296.361359	154.580000
296.454529	154.400000
296.547668	154.020000
296.640839	154.720000
296.734009	154.580000
296.827179	154.600000
296.920319	154.840000
297.013519	154.860000
297.106659	154.720000
297.199860	154.820000
297.292999	154.900000
297.386200	154.660000
297.479309	154.640000
297.572510	154.340000
297.665680	153.800000
297.758850	153.240000
297.852020	153.060000
297.945190	152.820000
298.038361	152.500000
298.131531	153.840000
298.224701	153.900000
298.317871	153.760000
298.411072	153.240000
298.504242	153.500000
298.597412	152.480000
298.690582	153.000000
298.783752	153.060000
298.876923	153.980000
298.970093	154.080000
299.063293	154.920000
299.156464	155.020000
299.249634	155.680000
299.342834	155.540000
299.436005	155.740000
299.529205	155.280000
299.622345	155.000000
299.715576	154.120000
299.808716	153.700000
299.901917	153.600000
299.995117	153.720000
300.088287	154.000000
300.181488	154.080000
300.274658	154.300000
300.367828	154.360000
300.461029	154.260000
300.554199	154.440000
300.647400	154.480000
300.740601	155.080000
300.833771	154.860000
300.926971	155.340000
301.020142	154.300000
301.113342	154.180000
301.206512	153.940000
301.299713	154.260000
301.392914	153.860000
301.486084	154.780000
301.579285	155.060000
301.672516	155.460000
301.765686	155.260000
301.858887	155.400000
301.952057	155.200000
302.045288	155.280000
302.138458	154.860000
302.231659	154.780000
302.324860	154.220000
302.418060	153.760000
302.511261	153.860000
302.604462	154.000000
302.697662	153.600000
302.790863	153.800000
302.884064	153.800000
302.977264	153.740000
303.070465	153.840000
303.163666	154.860000
303.256866	155.220000
303.350067	155.160000
303.443268	155.000000
303.536469	155.040000
303.629669	154.380000
303.722870	154.240000
303.816071	154.220000
303.909271	154.520000
304.002472	153.780000
304.095673	153.460000
304.188934	152.740000
304.282104	153.700000
304.375336	153.380000
304.468506	153.720000
304.561768	153.880000
304.654968	154.600000
304.748169	154.020000
304.841370	153.860000
304.934601	154.220000
305.027802	154.020000
305.121002	153.820000
305.214233	153.580000
305.307434	153.880000
305.400665	154.460000
305.493866	154.480000
