Model Number: SPM-002-B   
Serial Number: 70087108
Firmware Version: 004.15.4
Exposure Time: 100000.000000us
Data Taken on: 15-01-2021 16:35:38.975
Wavelength	Amplitude
221.570786	0.000000
221.663406	0.000000
221.756027	0.000000
221.848648	0.000000
221.941269	0.000000
222.033905	0.000000
222.126526	0.000000
222.219162	0.000000
222.311798	0.000000
222.404419	0.000000
222.497055	0.000000
222.589676	0.000000
222.682312	0.000000
222.774933	0.000000
222.867569	0.000000
222.960205	0.000000
223.052841	0.000000
223.145462	0.000000
223.238098	0.000000
223.330734	0.000000
223.423386	0.000000
223.516022	0.000000
223.608658	0.000000
223.701309	0.000000
223.793945	0.000000
223.886581	0.000000
223.979218	0.000000
224.071869	0.000000
224.164505	0.000000
224.257156	0.000000
224.349792	0.000000
224.442444	0.000000
224.535095	0.000000
224.627747	0.000000
224.720398	0.000000
224.813034	0.000000
224.905685	0.000000
224.998337	152.940000
225.090988	152.680000
225.183640	152.640000
225.276291	152.540000
225.368942	153.160000
225.461594	153.620000
225.554245	153.920000
225.646912	154.120000
225.739578	154.580000
225.832230	155.120000
225.924896	154.120000
226.017548	154.420000
226.110199	154.900000
226.202866	154.140000
226.295532	153.540000
226.388184	153.540000
226.480850	152.820000
226.573517	152.160000
226.666168	152.500000
226.758835	152.760000
226.851501	153.320000
226.944183	153.600000
227.036850	153.340000
227.129517	153.460000
227.222183	153.440000
227.314850	153.320000
227.407516	153.760000
227.500198	154.760000
227.592865	154.120000
227.685532	153.600000
227.778214	153.580000
227.870880	153.700000
227.963562	153.760000
228.056229	154.540000
228.148926	154.920000
228.241592	155.300000
228.334274	154.860000
228.426956	154.460000
228.519638	154.300000
228.612305	153.660000
228.704987	153.820000
228.797668	154.080000
228.890350	153.740000
228.983032	153.220000
229.075714	154.320000
229.168396	153.960000
229.261108	153.380000
229.353790	153.640000
229.446472	154.100000
229.539169	153.520000
229.631851	153.320000
229.724533	153.820000
229.817230	154.140000
229.909912	154.980000
230.002609	154.860000
230.095306	154.820000
230.187988	154.960000
230.280685	154.680000
230.373383	153.540000
230.466095	153.680000
230.558792	154.020000
230.651474	153.760000
230.744171	153.880000
230.836868	153.800000
230.929581	153.840000
231.022278	153.660000
231.114975	153.820000
231.207672	153.620000
231.300369	154.140000
231.393082	154.140000
231.485779	153.900000
231.578506	153.380000
231.671204	153.420000
231.763916	153.220000
231.856613	153.000000
231.949326	153.100000
232.042023	153.080000
232.134735	153.100000
232.227448	152.880000
232.320160	153.460000
232.412872	153.820000
232.505585	154.820000
232.598297	154.940000
232.691010	154.660000
232.783722	153.900000
232.876450	154.420000
232.969162	153.740000
233.061874	153.120000
233.154587	153.140000
233.247314	153.600000
233.340027	152.740000
233.432739	153.140000
233.525467	153.420000
233.618179	154.020000
233.710907	153.740000
233.803635	154.260000
233.896347	153.820000
233.989090	154.620000
234.081818	154.620000
234.174545	154.820000
234.267258	154.280000
234.359985	154.500000
234.452713	153.900000
234.545441	153.520000
234.638168	153.200000
234.730896	153.580000
234.823639	153.420000
234.916367	153.780000
235.009094	154.060000
235.101822	154.500000
235.194580	154.360000
235.287308	154.600000
235.380051	154.020000
235.472778	154.180000
235.565521	154.420000
235.658249	154.200000
235.750992	154.140000
235.843719	154.000000
235.936462	153.920000
236.029205	153.420000
236.121948	152.780000
236.214691	153.100000
236.307449	154.080000
236.400192	153.440000
236.492935	153.060000
236.585678	153.980000
236.678421	153.660000
236.771164	152.960000
236.863907	153.820000
236.956665	154.300000
237.049408	155.740000
237.142151	155.360000
237.234909	156.220000
237.327652	156.220000
237.420410	155.940000
237.513153	154.620000
237.605927	154.660000
237.698669	153.820000
237.791428	152.860000
237.884186	153.520000
237.976944	153.160000
238.069702	153.560000
238.162445	153.220000
238.255203	153.720000
238.347961	153.620000
238.440720	153.540000
238.533478	153.280000
238.626266	153.200000
238.719025	153.200000
238.811783	152.900000
238.904541	153.160000
238.997314	153.060000
239.090073	152.980000
239.182831	153.280000
239.275604	154.120000
239.368362	153.820000
239.461136	153.920000
239.553909	154.200000
239.646667	153.540000
239.739441	153.020000
239.832214	153.340000
239.925003	153.320000
240.017761	154.040000
240.110535	154.940000
240.203308	154.520000
240.296082	154.440000
240.388855	154.480000
240.481628	154.200000
240.574417	153.820000
240.667191	153.920000
240.759964	153.700000
240.852737	153.700000
240.945526	153.440000
241.038315	153.300000
241.131088	153.340000
241.223877	153.640000
241.316650	153.360000
241.409439	153.620000
241.502228	153.240000
241.595001	153.880000
241.687790	153.660000
241.780579	153.940000
241.873367	154.000000
241.966141	154.300000
242.058929	153.500000
242.151718	153.700000
242.244507	153.940000
242.337311	153.000000
242.430099	153.640000
242.522903	153.860000
242.615692	153.480000
242.708481	153.660000
242.801270	154.300000
242.894073	153.940000
242.986862	154.040000
243.079651	154.600000
243.172455	154.180000
243.265244	154.360000
243.358063	153.980000
243.450867	154.460000
243.543655	154.300000
243.636459	154.220000
243.729263	154.480000
243.822067	154.840000
243.914856	155.000000
244.007660	155.020000
244.100464	155.060000
244.193268	154.460000
244.286072	154.340000
244.378876	153.580000
244.471680	153.380000
244.564499	153.480000
244.657318	154.260000
244.750122	154.440000
244.842926	153.780000
244.935745	153.920000
245.028549	153.600000
245.121368	152.880000
245.214172	152.800000
245.306992	153.820000
245.399796	153.420000
245.492615	153.580000
245.585434	153.360000
245.678253	153.480000
245.771072	153.200000
245.863892	154.040000
245.956711	154.340000
246.049530	154.320000
246.142349	153.740000
246.235168	153.640000
246.327988	153.840000
246.420807	153.440000
246.513626	153.760000
246.606445	153.820000
246.699280	153.980000
246.792099	153.200000
246.884918	153.040000
246.977753	152.900000
247.070587	153.300000
247.163422	152.880000
247.256241	153.180000
247.349075	153.760000
247.441895	153.820000
247.534729	153.720000
247.627563	153.680000
247.720383	154.300000
247.813217	153.840000
247.906052	153.800000
247.998886	153.760000
248.091736	153.900000
248.184570	153.120000
248.277405	153.200000
248.370239	153.920000
248.463074	155.120000
248.555908	155.620000
248.648743	155.580000
248.741592	156.120000
248.834427	155.660000
248.927261	153.960000
249.020111	154.200000
249.112946	154.860000
249.205795	154.120000
249.298630	154.060000
249.391495	154.660000
249.484344	154.120000
249.577179	153.860000
249.670029	154.360000
249.762878	154.980000
249.855728	154.960000
249.948563	155.280000
250.041412	154.600000
250.134262	154.740000
250.227112	154.540000
250.319962	154.320000
250.412827	154.160000
250.505692	154.080000
250.598541	154.200000
250.691391	153.580000
250.784241	153.660000
250.877106	153.920000
250.969955	154.020000
251.062805	154.020000
251.155670	154.720000
251.248520	154.440000
251.341385	154.200000
251.434235	153.980000
251.527100	153.560000
251.619965	152.720000
251.712814	153.800000
251.805695	153.740000
251.898560	154.260000
251.991425	154.700000
252.084290	155.020000
252.177155	154.220000
252.270020	154.160000
252.362885	154.000000
252.455750	153.840000
252.548615	153.880000
252.641479	153.900000
252.734360	153.500000
252.827240	153.460000
252.920105	153.440000
253.012970	153.260000
253.105850	153.020000
253.198715	153.300000
253.291595	153.660000
253.384460	152.980000
253.477341	153.020000
253.570221	153.760000
253.663086	153.520000
253.755966	154.000000
253.848846	154.520000
253.941727	154.760000
254.034592	154.300000
254.127472	153.940000
254.220367	153.700000
254.313248	153.580000
254.406128	153.040000
254.499008	153.620000
254.591904	154.700000
254.684784	155.040000
254.777664	155.100000
254.870544	155.300000
254.963440	154.700000
255.056335	154.520000
255.149216	153.720000
255.242111	154.460000
255.334991	154.560000
255.427887	154.540000
255.520767	154.560000
255.613663	155.120000
255.706558	154.340000
255.799438	154.060000
255.892334	154.020000
255.985229	153.840000
256.078125	153.280000
256.171021	153.020000
256.263916	153.660000
256.356812	153.860000
256.449707	153.960000
256.542603	153.740000
256.635498	154.500000
256.728394	154.260000
256.821289	153.600000
256.914215	153.840000
257.007080	154.240000
257.100006	154.040000
257.192932	154.420000
257.285828	155.120000
257.378723	154.680000
257.471619	154.580000
257.564545	153.900000
257.657440	153.780000
257.750336	154.340000
257.843262	154.160000
257.936157	155.500000
258.029053	156.300000
258.121979	156.280000
258.214874	155.520000
258.307800	155.480000
258.400696	153.840000
258.493622	153.380000
258.586517	152.680000
258.679443	153.100000
258.772339	153.020000
258.865265	152.940000
258.958160	152.620000
259.051086	153.680000
259.144012	153.620000
259.236938	154.220000
259.329834	154.820000
259.422791	154.840000
259.515717	153.740000
259.608612	153.240000
259.701538	152.860000
259.794464	152.700000
259.887390	152.880000
259.980316	153.160000
260.073212	153.040000
260.166138	152.320000
260.259064	152.640000
260.351990	153.080000
260.444916	153.240000
260.537842	153.760000
260.630768	154.640000
260.723694	154.260000
260.816620	154.100000
260.909546	154.360000
261.002472	154.060000
261.095398	153.460000
261.188354	153.440000
261.281281	153.000000
261.374207	152.460000
261.467133	153.140000
261.560089	153.680000
261.653015	153.380000
261.745972	154.320000
261.838867	155.120000
261.931824	154.900000
262.024780	154.320000
262.117706	154.820000
262.210663	154.500000
262.303589	153.840000
262.396515	153.720000
262.489471	154.980000
262.582397	154.580000
262.675354	154.100000
262.768280	154.260000
262.861237	154.200000
262.954163	153.960000
263.047119	154.340000
263.140045	154.020000
263.233002	153.800000
263.325958	153.800000
263.418884	152.820000
263.511841	152.700000
263.604797	153.260000
263.697723	153.500000
263.790680	153.400000
263.883636	154.300000
263.976593	154.280000
264.069550	154.480000
264.162476	154.320000
264.255463	154.400000
264.348419	153.920000
264.441376	154.160000
264.534332	153.480000
264.627289	153.600000
264.720245	154.340000
264.813202	154.040000
264.906158	154.100000
264.999115	154.780000
265.092072	154.780000
265.185028	154.840000
265.277985	155.180000
265.370941	154.820000
265.463898	154.280000
265.556854	154.200000
265.649811	152.960000
265.742798	152.680000
265.835754	152.720000
265.928711	153.660000
266.021667	153.780000
266.114655	154.360000
266.207611	154.880000
266.300568	154.580000
266.393585	153.900000
266.486511	154.000000
266.579498	153.400000
266.672485	153.100000
266.765442	153.200000
266.858429	153.600000
266.951385	152.940000
267.044342	153.140000
267.137329	153.040000
267.230316	153.280000
267.323273	153.040000
267.416260	154.080000
267.509216	154.140000
267.602203	154.420000
267.695160	154.860000
267.788147	154.660000
267.881134	153.700000
267.974091	153.800000
268.067078	153.480000
268.160065	152.980000
268.253052	153.000000
268.346008	153.540000
268.438995	153.180000
268.531982	153.420000
268.624969	153.540000
268.717987	153.860000
268.810944	153.500000
268.903961	153.960000
268.996948	153.500000
269.089905	153.920000
269.182892	154.080000
269.275879	154.700000
269.368866	154.180000
269.461853	154.580000
269.554871	154.380000
269.647858	154.080000
269.740845	154.120000
269.833832	154.880000
269.926819	154.620000
270.019806	154.500000
270.112793	153.980000
270.205811	154.020000
270.298798	153.620000
270.391785	154.120000
270.484772	153.640000
270.577789	153.940000
270.670776	153.280000
270.763763	153.140000
270.856750	153.040000
270.949768	153.200000
271.042786	153.520000
271.135773	153.940000
271.228790	154.380000
271.321808	153.900000
271.414795	153.800000
271.507782	153.280000
271.600800	152.820000
271.693817	152.920000
271.786804	153.420000
271.879822	153.600000
271.972809	153.820000
272.065826	154.480000
272.158844	153.440000
272.251831	154.240000
272.344849	154.380000
272.437866	153.920000
272.530853	153.540000
272.623871	154.500000
272.716888	152.860000
272.809906	152.840000
272.902893	152.900000
272.995911	152.300000
273.088928	151.800000
273.181946	152.660000
273.274963	152.240000
273.367981	152.680000
273.460999	153.400000
273.554047	153.880000
273.647003	154.420000
273.740051	154.620000
273.833069	155.100000
273.926086	155.360000
274.019135	154.920000
274.112152	154.460000
274.205170	154.620000
274.298187	154.720000
274.391205	154.300000
274.484222	154.480000
274.577240	154.180000
274.670258	153.960000
274.763306	153.620000
274.856323	153.920000
274.949341	153.920000
275.042358	154.320000
275.135406	154.560000
275.228424	154.360000
275.321442	154.140000
275.414490	154.220000
275.507507	154.620000
275.600525	154.880000
275.693573	154.600000
275.786591	154.160000
275.879669	154.220000
275.972656	153.660000
276.065735	153.200000
276.158752	154.080000
276.251801	155.180000
276.344818	155.340000
276.437866	155.640000
276.530884	155.460000
276.623932	154.580000
276.716980	154.280000
276.809998	154.200000
276.903046	153.680000
276.996094	154.960000
277.089111	155.480000
277.182159	155.840000
277.275208	155.400000
277.368256	155.520000
277.461304	154.920000
277.554321	154.200000
277.647369	153.820000
277.740417	154.340000
277.833466	153.960000
277.926514	153.640000
278.019562	154.960000
278.112610	154.560000
278.205688	154.460000
278.298706	154.980000
278.391785	154.860000
278.484833	153.860000
278.577881	153.740000
278.670929	153.740000
278.763977	153.860000
278.857025	154.200000
278.950073	154.180000
279.043121	153.940000
279.136169	153.920000
279.229248	153.540000
279.322296	153.700000
279.415344	153.580000
279.508392	153.900000
279.601440	153.880000
279.694519	153.980000
279.787567	153.720000
279.880615	153.900000
279.973694	153.540000
280.066742	153.760000
280.159790	153.560000
280.252869	153.160000
280.345917	153.320000
280.438995	153.860000
280.532074	153.380000
280.625122	154.160000
280.718201	155.180000
280.811279	155.100000
280.904327	154.840000
280.997406	155.080000
281.090454	154.680000
281.183533	153.860000
281.276581	153.760000
281.369659	153.580000
281.462738	153.960000
281.555786	154.180000
281.648865	154.480000
281.741943	154.520000
281.835022	155.220000
281.928070	154.460000
282.021149	154.220000
282.114227	153.860000
282.207306	153.800000
282.300385	153.880000
282.393433	154.280000
282.486511	154.460000
282.579590	154.840000
282.672668	154.940000
282.765747	154.180000
282.858856	153.740000
282.951904	153.580000
283.045013	153.720000
283.138062	154.180000
283.231171	154.600000
283.324249	155.480000
283.417328	155.520000
283.510406	155.000000
283.603485	154.660000
283.696564	154.520000
283.789642	153.960000
283.882751	153.680000
283.975830	154.420000
284.068909	153.960000
284.161987	154.560000
284.255066	154.000000
284.348175	154.060000
284.441254	153.800000
284.534332	154.240000
284.627441	153.920000
284.720520	154.360000
284.813599	154.640000
284.906708	154.540000
284.999786	153.820000
285.092896	153.600000
285.185974	154.600000
285.279053	153.900000
285.372192	153.940000
285.465240	155.320000
285.558380	155.360000
285.651459	154.580000
285.744568	155.560000
285.837677	155.140000
285.930756	154.620000
286.023865	154.340000
286.116943	154.140000
286.210052	154.160000
286.303162	154.320000
286.396240	154.000000
286.489349	153.900000
286.582458	154.180000
286.675568	153.760000
286.768646	153.840000
286.861755	154.240000
286.954865	155.220000
287.047974	154.680000
287.141083	154.640000
287.234161	154.480000
287.327271	154.360000
287.420380	154.440000
287.513519	154.300000
287.606598	154.180000
287.699738	154.140000
287.792816	154.020000
287.885956	153.580000
287.979034	153.760000
288.072174	154.060000
288.165283	154.280000
288.258392	154.520000
288.351501	154.060000
288.444611	154.300000
288.537720	154.460000
288.630859	154.320000
288.723969	154.580000
288.817078	154.900000
288.910187	154.800000
289.003296	154.120000
289.096436	153.780000
289.189545	153.400000
289.282654	152.860000
289.375763	153.400000
289.468903	154.020000
289.562012	154.580000
289.655121	154.480000
289.748260	155.160000
289.841400	155.100000
289.934509	154.880000
290.027649	154.800000
290.120728	154.720000
290.213898	154.420000
290.306976	154.120000
290.400146	154.160000
290.493256	153.740000
290.586395	153.900000
290.679535	154.280000
290.772644	154.120000
290.865784	153.380000
290.958893	153.380000
291.052032	153.080000
291.145172	152.880000
291.238281	152.440000
291.331421	152.740000
291.424561	153.320000
291.517670	153.360000
291.610809	153.360000
291.703949	153.600000
291.797089	154.160000
291.890228	153.800000
291.983337	153.800000
292.076477	153.660000
292.169617	154.020000
292.262756	153.700000
292.355927	153.620000
292.449036	153.540000
292.542206	153.540000
292.635315	153.640000
292.728485	153.940000
292.821625	153.800000
292.914764	154.860000
293.007904	155.120000
293.101044	155.180000
293.194183	155.040000
293.287323	155.100000
293.380463	154.340000
293.473602	153.920000
293.566742	153.880000
293.659882	154.320000
293.753021	154.840000
293.846191	154.720000
293.939331	154.360000
294.032471	154.300000
294.125610	153.840000
294.218781	153.680000
294.311920	154.100000
294.405060	154.660000
294.498230	154.580000
294.591370	154.780000
294.684540	154.140000
294.777679	153.540000
294.870850	153.640000
294.963959	153.700000
295.057159	153.320000
295.150299	153.840000
295.243469	153.740000
295.336609	153.200000
295.429779	153.040000
295.522919	153.500000
295.616089	153.220000
295.709229	154.240000
295.802399	154.480000
295.895569	154.140000
295.988708	153.840000
296.081879	154.320000
296.175018	153.460000
296.268188	153.560000
296.361359	154.220000
296.454529	154.460000
296.547668	154.280000
296.640839	154.600000
296.734009	154.180000
296.827179	154.440000
296.920319	154.380000
297.013519	154.160000
297.106659	154.300000
297.199860	154.280000
297.292999	153.960000
297.386200	153.740000
297.479309	153.640000
297.572510	153.220000
297.665680	153.380000
297.758850	153.320000
297.852020	153.200000
297.945190	152.920000
298.038361	152.800000
298.131531	153.880000
298.224701	153.720000
298.317871	153.360000
298.411072	153.440000
298.504242	153.380000
298.597412	152.500000
298.690582	152.680000
298.783752	152.640000
298.876923	153.340000
298.970093	153.540000
299.063293	153.980000
299.156464	154.280000
299.249634	155.060000
299.342834	154.820000
299.436005	155.080000
299.529205	154.620000
299.622345	154.560000
299.715576	153.780000
299.808716	153.740000
299.901917	153.580000
299.995117	153.940000
300.088287	153.840000
300.181488	153.920000
300.274658	153.760000
300.367828	153.580000
300.461029	153.600000
300.554199	153.980000
300.647400	154.300000
300.740601	154.680000
300.833771	154.360000
300.926971	154.360000
301.020142	153.480000
301.113342	153.300000
301.206512	153.180000
301.299713	153.740000
301.392914	153.660000
301.486084	154.080000
301.579285	153.940000
301.672516	153.980000
301.765686	153.600000
301.858887	153.400000
301.952057	153.240000
302.045288	153.660000
302.138458	153.700000
302.231659	153.760000
302.324860	153.780000
302.418060	153.580000
302.511261	153.260000
302.604462	153.620000
302.697662	153.440000
302.790863	153.320000
302.884064	153.260000
302.977264	153.340000
303.070465	153.300000
303.163666	154.180000
303.256866	154.500000
303.350067	154.500000
303.443268	154.660000
303.536469	154.700000
303.629669	154.080000
303.722870	154.100000
303.816071	154.240000
303.909271	154.260000
304.002472	153.580000
304.095673	153.460000
304.188934	152.980000
304.282104	153.800000
304.375336	153.860000
304.468506	153.740000
304.561768	153.760000
304.654968	154.380000
304.748169	153.480000
304.841370	153.220000
304.934601	153.780000
305.027802	153.460000
305.121002	153.020000
305.214233	153.360000
305.307434	153.480000
305.400665	154.120000
305.493866	154.320000
