Model Number: SPM-002-B   
Serial Number: 70087108
Firmware Version: 004.15.4
Exposure Time: 100000.000000us
Data Taken on: 15-01-2021 16:35:52.645
Wavelength	Amplitude
221.570786	0.000000
221.663406	0.000000
221.756027	0.000000
221.848648	0.000000
221.941269	0.000000
222.033905	0.000000
222.126526	0.000000
222.219162	0.000000
222.311798	0.000000
222.404419	0.000000
222.497055	0.000000
222.589676	0.000000
222.682312	0.000000
222.774933	0.000000
222.867569	0.000000
222.960205	0.000000
223.052841	0.000000
223.145462	0.000000
223.238098	0.000000
223.330734	0.000000
223.423386	0.000000
223.516022	0.000000
223.608658	0.000000
223.701309	0.000000
223.793945	0.000000
223.886581	0.000000
223.979218	0.000000
224.071869	0.000000
224.164505	0.000000
224.257156	0.000000
224.349792	0.000000
224.442444	0.000000
224.535095	0.000000
224.627747	0.000000
224.720398	0.000000
224.813034	0.000000
224.905685	0.000000
224.998337	153.000000
225.090988	153.040000
225.183640	152.820000
225.276291	152.620000
225.368942	152.880000
225.461594	153.340000
225.554245	153.480000
225.646912	153.800000
225.739578	154.380000
225.832230	155.200000
225.924896	154.200000
226.017548	154.260000
226.110199	154.880000
226.202866	153.980000
226.295532	153.520000
226.388184	153.420000
226.480850	152.860000
226.573517	152.400000
226.666168	152.520000
226.758835	152.620000
226.851501	153.260000
226.944183	153.820000
227.036850	153.320000
227.129517	153.340000
227.222183	153.480000
227.314850	153.460000
227.407516	153.180000
227.500198	154.180000
227.592865	153.900000
227.685532	153.520000
227.778214	153.260000
227.870880	153.740000
227.963562	153.760000
228.056229	154.460000
228.148926	154.560000
228.241592	155.620000
228.334274	155.080000
228.426956	154.700000
228.519638	154.600000
228.612305	154.240000
228.704987	153.520000
228.797668	153.800000
228.890350	153.320000
228.983032	152.740000
229.075714	153.440000
229.168396	153.180000
229.261108	152.960000
229.353790	153.460000
229.446472	153.880000
229.539169	153.740000
229.631851	153.600000
229.724533	153.700000
229.817230	153.440000
229.909912	154.380000
230.002609	154.240000
230.095306	154.340000
230.187988	154.460000
230.280685	154.340000
230.373383	153.040000
230.466095	153.020000
230.558792	153.160000
230.651474	152.900000
230.744171	152.700000
230.836868	152.980000
230.929581	153.100000
231.022278	153.160000
231.114975	153.580000
231.207672	153.840000
231.300369	154.320000
231.393082	154.360000
231.485779	154.220000
231.578506	153.720000
231.671204	153.820000
231.763916	153.380000
231.856613	153.140000
231.949326	153.280000
232.042023	153.040000
232.134735	153.140000
232.227448	152.760000
232.320160	152.960000
232.412872	153.020000
232.505585	154.300000
232.598297	154.520000
232.691010	154.640000
232.783722	154.460000
232.876450	154.840000
232.969162	154.040000
233.061874	153.620000
233.154587	153.380000
233.247314	153.700000
233.340027	152.800000
233.432739	153.120000
233.525467	152.840000
233.618179	153.120000
233.710907	152.900000
233.803635	153.740000
233.896347	153.400000
233.989090	154.020000
234.081818	154.320000
234.174545	154.240000
234.267258	153.660000
234.359985	153.780000
234.452713	153.360000
234.545441	153.220000
234.638168	153.200000
234.730896	153.620000
234.823639	153.340000
234.916367	153.800000
235.009094	154.160000
235.101822	154.360000
235.194580	154.160000
235.287308	154.640000
235.380051	154.320000
235.472778	154.200000
235.565521	154.480000
235.658249	153.940000
235.750992	153.980000
235.843719	153.920000
235.936462	153.960000
236.029205	153.500000
236.121948	153.620000
236.214691	153.820000
236.307449	154.480000
236.400192	153.920000
236.492935	153.700000
236.585678	154.160000
236.678421	154.060000
236.771164	153.780000
236.863907	154.720000
236.956665	155.140000
237.049408	156.620000
237.142151	155.940000
237.234909	156.660000
237.327652	156.220000
237.420410	155.880000
237.513153	154.820000
237.605927	154.860000
237.698669	153.960000
237.791428	153.600000
237.884186	153.920000
237.976944	153.280000
238.069702	153.480000
238.162445	153.040000
238.255203	153.100000
238.347961	153.460000
238.440720	153.480000
238.533478	153.400000
238.626266	153.280000
238.719025	153.380000
238.811783	152.840000
238.904541	152.800000
238.997314	152.580000
239.090073	152.480000
239.182831	152.960000
239.275604	154.060000
239.368362	154.180000
239.461136	154.680000
239.553909	155.120000
239.646667	154.780000
239.739441	153.820000
239.832214	154.100000
239.925003	154.160000
240.017761	154.660000
240.110535	154.960000
240.203308	154.780000
240.296082	154.680000
240.388855	154.420000
240.481628	154.420000
240.574417	154.540000
240.667191	154.680000
240.759964	154.500000
240.852737	154.420000
240.945526	153.960000
241.038315	153.660000
241.131088	153.860000
241.223877	154.060000
241.316650	153.540000
241.409439	153.960000
241.502228	153.580000
241.595001	153.920000
241.687790	153.560000
241.780579	154.060000
241.873367	154.260000
241.966141	154.600000
242.058929	154.160000
242.151718	154.640000
242.244507	155.160000
242.337311	154.280000
242.430099	154.460000
242.522903	154.680000
242.615692	154.040000
242.708481	153.880000
242.801270	154.360000
242.894073	154.180000
242.986862	154.360000
243.079651	155.000000
243.172455	154.560000
243.265244	154.720000
243.358063	154.360000
243.450867	154.240000
243.543655	154.160000
243.636459	154.100000
243.729263	154.180000
243.822067	154.520000
243.914856	154.780000
244.007660	154.560000
244.100464	155.060000
244.193268	154.540000
244.286072	154.420000
244.378876	153.600000
244.471680	153.460000
244.564499	153.640000
244.657318	154.300000
244.750122	154.460000
244.842926	154.140000
244.935745	154.480000
245.028549	153.960000
245.121368	153.460000
245.214172	153.180000
245.306992	153.960000
245.399796	153.380000
245.492615	153.640000
245.585434	153.560000
245.678253	153.560000
245.771072	153.180000
245.863892	154.180000
245.956711	154.260000
246.049530	154.120000
246.142349	154.180000
246.235168	154.540000
246.327988	154.460000
246.420807	154.280000
246.513626	154.420000
246.606445	154.320000
246.699280	154.060000
246.792099	153.960000
246.884918	153.600000
246.977753	153.640000
247.070587	153.780000
247.163422	153.760000
247.256241	153.460000
247.349075	154.100000
247.441895	154.040000
247.534729	153.840000
247.627563	153.820000
247.720383	154.280000
247.813217	153.800000
247.906052	153.940000
247.998886	154.220000
248.091736	154.020000
248.184570	153.380000
248.277405	153.300000
248.370239	154.100000
248.463074	154.940000
248.555908	155.380000
248.648743	155.600000
248.741592	156.080000
248.834427	155.200000
248.927261	154.060000
249.020111	154.440000
249.112946	155.140000
249.205795	154.500000
249.298630	154.520000
249.391495	154.620000
249.484344	154.080000
249.577179	153.620000
249.670029	154.240000
249.762878	154.880000
249.855728	155.000000
249.948563	154.980000
250.041412	154.520000
250.134262	154.160000
250.227112	154.080000
250.319962	154.300000
250.412827	154.280000
250.505692	153.920000
250.598541	154.060000
250.691391	153.360000
250.784241	153.180000
250.877106	153.340000
250.969955	153.260000
251.062805	153.900000
251.155670	154.700000
251.248520	154.320000
251.341385	154.460000
251.434235	154.600000
251.527100	153.700000
251.619965	153.280000
251.712814	154.260000
251.805695	154.360000
251.898560	154.820000
251.991425	155.340000
252.084290	155.200000
252.177155	154.540000
252.270020	153.920000
252.362885	153.680000
252.455750	153.560000
252.548615	153.360000
252.641479	153.340000
252.734360	153.560000
252.827240	153.660000
252.920105	153.820000
253.012970	153.640000
253.105850	153.200000
253.198715	152.960000
253.291595	152.880000
253.384460	152.120000
253.477341	152.160000
253.570221	152.880000
253.663086	152.640000
253.755966	153.340000
253.848846	153.700000
253.941727	153.940000
254.034592	153.440000
254.127472	153.220000
254.220367	153.080000
254.313248	153.380000
254.406128	153.220000
254.499008	153.660000
254.591904	154.640000
254.684784	155.040000
254.777664	155.080000
254.870544	154.960000
254.963440	154.860000
255.056335	154.820000
255.149216	154.000000
255.242111	154.280000
255.334991	154.580000
255.427887	154.680000
255.520767	154.640000
255.613663	154.960000
255.706558	154.080000
255.799438	154.120000
255.892334	153.720000
255.985229	153.660000
256.078125	153.240000
256.171021	153.500000
256.263916	153.940000
256.356812	154.400000
256.449707	154.420000
256.542603	154.200000
256.635498	154.780000
256.728394	154.500000
256.821289	154.280000
256.914215	154.720000
257.007080	155.160000
257.100006	155.000000
257.192932	155.300000
257.285828	155.620000
257.378723	154.920000
257.471619	154.960000
257.564545	154.280000
257.657440	154.080000
257.750336	154.260000
257.843262	154.260000
257.936157	155.000000
258.029053	155.700000
258.121979	155.640000
258.214874	155.140000
258.307800	154.840000
258.400696	153.840000
258.493622	153.580000
258.586517	152.620000
258.679443	153.100000
258.772339	153.060000
258.865265	153.160000
258.958160	152.820000
259.051086	154.120000
259.144012	153.420000
259.236938	154.460000
259.329834	154.460000
259.422791	154.420000
259.515717	153.640000
259.608612	153.480000
259.701538	153.260000
259.794464	153.140000
259.887390	152.980000
259.980316	152.880000
260.073212	152.720000
260.166138	151.720000
260.259064	152.340000
260.351990	153.240000
260.444916	153.380000
260.537842	154.200000
260.630768	154.880000
260.723694	154.400000
260.816620	154.120000
260.909546	154.140000
261.002472	153.640000
261.095398	153.400000
261.188354	153.480000
261.281281	153.160000
261.374207	153.200000
261.467133	154.100000
261.560089	154.220000
261.653015	153.940000
261.745972	154.640000
261.838867	155.040000
261.931824	154.820000
262.024780	154.340000
262.117706	154.620000
262.210663	154.460000
262.303589	153.980000
262.396515	153.720000
262.489471	154.820000
262.582397	154.580000
262.675354	153.940000
262.768280	154.280000
262.861237	154.300000
262.954163	153.940000
263.047119	154.280000
263.140045	154.060000
263.233002	153.820000
263.325958	153.660000
263.418884	153.220000
263.511841	153.140000
263.604797	153.440000
263.697723	153.740000
263.790680	153.700000
263.883636	154.200000
263.976593	154.060000
264.069550	154.440000
264.162476	154.140000
264.255463	154.360000
264.348419	154.160000
264.441376	154.720000
264.534332	153.980000
264.627289	153.940000
264.720245	154.160000
264.813202	153.660000
264.906158	153.540000
264.999115	154.380000
265.092072	154.780000
265.185028	155.240000
265.277985	155.720000
265.370941	155.220000
265.463898	154.380000
265.556854	153.960000
265.649811	152.820000
265.742798	152.540000
265.835754	152.660000
265.928711	153.680000
266.021667	153.860000
266.114655	154.340000
266.207611	154.740000
266.300568	154.060000
266.393585	153.320000
266.486511	153.400000
266.579498	152.500000
266.672485	152.560000
266.765442	153.100000
266.858429	153.620000
266.951385	153.240000
267.044342	154.040000
267.137329	153.640000
267.230316	153.880000
267.323273	153.660000
267.416260	154.480000
267.509216	154.360000
267.602203	154.660000
267.695160	154.960000
267.788147	154.880000
267.881134	154.060000
267.974091	153.960000
268.067078	153.780000
268.160065	153.500000
268.253052	153.220000
268.346008	153.500000
268.438995	153.020000
268.531982	153.140000
268.624969	152.700000
268.717987	153.220000
268.810944	152.940000
268.903961	153.680000
268.996948	153.140000
269.089905	153.860000
269.182892	153.980000
269.275879	154.500000
269.368866	153.860000
269.461853	154.460000
269.554871	154.100000
269.647858	153.780000
269.740845	153.880000
269.833832	154.380000
269.926819	153.820000
270.019806	153.940000
270.112793	153.520000
270.205811	153.580000
270.298798	153.520000
270.391785	154.360000
270.484772	154.200000
270.577789	154.640000
270.670776	154.020000
270.763763	154.100000
270.856750	153.920000
270.949768	153.580000
271.042786	153.400000
271.135773	153.520000
271.228790	153.660000
271.321808	153.420000
271.414795	153.340000
271.507782	153.060000
271.600800	152.700000
271.693817	152.820000
271.786804	153.020000
271.879822	153.440000
271.972809	153.680000
272.065826	154.660000
272.158844	154.120000
272.251831	154.500000
272.344849	154.400000
272.437866	154.100000
272.530853	153.980000
272.623871	154.320000
272.716888	153.240000
272.809906	153.460000
272.902893	153.740000
272.995911	153.160000
273.088928	152.900000
273.181946	153.460000
273.274963	153.220000
273.367981	153.160000
273.460999	153.420000
273.554047	153.860000
273.647003	154.280000
273.740051	154.520000
273.833069	154.940000
273.926086	155.020000
274.019135	154.560000
274.112152	154.300000
274.205170	154.320000
274.298187	154.600000
274.391205	153.840000
274.484222	154.040000
274.577240	153.860000
274.670258	153.740000
274.763306	153.260000
274.856323	154.260000
274.949341	154.480000
275.042358	154.920000
275.135406	154.640000
275.228424	154.660000
275.321442	154.280000
275.414490	153.920000
275.507507	153.760000
275.600525	154.260000
275.693573	154.180000
275.786591	153.780000
275.879669	153.920000
275.972656	153.800000
276.065735	153.440000
276.158752	154.260000
276.251801	155.060000
276.344818	155.140000
276.437866	155.120000
276.530884	155.080000
276.623932	153.640000
276.716980	153.500000
276.809998	153.460000
276.903046	153.360000
276.996094	154.380000
277.089111	155.400000
277.182159	155.800000
277.275208	155.560000
277.368256	155.820000
277.461304	155.180000
277.554321	154.480000
277.647369	154.240000
277.740417	154.280000
277.833466	153.960000
277.926514	153.720000
278.019562	154.380000
278.112610	153.680000
278.205688	154.020000
278.298706	154.100000
278.391785	154.020000
278.484833	153.520000
278.577881	153.640000
278.670929	153.660000
278.763977	153.540000
278.857025	153.940000
278.950073	153.780000
279.043121	153.580000
279.136169	153.380000
279.229248	153.240000
279.322296	153.060000
279.415344	153.100000
279.508392	153.380000
279.601440	153.240000
279.694519	153.300000
279.787567	153.100000
279.880615	153.040000
279.973694	152.740000
280.066742	153.000000
280.159790	153.100000
280.252869	153.240000
280.345917	153.700000
280.438995	154.080000
280.532074	154.140000
280.625122	154.800000
280.718201	155.580000
280.811279	155.440000
280.904327	155.300000
280.997406	155.220000
281.090454	154.820000
281.183533	153.700000
281.276581	153.660000
281.369659	153.120000
281.462738	153.020000
281.555786	152.960000
281.648865	153.240000
281.741943	153.360000
281.835022	154.440000
281.928070	154.340000
282.021149	154.260000
282.114227	154.320000
282.207306	154.020000
282.300385	154.120000
282.393433	154.440000
282.486511	154.780000
282.579590	155.180000
282.672668	155.660000
282.765747	154.760000
282.858856	154.240000
282.951904	154.060000
283.045013	153.780000
283.138062	153.940000
283.231171	154.660000
283.324249	155.380000
283.417328	155.160000
283.510406	154.960000
283.603485	154.680000
283.696564	154.240000
283.789642	153.860000
283.882751	154.000000
283.975830	154.920000
284.068909	154.680000
284.161987	155.240000
284.255066	154.820000
284.348175	154.800000
284.441254	154.080000
284.534332	154.760000
284.627441	154.060000
284.720520	153.860000
284.813599	154.000000
284.906708	154.100000
284.999786	153.180000
285.092896	153.180000
285.185974	154.520000
285.279053	153.960000
285.372192	154.260000
285.465240	155.320000
285.558380	155.480000
285.651459	154.960000
285.744568	156.140000
285.837677	155.720000
285.930756	155.180000
286.023865	155.140000
286.116943	154.580000
286.210052	154.360000
286.303162	154.160000
286.396240	153.880000
286.489349	153.640000
286.582458	154.260000
286.675568	153.820000
286.768646	153.860000
286.861755	154.460000
286.954865	155.260000
287.047974	154.640000
287.141083	154.360000
287.234161	154.320000
287.327271	154.040000
287.420380	154.280000
287.513519	154.300000
287.606598	154.680000
287.699738	155.100000
287.792816	154.740000
287.885956	154.280000
287.979034	154.360000
288.072174	154.120000
288.165283	153.700000
288.258392	154.280000
288.351501	153.840000
288.444611	154.200000
288.537720	154.540000
288.630859	154.400000
288.723969	154.080000
288.817078	154.700000
288.910187	154.500000
289.003296	153.700000
289.096436	153.440000
289.189545	153.320000
289.282654	152.480000
289.375763	152.900000
289.468903	153.620000
289.562012	154.040000
289.655121	153.880000
289.748260	154.280000
289.841400	154.300000
289.934509	154.080000
290.027649	154.300000
290.120728	154.380000
290.213898	154.200000
290.306976	153.840000
290.400146	154.060000
290.493256	153.600000
290.586395	153.820000
290.679535	154.240000
290.772644	153.960000
290.865784	153.220000
290.958893	153.080000
291.052032	153.100000
291.145172	153.100000
291.238281	152.900000
291.331421	153.060000
291.424561	153.840000
291.517670	153.520000
291.610809	153.500000
291.703949	153.500000
291.797089	154.000000
291.890228	153.580000
291.983337	153.420000
292.076477	153.060000
292.169617	153.640000
292.262756	153.160000
292.355927	152.980000
292.449036	153.080000
292.542206	153.160000
292.635315	153.120000
292.728485	153.640000
292.821625	153.440000
292.914764	154.520000
293.007904	154.860000
293.101044	154.940000
293.194183	154.560000
293.287323	154.920000
293.380463	153.980000
293.473602	153.680000
293.566742	153.900000
293.659882	154.360000
293.753021	154.680000
293.846191	154.520000
293.939331	154.320000
294.032471	154.000000
294.125610	153.880000
294.218781	153.840000
294.311920	154.860000
294.405060	155.100000
294.498230	154.960000
294.591370	154.960000
294.684540	154.340000
294.777679	153.380000
294.870850	153.720000
294.963959	153.820000
295.057159	153.520000
295.150299	153.860000
295.243469	153.880000
295.336609	153.220000
295.429779	153.180000
295.522919	153.440000
295.616089	153.460000
295.709229	154.080000
295.802399	154.640000
295.895569	154.320000
295.988708	154.040000
296.081879	154.200000
296.175018	153.520000
296.268188	153.260000
296.361359	154.080000
296.454529	154.480000
296.547668	154.220000
296.640839	154.760000
296.734009	154.520000
296.827179	154.280000
296.920319	154.300000
297.013519	154.380000
297.106659	154.560000
297.199860	154.520000
297.292999	154.620000
297.386200	154.360000
297.479309	154.240000
297.572510	153.600000
297.665680	153.700000
297.758850	153.520000
297.852020	153.380000
297.945190	153.400000
298.038361	153.620000
298.131531	154.380000
298.224701	154.060000
298.317871	153.760000
298.411072	153.160000
298.504242	153.040000
298.597412	152.420000
298.690582	152.600000
298.783752	152.940000
298.876923	153.880000
298.970093	153.700000
299.063293	154.160000
299.156464	154.500000
299.249634	154.640000
299.342834	154.580000
299.436005	155.020000
299.529205	154.500000
299.622345	154.180000
299.715576	153.720000
299.808716	153.300000
299.901917	153.080000
299.995117	153.600000
300.088287	153.800000
300.181488	153.740000
300.274658	153.780000
300.367828	153.940000
300.461029	153.720000
300.554199	153.940000
300.647400	154.100000
300.740601	154.620000
300.833771	154.440000
300.926971	154.560000
301.020142	154.080000
301.113342	154.200000
301.206512	154.040000
301.299713	154.420000
301.392914	154.280000
301.486084	154.480000
301.579285	154.740000
301.672516	155.080000
301.765686	154.600000
301.858887	154.500000
301.952057	154.460000
302.045288	154.100000
302.138458	153.660000
302.231659	153.760000
302.324860	153.700000
302.418060	153.200000
302.511261	153.100000
302.604462	153.160000
302.697662	152.800000
302.790863	152.680000
302.884064	152.620000
302.977264	153.100000
303.070465	153.160000
303.163666	154.080000
303.256866	154.540000
303.350067	154.860000
303.443268	154.520000
303.536469	154.640000
303.629669	153.940000
303.722870	153.580000
303.816071	153.380000
303.909271	153.620000
304.002472	152.920000
304.095673	152.760000
304.188934	152.320000
304.282104	153.540000
304.375336	153.220000
304.468506	153.480000
304.561768	153.380000
304.654968	154.180000
304.748169	153.100000
304.841370	153.080000
304.934601	153.560000
305.027802	153.580000
305.121002	153.060000
305.214233	153.260000
305.307434	153.500000
305.400665	153.920000
305.493866	153.860000
