Model Number: SPM-002-B   
Serial Number: 70087108
Firmware Version: 004.15.4
Exposure Time: 100000.000000us
Data Taken on: 15-01-2021 16:36:03.335
Wavelength	Amplitude
221.570786	0.000000
221.663406	0.000000
221.756027	0.000000
221.848648	0.000000
221.941269	0.000000
222.033905	0.000000
222.126526	0.000000
222.219162	0.000000
222.311798	0.000000
222.404419	0.000000
222.497055	0.000000
222.589676	0.000000
222.682312	0.000000
222.774933	0.000000
222.867569	0.000000
222.960205	0.000000
223.052841	0.000000
223.145462	0.000000
223.238098	0.000000
223.330734	0.000000
223.423386	0.000000
223.516022	0.000000
223.608658	0.000000
223.701309	0.000000
223.793945	0.000000
223.886581	0.000000
223.979218	0.000000
224.071869	0.000000
224.164505	0.000000
224.257156	0.000000
224.349792	0.000000
224.442444	0.000000
224.535095	0.000000
224.627747	0.000000
224.720398	0.000000
224.813034	0.000000
224.905685	0.000000
224.998337	152.600000
225.090988	152.100000
225.183640	152.000000
225.276291	152.020000
225.368942	152.360000
225.461594	153.060000
225.554245	153.980000
225.646912	154.180000
225.739578	155.040000
225.832230	155.700000
225.924896	154.780000
226.017548	154.900000
226.110199	155.500000
226.202866	154.240000
226.295532	153.620000
226.388184	153.680000
226.480850	152.920000
226.573517	152.140000
226.666168	152.540000
226.758835	152.960000
226.851501	154.000000
226.944183	154.240000
227.036850	154.220000
227.129517	154.120000
227.222183	153.960000
227.314850	153.120000
227.407516	153.540000
227.500198	154.380000
227.592865	154.000000
227.685532	153.660000
227.778214	153.640000
227.870880	153.720000
227.963562	153.920000
228.056229	154.560000
228.148926	154.500000
228.241592	155.320000
228.334274	154.800000
228.426956	154.140000
228.519638	154.200000
228.612305	153.820000
228.704987	153.460000
228.797668	153.580000
228.890350	153.140000
228.983032	152.540000
229.075714	153.400000
229.168396	152.940000
229.261108	152.780000
229.353790	153.280000
229.446472	153.400000
229.539169	153.200000
229.631851	153.000000
229.724533	153.000000
229.817230	153.140000
229.909912	154.340000
230.002609	154.080000
230.095306	154.180000
230.187988	154.380000
230.280685	153.880000
230.373383	152.620000
230.466095	152.540000
230.558792	152.900000
230.651474	152.560000
230.744171	152.760000
230.836868	152.620000
230.929581	153.120000
231.022278	153.020000
231.114975	152.900000
231.207672	152.880000
231.300369	153.480000
231.393082	153.260000
231.485779	152.900000
231.578506	152.960000
231.671204	153.000000
231.763916	152.820000
231.856613	152.920000
231.949326	153.100000
232.042023	153.120000
232.134735	153.020000
232.227448	152.660000
232.320160	152.920000
232.412872	153.360000
232.505585	154.440000
232.598297	154.660000
232.691010	154.920000
232.783722	154.340000
232.876450	154.740000
232.969162	153.820000
233.061874	153.180000
233.154587	152.960000
233.247314	153.080000
233.340027	152.060000
233.432739	152.380000
233.525467	152.500000
233.618179	152.900000
233.710907	153.160000
233.803635	153.640000
233.896347	153.280000
233.989090	154.180000
234.081818	153.980000
234.174545	153.660000
234.267258	153.360000
234.359985	153.600000
234.452713	153.100000
234.545441	152.920000
234.638168	153.160000
234.730896	153.600000
234.823639	153.420000
234.916367	153.940000
235.009094	154.120000
235.101822	153.800000
235.194580	153.420000
235.287308	153.540000
235.380051	152.780000
235.472778	152.840000
235.565521	153.220000
235.658249	153.100000
235.750992	153.040000
235.843719	153.400000
235.936462	153.600000
236.029205	153.220000
236.121948	152.980000
236.214691	153.500000
236.307449	153.820000
236.400192	153.300000
236.492935	153.200000
236.585678	153.780000
236.678421	153.240000
236.771164	152.820000
236.863907	153.420000
236.956665	153.940000
237.049408	155.300000
237.142151	155.080000
237.234909	155.880000
237.327652	155.800000
237.420410	155.300000
237.513153	154.200000
237.605927	154.120000
237.698669	153.180000
237.791428	152.340000
237.884186	152.600000
237.976944	152.060000
238.069702	152.580000
238.162445	152.400000
238.255203	152.940000
238.347961	153.220000
238.440720	153.200000
238.533478	153.020000
238.626266	152.880000
238.719025	153.180000
238.811783	153.260000
238.904541	153.320000
238.997314	153.220000
239.090073	152.980000
239.182831	153.140000
239.275604	153.660000
239.368362	153.560000
239.461136	153.840000
239.553909	154.320000
239.646667	154.160000
239.739441	153.440000
239.832214	153.740000
239.925003	153.820000
240.017761	154.120000
240.110535	154.360000
240.203308	154.000000
240.296082	153.820000
240.388855	153.600000
240.481628	153.620000
240.574417	153.780000
240.667191	153.960000
240.759964	153.840000
240.852737	153.760000
240.945526	153.380000
241.038315	152.860000
241.131088	153.060000
241.223877	153.560000
241.316650	153.420000
241.409439	153.800000
241.502228	153.620000
241.595001	154.080000
241.687790	153.740000
241.780579	153.680000
241.873367	153.700000
241.966141	154.040000
242.058929	153.000000
242.151718	153.600000
242.244507	154.240000
242.337311	153.340000
242.430099	153.600000
242.522903	154.460000
242.615692	153.280000
242.708481	153.040000
242.801270	153.860000
242.894073	153.440000
242.986862	153.240000
243.079651	154.140000
243.172455	153.680000
243.265244	153.600000
243.358063	153.060000
243.450867	153.000000
243.543655	152.860000
243.636459	153.080000
243.729263	153.460000
243.822067	154.100000
243.914856	154.620000
244.007660	154.800000
244.100464	154.940000
244.193268	154.520000
244.286072	154.440000
244.378876	153.680000
244.471680	153.220000
244.564499	153.460000
244.657318	154.020000
244.750122	154.300000
244.842926	153.900000
244.935745	154.420000
245.028549	153.820000
245.121368	153.160000
245.214172	152.960000
245.306992	153.660000
245.399796	153.300000
245.492615	153.480000
245.585434	153.500000
245.678253	153.460000
245.771072	153.380000
245.863892	153.800000
245.956711	153.960000
246.049530	153.980000
246.142349	153.540000
246.235168	153.580000
246.327988	153.900000
246.420807	153.820000
246.513626	153.720000
246.606445	153.940000
246.699280	153.920000
246.792099	153.220000
246.884918	152.900000
246.977753	152.480000
247.070587	152.480000
247.163422	152.360000
247.256241	152.340000
247.349075	152.920000
247.441895	153.480000
247.534729	153.580000
247.627563	153.500000
247.720383	154.280000
247.813217	153.880000
247.906052	153.540000
247.998886	153.680000
248.091736	153.780000
248.184570	153.020000
248.277405	153.220000
248.370239	154.480000
248.463074	155.340000
248.555908	155.560000
248.648743	155.560000
248.741592	155.720000
248.834427	154.920000
248.927261	153.400000
249.020111	153.800000
249.112946	154.440000
249.205795	154.040000
249.298630	153.860000
249.391495	154.360000
249.484344	153.620000
249.577179	153.300000
249.670029	153.660000
249.762878	154.180000
249.855728	154.280000
249.948563	154.300000
250.041412	153.800000
250.134262	153.840000
250.227112	153.760000
250.319962	153.820000
250.412827	153.780000
250.505692	153.480000
250.598541	153.680000
250.691391	153.100000
250.784241	153.020000
250.877106	153.520000
250.969955	153.760000
251.062805	153.900000
251.155670	154.800000
251.248520	154.500000
251.341385	154.440000
251.434235	153.980000
251.527100	153.380000
251.619965	152.620000
251.712814	153.480000
251.805695	153.480000
251.898560	154.200000
251.991425	154.480000
252.084290	154.600000
252.177155	153.780000
252.270020	153.480000
252.362885	153.360000
252.455750	153.520000
252.548615	153.580000
252.641479	153.760000
252.734360	153.640000
252.827240	153.360000
252.920105	153.360000
253.012970	153.200000
253.105850	153.120000
253.198715	153.060000
253.291595	153.540000
253.384460	152.940000
253.477341	152.980000
253.570221	153.200000
253.663086	153.320000
253.755966	153.840000
253.848846	154.080000
253.941727	154.320000
254.034592	153.740000
254.127472	153.260000
254.220367	152.740000
254.313248	152.920000
254.406128	152.440000
254.499008	153.320000
254.591904	154.380000
254.684784	155.020000
254.777664	154.840000
254.870544	154.800000
254.963440	154.160000
255.056335	153.920000
255.149216	153.300000
255.242111	153.880000
255.334991	154.100000
255.427887	154.320000
255.520767	154.340000
255.613663	154.580000
255.706558	153.780000
255.799438	153.460000
255.892334	153.100000
255.985229	152.640000
256.078125	152.240000
256.171021	152.320000
256.263916	153.180000
256.356812	153.600000
256.449707	154.000000
256.542603	153.920000
256.635498	154.740000
256.728394	154.140000
256.821289	153.700000
256.914215	153.920000
257.007080	154.200000
257.100006	153.820000
257.192932	154.500000
257.285828	155.120000
257.378723	154.520000
257.471619	154.400000
257.564545	153.800000
257.657440	153.720000
257.750336	154.200000
257.843262	154.180000
257.936157	155.200000
258.029053	155.860000
258.121979	155.820000
258.214874	155.120000
258.307800	155.140000
258.400696	153.860000
258.493622	153.400000
258.586517	152.600000
258.679443	153.060000
258.772339	152.520000
258.865265	152.500000
258.958160	152.240000
259.051086	153.180000
259.144012	152.700000
259.236938	153.780000
259.329834	154.180000
259.422791	154.440000
259.515717	153.720000
259.608612	153.400000
259.701538	153.520000
259.794464	153.320000
259.887390	153.100000
259.980316	152.920000
260.073212	152.520000
260.166138	151.280000
260.259064	151.660000
260.351990	152.640000
260.444916	152.820000
260.537842	153.680000
260.630768	154.480000
260.723694	154.020000
260.816620	153.680000
260.909546	153.860000
261.002472	153.520000
261.095398	152.880000
261.188354	153.200000
261.281281	152.320000
261.374207	152.460000
261.467133	153.340000
261.560089	153.800000
261.653015	153.460000
261.745972	154.360000
261.838867	154.540000
261.931824	154.380000
262.024780	154.060000
262.117706	154.200000
262.210663	154.200000
262.303589	153.920000
262.396515	153.780000
262.489471	154.600000
262.582397	154.480000
262.675354	153.760000
262.768280	153.780000
262.861237	153.560000
262.954163	153.340000
263.047119	153.840000
263.140045	153.740000
263.233002	153.700000
263.325958	153.600000
263.418884	153.020000
263.511841	152.620000
263.604797	153.060000
263.697723	153.180000
263.790680	153.240000
263.883636	153.780000
263.976593	153.520000
264.069550	153.660000
264.162476	153.260000
264.255463	153.380000
264.348419	153.080000
264.441376	153.580000
264.534332	152.760000
264.627289	152.880000
264.720245	153.200000
264.813202	152.720000
264.906158	152.640000
264.999115	153.600000
265.092072	153.520000
265.185028	153.900000
265.277985	154.460000
265.370941	154.340000
265.463898	153.940000
265.556854	153.860000
265.649811	152.360000
265.742798	152.180000
265.835754	152.220000
265.928711	152.700000
266.021667	152.800000
266.114655	153.500000
266.207611	153.920000
266.300568	153.480000
266.393585	153.000000
266.486511	153.200000
266.579498	152.480000
266.672485	152.420000
266.765442	152.560000
266.858429	153.020000
266.951385	152.880000
267.044342	153.400000
267.137329	153.100000
267.230316	153.560000
267.323273	152.800000
267.416260	153.480000
267.509216	153.560000
267.602203	153.540000
267.695160	153.880000
267.788147	154.060000
267.881134	153.260000
267.974091	153.260000
268.067078	153.240000
268.160065	152.460000
268.253052	152.540000
268.346008	152.680000
268.438995	152.480000
268.531982	152.700000
268.624969	152.620000
268.717987	152.860000
268.810944	152.820000
268.903961	153.080000
268.996948	152.540000
269.089905	153.240000
269.182892	153.300000
269.275879	153.780000
269.368866	152.960000
269.461853	153.580000
269.554871	153.080000
269.647858	153.080000
269.740845	152.780000
269.833832	153.620000
269.926819	153.100000
270.019806	153.220000
270.112793	152.640000
270.205811	153.040000
270.298798	152.700000
270.391785	153.500000
270.484772	153.160000
270.577789	153.520000
270.670776	153.060000
270.763763	152.940000
270.856750	152.780000
270.949768	152.780000
271.042786	152.640000
271.135773	152.600000
271.228790	153.180000
271.321808	152.660000
271.414795	152.460000
271.507782	152.380000
271.600800	152.080000
271.693817	151.940000
271.786804	152.300000
271.879822	152.800000
271.972809	152.880000
272.065826	153.540000
272.158844	152.980000
272.251831	153.540000
272.344849	153.380000
272.437866	153.300000
272.530853	153.140000
272.623871	153.680000
272.716888	152.260000
272.809906	152.560000
272.902893	152.580000
272.995911	151.980000
273.088928	151.860000
273.181946	152.800000
273.274963	152.400000
273.367981	152.640000
273.460999	152.840000
273.554047	153.360000
273.647003	153.880000
273.740051	154.160000
273.833069	154.460000
273.926086	155.000000
274.019135	154.500000
274.112152	153.780000
274.205170	154.120000
274.298187	154.360000
274.391205	153.720000
274.484222	153.800000
274.577240	153.720000
274.670258	153.140000
274.763306	152.660000
274.856323	153.200000
274.949341	153.300000
275.042358	153.800000
275.135406	153.840000
275.228424	153.720000
275.321442	153.660000
275.414490	153.200000
275.507507	153.300000
275.600525	153.860000
275.693573	153.820000
275.786591	153.340000
275.879669	153.660000
275.972656	153.140000
276.065735	152.580000
276.158752	153.520000
276.251801	154.380000
276.344818	154.680000
276.437866	154.800000
276.530884	154.580000
276.623932	153.180000
276.716980	153.060000
276.809998	152.720000
276.903046	152.940000
276.996094	154.080000
277.089111	154.800000
277.182159	155.260000
277.275208	155.180000
277.368256	155.060000
277.461304	154.300000
277.554321	153.860000
277.647369	153.400000
277.740417	153.420000
277.833466	153.180000
277.926514	153.180000
278.019562	153.740000
278.112610	152.980000
278.205688	153.220000
278.298706	153.300000
278.391785	152.960000
278.484833	152.440000
278.577881	152.660000
278.670929	153.020000
278.763977	153.320000
278.857025	153.680000
278.950073	153.640000
279.043121	153.560000
279.136169	152.860000
279.229248	152.380000
279.322296	152.980000
279.415344	152.980000
279.508392	153.140000
279.601440	153.240000
279.694519	153.200000
279.787567	152.820000
279.880615	152.700000
279.973694	152.520000
280.066742	152.760000
280.159790	152.900000
280.252869	152.260000
280.345917	152.860000
280.438995	153.020000
280.532074	152.500000
280.625122	152.960000
280.718201	154.120000
280.811279	153.620000
280.904327	153.500000
280.997406	154.100000
281.090454	153.680000
281.183533	152.720000
281.276581	152.840000
281.369659	152.880000
281.462738	152.940000
281.555786	153.300000
281.648865	153.540000
281.741943	153.800000
281.835022	154.260000
281.928070	153.860000
282.021149	153.640000
282.114227	153.420000
282.207306	153.020000
282.300385	153.060000
282.393433	153.420000
282.486511	153.300000
282.579590	153.900000
282.672668	154.060000
282.765747	153.640000
282.858856	153.180000
282.951904	153.300000
283.045013	153.220000
283.138062	153.680000
283.231171	153.680000
283.324249	154.000000
283.417328	154.140000
283.510406	153.680000
283.603485	153.460000
283.696564	153.560000
283.789642	153.640000
283.882751	153.440000
283.975830	154.100000
284.068909	153.820000
284.161987	154.280000
284.255066	153.840000
284.348175	153.900000
284.441254	153.480000
284.534332	154.060000
284.627441	153.500000
284.720520	153.460000
284.813599	153.520000
284.906708	153.680000
284.999786	152.780000
285.092896	152.340000
285.185974	153.300000
285.279053	152.800000
285.372192	152.660000
285.465240	153.660000
285.558380	153.860000
285.651459	153.160000
285.744568	154.340000
285.837677	154.240000
285.930756	153.860000
286.023865	154.040000
286.116943	153.740000
286.210052	153.520000
286.303162	153.700000
286.396240	153.720000
286.489349	153.540000
286.582458	154.120000
286.675568	153.400000
286.768646	153.420000
286.861755	153.520000
286.954865	154.320000
287.047974	153.560000
287.141083	153.720000
287.234161	153.280000
287.327271	153.280000
287.420380	153.280000
287.513519	153.320000
287.606598	153.460000
287.699738	153.740000
287.792816	153.240000
287.885956	153.220000
287.979034	153.380000
288.072174	153.380000
288.165283	153.380000
288.258392	154.020000
288.351501	153.340000
288.444611	153.700000
288.537720	154.060000
288.630859	153.980000
288.723969	153.900000
288.817078	154.420000
288.910187	154.520000
289.003296	153.960000
289.096436	153.540000
289.189545	153.380000
289.282654	152.820000
289.375763	152.820000
289.468903	153.200000
289.562012	153.900000
289.655121	153.780000
289.748260	154.080000
289.841400	154.560000
289.934509	154.360000
290.027649	154.540000
290.120728	154.480000
290.213898	154.480000
290.306976	153.760000
290.400146	153.840000
290.493256	152.960000
290.586395	153.080000
290.679535	153.520000
290.772644	153.820000
290.865784	152.900000
290.958893	152.820000
291.052032	152.560000
291.145172	152.120000
291.238281	151.680000
291.331421	152.240000
291.424561	153.060000
291.517670	153.100000
291.610809	153.320000
291.703949	153.100000
291.797089	153.420000
291.890228	152.880000
291.983337	152.940000
292.076477	152.840000
292.169617	153.320000
292.262756	153.080000
292.355927	153.220000
292.449036	153.180000
292.542206	153.000000
292.635315	153.020000
292.728485	153.700000
292.821625	153.560000
292.914764	154.580000
293.007904	154.780000
293.101044	154.940000
293.194183	154.380000
293.287323	154.420000
293.380463	153.460000
293.473602	153.280000
293.566742	153.160000
293.659882	153.400000
293.753021	153.720000
293.846191	153.780000
293.939331	153.280000
294.032471	153.280000
294.125610	152.980000
294.218781	152.900000
294.311920	153.520000
294.405060	154.140000
294.498230	154.160000
294.591370	154.360000
294.684540	153.900000
294.777679	153.180000
294.870850	153.340000
294.963959	153.280000
295.057159	153.020000
295.150299	153.700000
295.243469	153.600000
295.336609	152.900000
295.429779	153.120000
295.522919	153.700000
295.616089	153.360000
295.709229	153.860000
295.802399	154.380000
295.895569	153.940000
295.988708	153.420000
296.081879	153.660000
296.175018	153.300000
296.268188	153.280000
296.361359	153.860000
296.454529	153.960000
296.547668	153.780000
296.640839	154.020000
296.734009	153.620000
296.827179	153.480000
296.920319	153.680000
297.013519	153.380000
297.106659	153.520000
297.199860	153.600000
297.292999	153.560000
297.386200	153.340000
297.479309	153.340000
297.572510	153.160000
297.665680	152.940000
297.758850	152.660000
297.852020	152.740000
297.945190	152.820000
298.038361	152.180000
298.131531	153.360000
298.224701	153.400000
298.317871	153.060000
298.411072	152.700000
298.504242	152.960000
298.597412	152.140000
298.690582	152.360000
298.783752	152.540000
298.876923	152.940000
298.970093	153.000000
299.063293	153.420000
299.156464	153.520000
299.249634	153.720000
299.342834	154.140000
299.436005	154.460000
299.529205	154.280000
299.622345	154.160000
299.715576	153.340000
299.808716	152.640000
299.901917	152.540000
299.995117	152.500000
300.088287	152.540000
300.181488	152.700000
300.274658	152.820000
300.367828	152.920000
300.461029	153.200000
300.554199	153.160000
300.647400	153.600000
300.740601	154.300000
300.833771	153.960000
300.926971	153.920000
301.020142	153.580000
301.113342	153.400000
301.206512	153.080000
301.299713	153.420000
301.392914	152.940000
301.486084	153.540000
301.579285	153.600000
301.672516	153.900000
301.765686	153.520000
301.858887	154.020000
301.952057	153.780000
302.045288	153.960000
302.138458	153.520000
302.231659	153.660000
302.324860	153.460000
302.418060	152.960000
302.511261	152.680000
302.604462	153.200000
302.697662	153.260000
302.790863	153.060000
302.884064	152.900000
302.977264	153.140000
303.070465	152.900000
303.163666	153.420000
303.256866	153.700000
303.350067	153.960000
303.443268	153.760000
303.536469	153.860000
303.629669	153.100000
303.722870	153.080000
303.816071	153.180000
303.909271	153.340000
304.002472	152.380000
304.095673	152.280000
304.188934	151.680000
304.282104	152.540000
304.375336	152.620000
304.468506	153.080000
304.561768	153.260000
304.654968	153.900000
304.748169	153.100000
304.841370	152.840000
304.934601	153.520000
305.027802	153.280000
305.121002	152.940000
305.214233	153.200000
305.307434	153.500000
305.400665	153.600000
305.493866	153.740000
