Model Number: SPM-002-B   
Serial Number: 70087108
Firmware Version: 004.15.4
Exposure Time: 100000.000000us
Data Taken on: 11-12-2020 18:43:11.446
Wavelength	Amplitude
221.570786	0.000000
221.663406	0.000000
221.756027	0.000000
221.848648	0.000000
221.941269	0.000000
222.033905	0.000000
222.126526	0.000000
222.219162	0.000000
222.311798	0.000000
222.404419	0.000000
222.497055	0.000000
222.589676	0.000000
222.682312	0.000000
222.774933	0.000000
222.867569	0.000000
222.960205	0.000000
223.052841	0.000000
223.145462	0.000000
223.238098	0.000000
223.330734	0.000000
223.423386	0.000000
223.516022	0.000000
223.608658	0.000000
223.701309	0.000000
223.793945	0.000000
223.886581	0.000000
223.979218	0.000000
224.071869	0.000000
224.164505	0.000000
224.257156	0.000000
224.349792	0.000000
224.442444	0.000000
224.535095	0.000000
224.627747	0.000000
224.720398	0.000000
224.813034	0.000000
224.905685	0.000000
224.998337	144.940000
225.090988	144.740000
225.183640	144.960000
225.276291	144.980000
225.368942	145.440000
225.461594	145.920000
225.554245	145.940000
225.646912	145.700000
225.739578	146.140000
225.832230	146.440000
225.924896	145.500000
226.017548	145.940000
226.110199	146.760000
226.202866	145.820000
226.295532	145.500000
226.388184	146.000000
226.480850	144.980000
226.573517	144.120000
226.666168	144.860000
226.758835	144.980000
226.851501	145.040000
226.944183	145.700000
227.036850	145.340000
227.129517	145.220000
227.222183	145.260000
227.314850	145.460000
227.407516	145.680000
227.500198	146.720000
227.592865	146.100000
227.685532	145.980000
227.778214	145.460000
227.870880	145.780000
227.963562	146.020000
228.056229	146.640000
228.148926	146.460000
228.241592	147.500000
228.334274	146.940000
228.426956	146.420000
228.519638	146.900000
228.612305	146.740000
228.704987	146.300000
228.797668	146.480000
228.890350	146.300000
228.983032	145.260000
229.075714	146.140000
229.168396	145.780000
229.261108	145.520000
229.353790	145.720000
229.446472	146.040000
229.539169	145.260000
229.631851	144.820000
229.724533	145.000000
229.817230	145.320000
229.909912	146.240000
230.002609	146.780000
230.095306	146.900000
230.187988	146.860000
230.280685	146.560000
230.373383	145.260000
230.466095	145.220000
230.558792	145.740000
230.651474	145.620000
230.744171	145.500000
230.836868	145.980000
230.929581	145.880000
231.022278	145.740000
231.114975	145.860000
231.207672	145.860000
231.300369	146.300000
231.393082	146.440000
231.485779	146.580000
231.578506	146.660000
231.671204	146.800000
231.763916	146.620000
231.856613	146.520000
231.949326	146.420000
232.042023	146.180000
232.134735	146.020000
232.227448	145.760000
232.320160	146.100000
232.412872	145.960000
232.505585	146.660000
232.598297	146.960000
232.691010	146.740000
232.783722	145.820000
232.876450	146.280000
232.969162	145.600000
233.061874	145.300000
233.154587	145.320000
233.247314	145.860000
233.340027	145.480000
233.432739	146.120000
233.525467	145.860000
233.618179	146.180000
233.710907	145.900000
233.803635	146.200000
233.896347	145.820000
233.989090	146.500000
234.081818	146.180000
234.174545	146.440000
234.267258	145.940000
234.359985	146.040000
234.452713	145.860000
234.545441	145.800000
234.638168	145.640000
234.730896	146.340000
234.823639	146.000000
234.916367	146.520000
235.009094	146.740000
235.101822	147.000000
235.194580	146.600000
235.287308	146.760000
235.380051	145.620000
235.472778	146.000000
235.565521	146.340000
235.658249	146.160000
235.750992	146.260000
235.843719	146.620000
235.936462	146.500000
236.029205	145.900000
236.121948	145.760000
236.214691	146.080000
236.307449	146.740000
236.400192	146.340000
236.492935	146.600000
236.585678	147.160000
236.678421	146.760000
236.771164	146.320000
236.863907	147.140000
236.956665	147.260000
237.049408	148.380000
237.142151	148.160000
237.234909	148.820000
237.327652	148.340000
237.420410	147.940000
237.513153	146.860000
237.605927	146.600000
237.698669	145.820000
237.791428	145.120000
237.884186	145.280000
237.976944	144.940000
238.069702	145.500000
238.162445	145.080000
238.255203	145.540000
238.347961	145.860000
238.440720	145.800000
238.533478	145.540000
238.626266	145.420000
238.719025	145.500000
238.811783	145.200000
238.904541	145.080000
238.997314	145.060000
239.090073	145.100000
239.182831	145.220000
239.275604	145.880000
239.368362	145.900000
239.461136	145.920000
239.553909	146.100000
239.646667	145.920000
239.739441	145.240000
239.832214	145.540000
239.925003	145.780000
240.017761	146.600000
240.110535	147.000000
240.203308	146.880000
240.296082	147.080000
240.388855	146.900000
240.481628	146.460000
240.574417	146.700000
240.667191	146.480000
240.759964	146.020000
240.852737	146.020000
240.945526	145.780000
241.038315	145.460000
241.131088	146.200000
241.223877	146.580000
241.316650	146.220000
241.409439	146.700000
241.502228	146.320000
241.595001	146.380000
241.687790	145.940000
241.780579	146.120000
241.873367	146.260000
241.966141	146.440000
242.058929	145.700000
242.151718	145.900000
242.244507	146.360000
242.337311	145.440000
242.430099	145.920000
242.522903	146.540000
242.615692	146.080000
242.708481	146.080000
242.801270	146.680000
242.894073	146.180000
242.986862	146.080000
243.079651	146.900000
243.172455	146.720000
243.265244	146.960000
243.358063	146.660000
243.450867	146.660000
243.543655	146.400000
243.636459	146.440000
243.729263	146.180000
243.822067	146.600000
243.914856	146.900000
244.007660	146.900000
244.100464	146.960000
244.193268	146.940000
244.286072	146.860000
244.378876	146.360000
244.471680	146.140000
244.564499	146.220000
244.657318	146.760000
244.750122	147.040000
244.842926	146.460000
244.935745	146.580000
245.028549	146.240000
245.121368	145.740000
245.214172	145.540000
245.306992	146.280000
245.399796	146.080000
245.492615	146.240000
245.585434	146.080000
245.678253	145.900000
245.771072	145.680000
245.863892	146.240000
245.956711	146.340000
246.049530	146.200000
246.142349	146.180000
246.235168	146.160000
246.327988	146.360000
246.420807	146.040000
246.513626	146.080000
246.606445	145.940000
246.699280	146.060000
246.792099	145.760000
246.884918	145.580000
246.977753	145.380000
247.070587	145.620000
247.163422	145.500000
247.256241	145.240000
247.349075	145.800000
247.441895	146.160000
247.534729	146.320000
247.627563	146.200000
247.720383	146.920000
247.813217	146.800000
247.906052	146.480000
247.998886	146.120000
248.091736	146.340000
248.184570	145.800000
248.277405	145.480000
248.370239	146.660000
248.463074	147.460000
248.555908	147.480000
248.648743	147.280000
248.741592	147.520000
248.834427	146.640000
248.927261	145.920000
249.020111	146.280000
249.112946	146.640000
249.205795	146.560000
249.298630	146.640000
249.391495	146.400000
249.484344	145.940000
249.577179	145.780000
249.670029	146.000000
249.762878	146.500000
249.855728	146.840000
249.948563	147.120000
250.041412	146.620000
250.134262	146.820000
250.227112	146.620000
250.319962	146.900000
250.412827	146.900000
250.505692	146.800000
250.598541	146.580000
250.691391	146.120000
250.784241	145.920000
250.877106	145.900000
250.969955	145.580000
251.062805	145.820000
251.155670	146.760000
251.248520	146.360000
251.341385	146.520000
251.434235	147.000000
251.527100	146.740000
251.619965	146.060000
251.712814	147.140000
251.805695	147.060000
251.898560	147.220000
251.991425	147.360000
252.084290	147.320000
252.177155	146.060000
252.270020	145.560000
252.362885	145.640000
252.455750	145.780000
252.548615	145.600000
252.641479	146.020000
252.734360	146.160000
252.827240	146.160000
252.920105	145.940000
253.012970	145.840000
253.105850	145.960000
253.198715	145.760000
253.291595	145.840000
253.384460	145.360000
253.477341	145.580000
253.570221	145.900000
253.663086	145.860000
253.755966	146.240000
253.848846	146.480000
253.941727	146.600000
254.034592	146.000000
254.127472	145.680000
254.220367	145.620000
254.313248	145.860000
254.406128	145.160000
254.499008	145.640000
254.591904	146.660000
254.684784	146.820000
254.777664	146.660000
254.870544	146.940000
254.963440	146.880000
255.056335	146.860000
255.149216	146.160000
255.242111	146.640000
255.334991	147.080000
255.427887	147.100000
255.520767	146.940000
255.613663	147.200000
255.706558	146.300000
255.799438	145.580000
255.892334	145.280000
255.985229	144.800000
256.078125	144.780000
256.171021	145.360000
256.263916	146.060000
256.356812	146.140000
256.449707	146.660000
256.542603	146.420000
256.635498	146.640000
256.728394	146.280000
256.821289	146.200000
256.914215	146.280000
257.007080	146.860000
257.100006	146.700000
257.192932	147.340000
257.285828	147.580000
257.378723	147.120000
257.471619	146.720000
257.564545	146.260000
257.657440	146.020000
257.750336	146.380000
257.843262	146.280000
257.936157	147.380000
258.029053	147.820000
258.121979	147.800000
258.214874	147.320000
258.307800	147.240000
258.400696	145.960000
258.493622	145.760000
258.586517	145.280000
258.679443	145.440000
258.772339	145.200000
258.865265	145.060000
258.958160	144.580000
259.051086	145.140000
259.144012	145.200000
259.236938	146.100000
259.329834	146.400000
259.422791	146.760000
259.515717	146.140000
259.608612	145.600000
259.701538	145.700000
259.794464	145.560000
259.887390	145.600000
259.980316	145.540000
260.073212	145.460000
260.166138	144.380000
260.259064	144.620000
260.351990	145.380000
260.444916	145.620000
260.537842	146.240000
260.630768	147.000000
260.723694	146.840000
260.816620	146.360000
260.909546	146.160000
261.002472	145.600000
261.095398	144.860000
261.188354	144.880000
261.281281	144.180000
261.374207	144.380000
261.467133	145.240000
261.560089	145.740000
261.653015	145.600000
261.745972	146.660000
261.838867	147.040000
261.931824	146.840000
262.024780	146.340000
262.117706	146.540000
262.210663	146.260000
262.303589	145.880000
262.396515	145.660000
262.489471	146.840000
262.582397	146.940000
262.675354	146.320000
262.768280	146.380000
262.861237	146.440000
262.954163	146.100000
263.047119	146.100000
263.140045	146.280000
263.233002	146.500000
263.325958	146.240000
263.418884	145.420000
263.511841	145.240000
263.604797	145.160000
263.697723	145.040000
263.790680	144.960000
263.883636	145.680000
263.976593	145.800000
264.069550	145.920000
264.162476	145.620000
264.255463	145.840000
264.348419	145.660000
264.441376	146.000000
264.534332	145.620000
264.627289	145.800000
264.720245	146.120000
264.813202	145.900000
264.906158	145.660000
264.999115	146.080000
265.092072	146.220000
265.185028	146.440000
265.277985	146.520000
265.370941	146.620000
265.463898	146.440000
265.556854	146.140000
265.649811	145.080000
265.742798	145.320000
265.835754	144.820000
265.928711	145.300000
266.021667	145.360000
266.114655	146.040000
266.207611	146.020000
266.300568	145.760000
266.393585	145.300000
266.486511	145.760000
266.579498	145.000000
266.672485	144.840000
266.765442	145.100000
266.858429	145.820000
266.951385	145.280000
267.044342	145.880000
267.137329	146.020000
267.230316	146.340000
267.323273	145.540000
267.416260	146.160000
267.509216	146.160000
267.602203	146.400000
267.695160	146.900000
267.788147	147.420000
267.881134	147.240000
267.974091	147.280000
268.067078	147.000000
268.160065	146.480000
268.253052	146.260000
268.346008	145.940000
268.438995	145.840000
268.531982	145.720000
268.624969	145.460000
268.717987	145.740000
268.810944	145.760000
268.903961	145.980000
268.996948	146.020000
269.089905	146.660000
269.182892	146.560000
269.275879	146.860000
269.368866	146.240000
269.461853	146.400000
269.554871	146.460000
269.647858	146.280000
269.740845	146.420000
269.833832	146.940000
269.926819	146.460000
270.019806	146.440000
270.112793	146.240000
270.205811	146.460000
270.298798	146.140000
270.391785	147.040000
270.484772	146.380000
270.577789	146.640000
270.670776	146.160000
270.763763	146.300000
270.856750	146.040000
270.949768	145.980000
271.042786	146.000000
271.135773	146.040000
271.228790	146.260000
271.321808	145.520000
271.414795	145.380000
271.507782	145.200000
271.600800	144.860000
271.693817	144.720000
271.786804	145.600000
271.879822	146.060000
271.972809	146.200000
272.065826	146.900000
272.158844	146.740000
272.251831	147.020000
272.344849	146.940000
272.437866	146.520000
272.530853	146.120000
272.623871	146.580000
272.716888	145.280000
272.809906	145.300000
272.902893	145.420000
272.995911	144.940000
273.088928	144.580000
273.181946	145.380000
273.274963	145.080000
273.367981	144.960000
273.460999	145.260000
273.554047	145.500000
273.647003	145.780000
273.740051	145.920000
273.833069	146.560000
273.926086	146.760000
274.019135	146.460000
274.112152	145.820000
274.205170	145.740000
274.298187	145.900000
274.391205	145.220000
274.484222	145.120000
274.577240	145.580000
274.670258	145.640000
274.763306	145.060000
274.856323	146.060000
274.949341	146.260000
275.042358	146.620000
275.135406	146.560000
275.228424	146.860000
275.321442	146.420000
275.414490	146.400000
275.507507	146.300000
275.600525	146.800000
275.693573	146.380000
275.786591	145.900000
275.879669	146.100000
275.972656	145.760000
276.065735	145.560000
276.158752	146.180000
276.251801	147.320000
276.344818	147.200000
276.437866	147.400000
276.530884	147.000000
276.623932	146.120000
276.716980	146.060000
276.809998	145.860000
276.903046	145.720000
276.996094	146.680000
277.089111	147.220000
277.182159	147.480000
277.275208	147.360000
277.368256	147.000000
277.461304	146.780000
277.554321	146.260000
277.647369	145.820000
277.740417	146.060000
277.833466	146.020000
277.926514	145.560000
278.019562	146.320000
278.112610	145.580000
278.205688	145.640000
278.298706	145.780000
278.391785	145.700000
278.484833	145.100000
278.577881	145.440000
278.670929	145.660000
278.763977	145.900000
278.857025	146.360000
278.950073	146.600000
279.043121	146.420000
279.136169	146.120000
279.229248	145.740000
279.322296	145.640000
279.415344	145.460000
279.508392	145.640000
279.601440	145.680000
279.694519	145.420000
279.787567	145.000000
279.880615	144.880000
279.973694	144.840000
280.066742	144.680000
280.159790	145.260000
280.252869	145.240000
280.345917	145.560000
280.438995	145.480000
280.532074	145.580000
280.625122	145.720000
280.718201	146.480000
280.811279	146.360000
280.904327	146.300000
280.997406	146.400000
281.090454	146.280000
281.183533	145.760000
281.276581	145.840000
281.369659	145.580000
281.462738	146.040000
281.555786	146.160000
281.648865	145.960000
281.741943	145.900000
281.835022	146.900000
281.928070	146.120000
282.021149	145.860000
282.114227	145.980000
282.207306	146.040000
282.300385	146.060000
282.393433	146.360000
282.486511	146.380000
282.579590	146.840000
282.672668	147.420000
282.765747	146.720000
282.858856	146.620000
282.951904	146.980000
283.045013	146.920000
283.138062	146.780000
283.231171	147.240000
283.324249	147.560000
283.417328	147.360000
283.510406	147.140000
283.603485	146.860000
283.696564	146.400000
283.789642	146.460000
283.882751	145.940000
283.975830	146.260000
284.068909	146.100000
284.161987	146.800000
284.255066	146.260000
284.348175	146.940000
284.441254	146.720000
284.534332	147.200000
284.627441	146.840000
284.720520	146.540000
284.813599	146.300000
284.906708	146.320000
284.999786	145.660000
285.092896	145.240000
285.185974	146.360000
285.279053	145.900000
285.372192	145.720000
285.465240	146.360000
285.558380	146.380000
285.651459	145.660000
285.744568	146.580000
285.837677	146.200000
285.930756	145.840000
286.023865	145.880000
286.116943	145.900000
286.210052	145.580000
286.303162	145.940000
286.396240	145.940000
286.489349	145.760000
286.582458	146.260000
286.675568	145.800000
286.768646	145.720000
286.861755	146.000000
286.954865	146.780000
287.047974	145.940000
287.141083	146.200000
287.234161	146.060000
287.327271	145.760000
287.420380	146.020000
287.513519	146.200000
287.606598	146.080000
287.699738	146.460000
287.792816	146.160000
287.885956	145.660000
287.979034	145.680000
288.072174	146.100000
288.165283	145.780000
288.258392	146.280000
288.351501	145.680000
288.444611	145.920000
288.537720	145.800000
288.630859	145.420000
288.723969	145.440000
288.817078	146.060000
288.910187	145.840000
289.003296	145.320000
289.096436	145.500000
289.189545	145.460000
289.282654	144.780000
289.375763	145.340000
289.468903	146.080000
289.562012	146.580000
289.655121	146.440000
289.748260	146.660000
289.841400	146.580000
289.934509	146.040000
290.027649	146.040000
290.120728	146.060000
290.213898	146.460000
290.306976	146.240000
290.400146	146.740000
290.493256	146.320000
290.586395	146.320000
290.679535	146.360000
290.772644	146.260000
290.865784	145.440000
290.958893	145.460000
291.052032	145.140000
291.145172	144.980000
291.238281	144.740000
291.331421	145.040000
291.424561	145.640000
291.517670	145.760000
291.610809	145.960000
291.703949	145.820000
291.797089	145.960000
291.890228	145.380000
291.983337	145.280000
292.076477	145.040000
292.169617	145.640000
292.262756	145.900000
292.355927	146.200000
292.449036	146.340000
292.542206	146.440000
292.635315	146.120000
292.728485	146.260000
292.821625	145.800000
292.914764	146.920000
293.007904	146.900000
293.101044	146.900000
293.194183	146.560000
293.287323	146.720000
293.380463	145.860000
293.473602	145.700000
293.566742	145.860000
293.659882	146.060000
293.753021	146.340000
293.846191	146.080000
293.939331	145.840000
294.032471	145.960000
294.125610	145.600000
294.218781	145.940000
294.311920	146.620000
294.405060	146.980000
294.498230	146.940000
294.591370	147.080000
294.684540	146.580000
294.777679	145.720000
294.870850	146.220000
294.963959	145.840000
295.057159	145.480000
295.150299	145.700000
295.243469	146.000000
295.336609	145.020000
295.429779	145.620000
295.522919	146.400000
295.616089	146.240000
295.709229	146.680000
295.802399	147.180000
295.895569	146.340000
295.988708	146.260000
296.081879	146.620000
296.175018	146.060000
296.268188	146.140000
296.361359	147.280000
296.454529	146.820000
296.547668	146.680000
296.640839	147.200000
296.734009	146.840000
296.827179	146.300000
296.920319	146.920000
297.013519	146.420000
297.106659	146.120000
297.199860	146.200000
297.292999	146.100000
297.386200	145.820000
297.479309	145.840000
297.572510	145.780000
297.665680	145.680000
297.758850	146.080000
297.852020	145.840000
297.945190	145.540000
298.038361	145.180000
298.131531	146.060000
298.224701	145.680000
298.317871	145.220000
298.411072	144.960000
298.504242	145.040000
298.597412	144.400000
298.690582	144.680000
298.783752	144.880000
298.876923	145.800000
298.970093	145.880000
299.063293	146.060000
299.156464	146.020000
299.249634	146.400000
299.342834	146.340000
299.436005	146.780000
299.529205	146.560000
299.622345	146.580000
299.715576	146.160000
299.808716	145.640000
299.901917	145.500000
299.995117	145.880000
300.088287	146.040000
300.181488	145.900000
300.274658	146.400000
300.367828	146.260000
300.461029	146.160000
300.554199	146.360000
300.647400	146.720000
300.740601	147.140000
300.833771	147.320000
300.926971	147.460000
301.020142	146.660000
301.113342	146.900000
301.206512	146.560000
301.299713	146.520000
301.392914	146.560000
301.486084	147.040000
301.579285	146.540000
301.672516	146.760000
301.765686	146.360000
301.858887	145.860000
301.952057	145.780000
302.045288	146.000000
302.138458	145.740000
302.231659	146.000000
302.324860	145.760000
302.418060	145.700000
302.511261	145.580000
302.604462	145.740000
302.697662	145.480000
302.790863	145.900000
302.884064	145.480000
302.977264	145.560000
303.070465	146.040000
303.163666	146.740000
303.256866	147.020000
303.350067	147.280000
303.443268	147.220000
303.536469	146.940000
303.629669	146.280000
303.722870	146.080000
303.816071	145.880000
303.909271	145.820000
304.002472	144.920000
304.095673	144.960000
304.188934	144.300000
304.282104	145.100000
304.375336	145.220000
304.468506	145.500000
304.561768	145.240000
304.654968	146.060000
304.748169	145.540000
304.841370	145.540000
304.934601	145.960000
305.027802	145.980000
305.121002	145.560000
305.214233	145.680000
305.307434	145.560000
305.400665	146.000000
305.493866	146.000000
