Model Number: SPM-002-B   
Serial Number: 70087108
Firmware Version: 004.15.4
Exposure Time: 100000.000000us
Data Taken on: 11-12-2020 18:46:02.712
Wavelength	Amplitude
221.570786	0.000000
221.663406	0.000000
221.756027	0.000000
221.848648	0.000000
221.941269	0.000000
222.033905	0.000000
222.126526	0.000000
222.219162	0.000000
222.311798	0.000000
222.404419	0.000000
222.497055	0.000000
222.589676	0.000000
222.682312	0.000000
222.774933	0.000000
222.867569	0.000000
222.960205	0.000000
223.052841	0.000000
223.145462	0.000000
223.238098	0.000000
223.330734	0.000000
223.423386	0.000000
223.516022	0.000000
223.608658	0.000000
223.701309	0.000000
223.793945	0.000000
223.886581	0.000000
223.979218	0.000000
224.071869	0.000000
224.164505	0.000000
224.257156	0.000000
224.349792	0.000000
224.442444	0.000000
224.535095	0.000000
224.627747	0.000000
224.720398	0.000000
224.813034	0.000000
224.905685	0.000000
224.998337	145.780000
225.090988	145.680000
225.183640	145.320000
225.276291	145.240000
225.368942	145.560000
225.461594	146.160000
225.554245	146.360000
225.646912	146.480000
225.739578	146.740000
225.832230	147.160000
225.924896	145.960000
226.017548	146.500000
226.110199	146.960000
226.202866	146.200000
226.295532	146.020000
226.388184	146.580000
226.480850	145.580000
226.573517	145.020000
226.666168	145.420000
226.758835	145.540000
226.851501	145.980000
226.944183	146.360000
227.036850	146.200000
227.129517	146.400000
227.222183	146.600000
227.314850	146.360000
227.407516	146.520000
227.500198	146.920000
227.592865	146.540000
227.685532	146.180000
227.778214	145.640000
227.870880	145.900000
227.963562	146.340000
228.056229	146.660000
228.148926	146.440000
228.241592	147.440000
228.334274	147.160000
228.426956	146.860000
228.519638	146.980000
228.612305	146.860000
228.704987	146.800000
228.797668	146.660000
228.890350	146.440000
228.983032	145.900000
229.075714	146.640000
229.168396	146.140000
229.261108	145.820000
229.353790	145.660000
229.446472	145.800000
229.539169	145.560000
229.631851	145.460000
229.724533	145.900000
229.817230	146.160000
229.909912	147.220000
230.002609	147.080000
230.095306	147.120000
230.187988	147.020000
230.280685	146.980000
230.373383	145.740000
230.466095	145.700000
230.558792	145.940000
230.651474	146.200000
230.744171	145.860000
230.836868	145.820000
230.929581	146.220000
231.022278	145.900000
231.114975	145.660000
231.207672	145.760000
231.300369	146.320000
231.393082	146.220000
231.485779	146.300000
231.578506	146.220000
231.671204	146.460000
231.763916	146.260000
231.856613	145.880000
231.949326	146.100000
232.042023	145.980000
232.134735	145.700000
232.227448	145.320000
232.320160	145.680000
232.412872	145.600000
232.505585	146.440000
232.598297	147.080000
232.691010	147.400000
232.783722	146.720000
232.876450	147.100000
232.969162	146.420000
233.061874	145.600000
233.154587	145.180000
233.247314	145.660000
233.340027	145.160000
233.432739	145.600000
233.525467	145.480000
233.618179	145.980000
233.710907	145.840000
233.803635	146.180000
233.896347	145.880000
233.989090	146.980000
234.081818	146.900000
234.174545	147.040000
234.267258	146.580000
234.359985	146.700000
234.452713	146.140000
234.545441	146.100000
234.638168	145.880000
234.730896	146.420000
234.823639	146.420000
234.916367	146.620000
235.009094	146.800000
235.101822	146.980000
235.194580	146.800000
235.287308	146.580000
235.380051	146.300000
235.472778	146.480000
235.565521	146.620000
235.658249	146.100000
235.750992	146.260000
235.843719	146.280000
235.936462	146.280000
236.029205	145.960000
236.121948	146.140000
236.214691	146.220000
236.307449	146.840000
236.400192	146.400000
236.492935	146.560000
236.585678	146.880000
236.678421	147.000000
236.771164	146.840000
236.863907	147.460000
236.956665	147.560000
237.049408	148.960000
237.142151	148.300000
237.234909	148.600000
237.327652	148.220000
237.420410	148.080000
237.513153	146.940000
237.605927	147.040000
237.698669	146.520000
237.791428	146.220000
237.884186	146.420000
237.976944	145.720000
238.069702	146.040000
238.162445	145.420000
238.255203	145.340000
238.347961	145.540000
238.440720	146.020000
238.533478	145.860000
238.626266	145.940000
238.719025	146.220000
238.811783	146.000000
238.904541	145.520000
238.997314	145.640000
239.090073	145.800000
239.182831	146.060000
239.275604	146.700000
239.368362	147.060000
239.461136	147.180000
239.553909	147.220000
239.646667	147.000000
239.739441	146.320000
239.832214	146.140000
239.925003	145.900000
240.017761	146.320000
240.110535	146.800000
240.203308	146.700000
240.296082	147.040000
240.388855	147.280000
240.481628	147.180000
240.574417	146.940000
240.667191	147.080000
240.759964	146.760000
240.852737	146.400000
240.945526	146.140000
241.038315	146.020000
241.131088	146.120000
241.223877	146.260000
241.316650	145.880000
241.409439	146.320000
241.502228	145.860000
241.595001	146.080000
241.687790	145.940000
241.780579	146.500000
241.873367	146.400000
241.966141	146.800000
242.058929	146.320000
242.151718	146.380000
242.244507	146.540000
242.337311	145.700000
242.430099	146.040000
242.522903	146.440000
242.615692	146.320000
242.708481	146.320000
242.801270	146.980000
242.894073	146.700000
242.986862	146.560000
243.079651	147.080000
243.172455	146.760000
243.265244	146.920000
243.358063	146.620000
243.450867	146.800000
243.543655	146.380000
243.636459	146.540000
243.729263	146.780000
243.822067	147.220000
243.914856	147.320000
244.007660	147.500000
244.100464	147.280000
244.193268	146.600000
244.286072	146.300000
244.378876	145.860000
244.471680	145.580000
244.564499	146.120000
244.657318	146.960000
244.750122	147.220000
244.842926	146.680000
244.935745	147.180000
245.028549	146.720000
245.121368	146.100000
245.214172	145.600000
245.306992	146.540000
245.399796	146.040000
245.492615	146.340000
245.585434	146.000000
245.678253	146.260000
245.771072	145.860000
245.863892	146.240000
245.956711	146.280000
246.049530	146.480000
246.142349	146.280000
246.235168	146.380000
246.327988	146.800000
246.420807	146.480000
246.513626	146.720000
246.606445	146.600000
246.699280	146.160000
246.792099	145.300000
246.884918	145.360000
246.977753	144.680000
247.070587	144.840000
247.163422	145.000000
247.256241	145.240000
247.349075	145.440000
247.441895	146.020000
247.534729	145.940000
247.627563	146.000000
247.720383	146.600000
247.813217	146.260000
247.906052	145.800000
247.998886	145.960000
248.091736	145.920000
248.184570	145.380000
248.277405	145.500000
248.370239	146.520000
248.463074	147.420000
248.555908	147.660000
248.648743	147.580000
248.741592	147.800000
248.834427	147.240000
248.927261	145.880000
249.020111	146.100000
249.112946	146.900000
249.205795	146.380000
249.298630	146.380000
249.391495	146.820000
249.484344	146.300000
249.577179	145.540000
249.670029	145.820000
249.762878	146.420000
249.855728	146.760000
249.948563	146.900000
250.041412	146.580000
250.134262	146.780000
250.227112	146.280000
250.319962	146.180000
250.412827	146.120000
250.505692	145.960000
250.598541	145.740000
250.691391	145.700000
250.784241	145.780000
250.877106	145.780000
250.969955	146.080000
251.062805	146.740000
251.155670	147.220000
251.248520	146.920000
251.341385	147.260000
251.434235	147.120000
251.527100	146.580000
251.619965	145.900000
251.712814	146.600000
251.805695	146.640000
251.898560	146.920000
251.991425	147.160000
252.084290	147.500000
252.177155	146.520000
252.270020	146.340000
252.362885	146.280000
252.455750	146.360000
252.548615	146.100000
252.641479	146.060000
252.734360	145.940000
252.827240	145.760000
252.920105	145.580000
253.012970	145.400000
253.105850	145.620000
253.198715	145.520000
253.291595	145.880000
253.384460	145.620000
253.477341	145.680000
253.570221	146.080000
253.663086	145.780000
253.755966	146.140000
253.848846	146.100000
253.941727	146.560000
254.034592	146.420000
254.127472	146.180000
254.220367	145.840000
254.313248	145.980000
254.406128	145.240000
254.499008	145.320000
254.591904	146.520000
254.684784	147.100000
254.777664	147.140000
254.870544	147.140000
254.963440	147.000000
255.056335	146.620000
255.149216	145.840000
255.242111	146.480000
255.334991	146.920000
255.427887	146.980000
255.520767	146.860000
255.613663	147.140000
255.706558	146.320000
255.799438	146.180000
255.892334	145.800000
255.985229	145.680000
256.078125	145.500000
256.171021	145.640000
256.263916	146.040000
256.356812	146.440000
256.449707	146.740000
256.542603	146.420000
256.635498	146.760000
256.728394	146.360000
256.821289	146.240000
256.914215	146.300000
257.007080	146.740000
257.100006	146.960000
257.192932	147.480000
257.285828	147.640000
257.378723	147.320000
257.471619	147.120000
257.564545	146.480000
257.657440	146.520000
257.750336	146.800000
257.843262	146.400000
257.936157	147.420000
258.029053	147.720000
258.121979	147.380000
258.214874	146.780000
258.307800	147.160000
258.400696	145.920000
258.493622	146.000000
258.586517	145.320000
258.679443	145.800000
258.772339	145.600000
258.865265	145.860000
258.958160	145.320000
259.051086	146.280000
259.144012	146.020000
259.236938	146.900000
259.329834	147.020000
259.422791	147.080000
259.515717	146.600000
259.608612	146.500000
259.701538	146.060000
259.794464	145.760000
259.887390	145.780000
259.980316	145.440000
260.073212	145.100000
260.166138	144.360000
260.259064	144.780000
260.351990	145.520000
260.444916	145.860000
260.537842	146.500000
260.630768	147.060000
260.723694	146.680000
260.816620	146.160000
260.909546	145.900000
261.002472	145.500000
261.095398	145.360000
261.188354	145.540000
261.281281	145.260000
261.374207	145.460000
261.467133	146.060000
261.560089	146.460000
261.653015	146.400000
261.745972	147.220000
261.838867	147.740000
261.931824	147.880000
262.024780	147.260000
262.117706	147.160000
262.210663	146.960000
262.303589	146.880000
262.396515	146.960000
262.489471	147.860000
262.582397	148.040000
262.675354	147.620000
262.768280	147.640000
262.861237	147.220000
262.954163	147.000000
263.047119	147.240000
263.140045	146.740000
263.233002	146.340000
263.325958	146.100000
263.418884	145.360000
263.511841	145.180000
263.604797	145.340000
263.697723	145.440000
263.790680	145.860000
263.883636	146.520000
263.976593	146.340000
264.069550	146.640000
264.162476	146.340000
264.255463	145.880000
264.348419	145.740000
264.441376	146.060000
264.534332	145.800000
264.627289	146.220000
264.720245	146.700000
264.813202	146.300000
264.906158	146.100000
264.999115	146.600000
265.092072	146.420000
265.185028	146.740000
265.277985	147.000000
265.370941	146.760000
265.463898	146.780000
265.556854	146.620000
265.649811	145.800000
265.742798	145.800000
265.835754	146.060000
265.928711	146.120000
266.021667	146.440000
266.114655	146.640000
266.207611	146.880000
266.300568	146.160000
266.393585	145.820000
266.486511	145.740000
266.579498	145.200000
266.672485	145.160000
266.765442	145.400000
266.858429	145.820000
266.951385	145.500000
267.044342	145.840000
267.137329	145.640000
267.230316	146.080000
267.323273	145.560000
267.416260	146.260000
267.509216	146.340000
267.602203	146.300000
267.695160	146.860000
267.788147	147.100000
267.881134	146.340000
267.974091	146.340000
268.067078	146.360000
268.160065	145.680000
268.253052	145.640000
268.346008	145.860000
268.438995	145.700000
268.531982	145.900000
268.624969	145.820000
268.717987	146.040000
268.810944	146.040000
268.903961	146.300000
268.996948	145.780000
269.089905	146.280000
269.182892	146.240000
269.275879	146.740000
269.368866	145.900000
269.461853	146.300000
269.554871	146.180000
269.647858	146.100000
269.740845	146.200000
269.833832	147.120000
269.926819	146.840000
270.019806	146.980000
270.112793	146.740000
270.205811	146.640000
270.298798	146.300000
270.391785	147.060000
270.484772	146.700000
270.577789	146.620000
270.670776	146.020000
270.763763	146.120000
270.856750	145.660000
270.949768	145.460000
271.042786	145.540000
271.135773	145.820000
271.228790	145.880000
271.321808	145.900000
271.414795	145.840000
271.507782	145.800000
271.600800	145.640000
271.693817	145.660000
271.786804	145.860000
271.879822	145.960000
271.972809	145.840000
272.065826	146.340000
272.158844	146.160000
272.251831	146.540000
272.344849	146.780000
272.437866	146.820000
272.530853	146.580000
272.623871	146.740000
272.716888	145.660000
272.809906	145.880000
272.902893	145.860000
272.995911	145.320000
273.088928	145.140000
273.181946	145.680000
273.274963	145.260000
273.367981	145.360000
273.460999	145.920000
273.554047	146.520000
273.647003	146.760000
273.740051	146.700000
273.833069	146.880000
273.926086	147.040000
274.019135	146.580000
274.112152	146.160000
274.205170	146.400000
274.298187	146.860000
274.391205	146.360000
274.484222	146.500000
274.577240	146.480000
274.670258	146.360000
274.763306	146.080000
274.856323	146.200000
274.949341	146.320000
275.042358	146.880000
275.135406	146.780000
275.228424	146.500000
275.321442	146.640000
275.414490	146.360000
275.507507	146.500000
275.600525	147.080000
275.693573	146.800000
275.786591	146.600000
275.879669	146.600000
275.972656	146.040000
276.065735	145.960000
276.158752	146.380000
276.251801	147.140000
276.344818	147.260000
276.437866	147.460000
276.530884	147.060000
276.623932	146.760000
276.716980	146.440000
276.809998	146.460000
276.903046	146.440000
276.996094	146.900000
277.089111	147.600000
277.182159	147.980000
277.275208	147.720000
277.368256	147.460000
277.461304	147.100000
277.554321	146.120000
277.647369	145.640000
277.740417	145.600000
277.833466	145.600000
277.926514	145.360000
278.019562	146.360000
278.112610	145.780000
278.205688	146.200000
278.298706	146.440000
278.391785	146.360000
278.484833	145.720000
278.577881	145.980000
278.670929	146.240000
278.763977	146.200000
278.857025	147.040000
278.950073	146.800000
279.043121	146.580000
279.136169	146.400000
279.229248	146.200000
279.322296	145.840000
279.415344	145.840000
279.508392	145.880000
279.601440	145.680000
279.694519	145.620000
279.787567	145.560000
279.880615	145.420000
279.973694	145.560000
280.066742	145.460000
280.159790	145.740000
280.252869	145.420000
280.345917	146.140000
280.438995	146.180000
280.532074	146.220000
280.625122	146.220000
280.718201	147.180000
280.811279	146.980000
280.904327	146.920000
280.997406	147.000000
281.090454	147.120000
281.183533	146.200000
281.276581	146.040000
281.369659	146.060000
281.462738	146.220000
281.555786	146.280000
281.648865	146.380000
281.741943	146.280000
281.835022	146.640000
281.928070	146.240000
282.021149	145.860000
282.114227	146.060000
282.207306	146.460000
282.300385	146.580000
282.393433	146.880000
282.486511	147.100000
282.579590	147.260000
282.672668	147.140000
282.765747	146.600000
282.858856	146.300000
282.951904	146.300000
283.045013	146.120000
283.138062	146.420000
283.231171	146.780000
283.324249	147.440000
283.417328	147.340000
283.510406	147.120000
283.603485	147.000000
283.696564	146.880000
283.789642	146.500000
283.882751	146.480000
283.975830	147.220000
284.068909	146.680000
284.161987	147.080000
284.255066	146.600000
284.348175	146.760000
284.441254	146.500000
284.534332	147.060000
284.627441	146.500000
284.720520	146.520000
284.813599	146.360000
284.906708	146.060000
284.999786	145.360000
285.092896	145.200000
285.185974	146.200000
285.279053	145.740000
285.372192	145.940000
285.465240	146.660000
285.558380	146.900000
285.651459	146.320000
285.744568	147.320000
285.837677	147.060000
285.930756	146.800000
286.023865	146.880000
286.116943	146.620000
286.210052	146.300000
286.303162	146.100000
286.396240	146.160000
286.489349	145.940000
286.582458	146.280000
286.675568	145.660000
286.768646	145.900000
286.861755	146.180000
286.954865	146.840000
287.047974	146.540000
287.141083	146.840000
287.234161	146.660000
287.327271	146.320000
287.420380	146.460000
287.513519	146.200000
287.606598	146.260000
287.699738	146.400000
287.792816	146.280000
287.885956	145.980000
287.979034	146.180000
288.072174	146.540000
288.165283	146.540000
288.258392	146.940000
288.351501	146.500000
288.444611	146.900000
288.537720	147.160000
288.630859	147.000000
288.723969	146.880000
288.817078	147.320000
288.910187	146.980000
289.003296	146.120000
289.096436	145.780000
289.189545	145.840000
289.282654	145.200000
289.375763	145.640000
289.468903	146.160000
289.562012	146.780000
289.655121	146.540000
289.748260	146.940000
289.841400	147.020000
289.934509	146.880000
290.027649	146.860000
290.120728	146.440000
290.213898	146.140000
290.306976	145.920000
290.400146	145.980000
290.493256	145.660000
290.586395	146.040000
290.679535	146.480000
290.772644	146.260000
290.865784	145.520000
290.958893	145.520000
291.052032	145.660000
291.145172	145.600000
291.238281	145.460000
291.331421	145.940000
291.424561	146.400000
291.517670	146.100000
291.610809	146.180000
291.703949	146.180000
291.797089	146.340000
291.890228	145.960000
291.983337	146.000000
292.076477	145.760000
292.169617	146.040000
292.262756	145.920000
292.355927	145.520000
292.449036	145.200000
292.542206	145.320000
292.635315	145.220000
292.728485	145.600000
292.821625	145.700000
292.914764	146.940000
293.007904	146.700000
293.101044	146.720000
293.194183	146.360000
293.287323	146.680000
293.380463	146.000000
293.473602	145.940000
293.566742	146.220000
293.659882	146.740000
293.753021	147.160000
293.846191	146.980000
293.939331	146.880000
294.032471	146.700000
294.125610	146.420000
294.218781	146.400000
294.311920	147.180000
294.405060	147.460000
294.498230	147.420000
294.591370	147.440000
294.684540	146.700000
294.777679	145.740000
294.870850	146.160000
294.963959	146.020000
295.057159	145.580000
295.150299	146.080000
295.243469	146.140000
295.336609	145.320000
295.429779	145.380000
295.522919	145.900000
295.616089	146.100000
295.709229	146.920000
295.802399	147.280000
295.895569	147.000000
295.988708	146.640000
296.081879	146.660000
296.175018	145.860000
296.268188	145.840000
296.361359	146.060000
296.454529	146.220000
296.547668	145.900000
296.640839	146.060000
296.734009	145.940000
296.827179	146.260000
296.920319	146.600000
297.013519	146.420000
297.106659	146.600000
297.199860	146.680000
297.292999	146.660000
297.386200	146.260000
297.479309	146.360000
297.572510	146.320000
297.665680	145.880000
297.758850	145.780000
297.852020	145.720000
297.945190	145.600000
298.038361	145.260000
298.131531	146.360000
298.224701	146.180000
298.317871	146.020000
298.411072	145.740000
298.504242	145.780000
298.597412	145.100000
298.690582	145.300000
298.783752	145.440000
298.876923	146.120000
298.970093	146.320000
299.063293	146.860000
299.156464	147.280000
299.249634	147.300000
299.342834	147.140000
299.436005	147.480000
299.529205	147.120000
299.622345	146.860000
299.715576	146.680000
299.808716	146.320000
299.901917	146.000000
299.995117	146.340000
300.088287	146.400000
300.181488	146.200000
300.274658	146.280000
300.367828	146.360000
300.461029	146.020000
300.554199	145.860000
300.647400	146.200000
300.740601	146.780000
300.833771	146.540000
300.926971	146.800000
301.020142	146.540000
301.113342	146.500000
301.206512	146.220000
301.299713	146.760000
301.392914	146.660000
301.486084	147.100000
301.579285	146.820000
301.672516	147.400000
301.765686	147.180000
301.858887	146.920000
301.952057	146.700000
302.045288	147.020000
302.138458	146.500000
302.231659	146.180000
302.324860	145.920000
302.418060	145.840000
302.511261	145.900000
302.604462	145.840000
302.697662	145.680000
302.790863	145.960000
302.884064	145.760000
302.977264	145.500000
303.070465	145.740000
303.163666	146.700000
303.256866	147.160000
303.350067	147.060000
303.443268	147.140000
303.536469	147.240000
303.629669	146.580000
303.722870	146.540000
303.816071	146.620000
303.909271	146.600000
304.002472	145.860000
304.095673	145.840000
304.188934	144.760000
304.282104	145.760000
304.375336	145.940000
304.468506	146.020000
304.561768	145.760000
304.654968	146.640000
304.748169	145.580000
304.841370	145.440000
304.934601	146.100000
305.027802	145.860000
305.121002	145.620000
305.214233	145.840000
305.307434	145.740000
305.400665	146.340000
305.493866	146.720000
