Model Number: SPM-002-B   
Serial Number: 70087108
Firmware Version: 004.15.4
Exposure Time: 100000.000000us
Data Taken on: 11-12-2020 18:46:35.859
Wavelength	Amplitude
221.570786	0.000000
221.663406	0.000000
221.756027	0.000000
221.848648	0.000000
221.941269	0.000000
222.033905	0.000000
222.126526	0.000000
222.219162	0.000000
222.311798	0.000000
222.404419	0.000000
222.497055	0.000000
222.589676	0.000000
222.682312	0.000000
222.774933	0.000000
222.867569	0.000000
222.960205	0.000000
223.052841	0.000000
223.145462	0.000000
223.238098	0.000000
223.330734	0.000000
223.423386	0.000000
223.516022	0.000000
223.608658	0.000000
223.701309	0.000000
223.793945	0.000000
223.886581	0.000000
223.979218	0.000000
224.071869	0.000000
224.164505	0.000000
224.257156	0.000000
224.349792	0.000000
224.442444	0.000000
224.535095	0.000000
224.627747	0.000000
224.720398	0.000000
224.813034	0.000000
224.905685	0.000000
224.998337	145.380000
225.090988	145.080000
225.183640	144.760000
225.276291	144.620000
225.368942	145.260000
225.461594	145.980000
225.554245	146.180000
225.646912	146.600000
225.739578	147.200000
225.832230	147.280000
225.924896	146.380000
226.017548	146.440000
226.110199	146.600000
226.202866	145.720000
226.295532	145.720000
226.388184	145.560000
226.480850	144.980000
226.573517	144.760000
226.666168	145.180000
226.758835	145.100000
226.851501	145.980000
226.944183	146.400000
227.036850	146.020000
227.129517	146.120000
227.222183	146.220000
227.314850	146.100000
227.407516	146.360000
227.500198	147.260000
227.592865	147.000000
227.685532	146.760000
227.778214	146.340000
227.870880	146.440000
227.963562	146.500000
228.056229	146.860000
228.148926	146.900000
228.241592	147.560000
228.334274	146.980000
228.426956	146.380000
228.519638	146.260000
228.612305	145.820000
228.704987	145.800000
228.797668	146.080000
228.890350	145.740000
228.983032	145.160000
229.075714	145.980000
229.168396	145.300000
229.261108	144.920000
229.353790	145.080000
229.446472	145.400000
229.539169	144.860000
229.631851	144.860000
229.724533	145.300000
229.817230	145.660000
229.909912	146.560000
230.002609	146.740000
230.095306	146.700000
230.187988	146.640000
230.280685	146.440000
230.373383	145.300000
230.466095	145.140000
230.558792	145.480000
230.651474	145.460000
230.744171	145.120000
230.836868	145.340000
230.929581	145.660000
231.022278	145.980000
231.114975	145.940000
231.207672	146.000000
231.300369	146.520000
231.393082	146.340000
231.485779	146.060000
231.578506	146.280000
231.671204	146.480000
231.763916	146.260000
231.856613	146.180000
231.949326	146.340000
232.042023	145.960000
232.134735	145.740000
232.227448	145.580000
232.320160	145.980000
232.412872	145.780000
232.505585	146.360000
232.598297	146.800000
232.691010	146.620000
232.783722	145.900000
232.876450	146.380000
232.969162	146.100000
233.061874	145.660000
233.154587	145.640000
233.247314	146.300000
233.340027	145.520000
233.432739	145.560000
233.525467	145.600000
233.618179	145.860000
233.710907	145.420000
233.803635	146.000000
233.896347	145.760000
233.989090	146.500000
234.081818	146.260000
234.174545	146.600000
234.267258	146.240000
234.359985	146.620000
234.452713	146.120000
234.545441	146.020000
234.638168	145.660000
234.730896	145.920000
234.823639	145.500000
234.916367	146.180000
235.009094	146.380000
235.101822	146.500000
235.194580	146.760000
235.287308	146.920000
235.380051	145.960000
235.472778	146.600000
235.565521	147.100000
235.658249	146.600000
235.750992	146.860000
235.843719	147.080000
235.936462	146.760000
236.029205	145.980000
236.121948	145.360000
236.214691	145.320000
236.307449	145.760000
236.400192	145.220000
236.492935	145.460000
236.585678	146.040000
236.678421	145.940000
236.771164	145.640000
236.863907	146.520000
236.956665	146.480000
237.049408	147.920000
237.142151	147.500000
237.234909	148.000000
237.327652	147.720000
237.420410	147.720000
237.513153	146.780000
237.605927	146.900000
237.698669	146.440000
237.791428	145.780000
237.884186	146.260000
237.976944	145.660000
238.069702	146.200000
238.162445	145.760000
238.255203	145.780000
238.347961	145.980000
238.440720	146.100000
238.533478	145.580000
238.626266	145.500000
238.719025	145.860000
238.811783	145.620000
238.904541	145.800000
238.997314	145.760000
239.090073	145.700000
239.182831	146.100000
239.275604	146.760000
239.368362	146.540000
239.461136	146.860000
239.553909	147.040000
239.646667	146.540000
239.739441	145.920000
239.832214	146.040000
239.925003	145.960000
240.017761	146.780000
240.110535	147.240000
240.203308	146.680000
240.296082	146.760000
240.388855	146.900000
240.481628	146.660000
240.574417	146.660000
240.667191	146.940000
240.759964	146.560000
240.852737	146.380000
240.945526	145.720000
241.038315	145.700000
241.131088	146.080000
241.223877	146.300000
241.316650	145.840000
241.409439	146.420000
241.502228	145.620000
241.595001	145.840000
241.687790	145.740000
241.780579	146.060000
241.873367	146.040000
241.966141	146.580000
242.058929	145.860000
242.151718	145.920000
242.244507	146.380000
242.337311	145.760000
242.430099	146.180000
242.522903	146.480000
242.615692	146.320000
242.708481	146.120000
242.801270	146.800000
242.894073	146.360000
242.986862	146.220000
243.079651	146.740000
243.172455	146.320000
243.265244	146.240000
243.358063	145.820000
243.450867	146.140000
243.543655	146.120000
243.636459	146.320000
243.729263	146.440000
243.822067	146.660000
243.914856	146.900000
244.007660	146.960000
244.100464	147.020000
244.193268	146.700000
244.286072	146.800000
244.378876	146.180000
244.471680	145.480000
244.564499	145.820000
244.657318	146.500000
244.750122	146.640000
244.842926	146.200000
244.935745	146.860000
245.028549	146.220000
245.121368	145.600000
245.214172	145.400000
245.306992	146.280000
245.399796	145.940000
245.492615	146.340000
245.585434	146.140000
245.678253	146.000000
245.771072	145.640000
245.863892	146.040000
245.956711	146.180000
246.049530	146.160000
246.142349	146.440000
246.235168	146.500000
246.327988	146.840000
246.420807	146.520000
246.513626	146.680000
246.606445	146.280000
246.699280	146.160000
246.792099	145.360000
246.884918	145.200000
246.977753	145.200000
247.070587	145.320000
247.163422	145.140000
247.256241	145.240000
247.349075	145.640000
247.441895	145.140000
247.534729	145.160000
247.627563	145.160000
247.720383	145.960000
247.813217	145.960000
247.906052	146.320000
247.998886	146.640000
248.091736	146.800000
248.184570	146.360000
248.277405	146.300000
248.370239	147.060000
248.463074	147.760000
248.555908	148.040000
248.648743	147.900000
248.741592	147.900000
248.834427	147.180000
248.927261	146.120000
249.020111	146.340000
249.112946	146.820000
249.205795	146.600000
249.298630	146.680000
249.391495	146.540000
249.484344	146.320000
249.577179	145.920000
249.670029	146.180000
249.762878	146.800000
249.855728	147.140000
249.948563	147.120000
250.041412	146.580000
250.134262	146.700000
250.227112	146.560000
250.319962	146.680000
250.412827	146.400000
250.505692	146.320000
250.598541	146.080000
250.691391	145.680000
250.784241	145.700000
250.877106	145.880000
250.969955	146.040000
251.062805	146.740000
251.155670	147.300000
251.248520	146.940000
251.341385	147.140000
251.434235	146.800000
251.527100	146.020000
251.619965	145.240000
251.712814	146.100000
251.805695	146.120000
251.898560	146.700000
251.991425	147.000000
252.084290	147.260000
252.177155	146.360000
252.270020	145.800000
252.362885	145.600000
252.455750	145.500000
252.548615	145.320000
252.641479	145.740000
252.734360	145.840000
252.827240	145.560000
252.920105	145.520000
253.012970	145.580000
253.105850	145.440000
253.198715	145.240000
253.291595	145.680000
253.384460	145.440000
253.477341	145.420000
253.570221	145.480000
253.663086	145.460000
253.755966	145.740000
253.848846	145.720000
253.941727	146.000000
254.034592	145.860000
254.127472	145.420000
254.220367	145.400000
254.313248	145.740000
254.406128	145.120000
254.499008	144.980000
254.591904	146.260000
254.684784	146.540000
254.777664	146.280000
254.870544	146.240000
254.963440	146.600000
255.056335	146.360000
255.149216	146.040000
255.242111	146.620000
255.334991	147.220000
255.427887	147.160000
255.520767	146.980000
255.613663	146.960000
255.706558	146.080000
255.799438	145.840000
255.892334	145.580000
255.985229	145.440000
256.078125	145.460000
256.171021	146.200000
256.263916	146.680000
256.356812	146.960000
256.449707	147.100000
256.542603	146.760000
256.635498	147.000000
256.728394	146.580000
256.821289	146.180000
256.914215	146.440000
257.007080	146.780000
257.100006	146.820000
257.192932	147.120000
257.285828	147.460000
257.378723	147.260000
257.471619	147.060000
257.564545	146.560000
257.657440	146.520000
257.750336	147.000000
257.843262	146.700000
257.936157	147.720000
258.029053	147.940000
258.121979	148.140000
258.214874	147.420000
258.307800	147.500000
258.400696	146.440000
258.493622	146.260000
258.586517	145.420000
258.679443	145.940000
258.772339	145.520000
258.865265	145.600000
258.958160	145.120000
259.051086	146.120000
259.144012	146.080000
259.236938	147.160000
259.329834	147.100000
259.422791	147.180000
259.515717	146.240000
259.608612	145.760000
259.701538	145.520000
259.794464	145.460000
259.887390	145.260000
259.980316	145.460000
260.073212	145.420000
260.166138	144.460000
260.259064	144.940000
260.351990	145.760000
260.444916	145.880000
260.537842	146.380000
260.630768	147.320000
260.723694	147.220000
260.816620	147.080000
260.909546	147.140000
261.002472	146.660000
261.095398	146.120000
261.188354	145.940000
261.281281	145.560000
261.374207	145.520000
261.467133	146.500000
261.560089	146.540000
261.653015	146.280000
261.745972	146.720000
261.838867	147.100000
261.931824	146.700000
262.024780	146.220000
262.117706	146.440000
262.210663	146.800000
262.303589	146.520000
262.396515	146.340000
262.489471	147.480000
262.582397	147.600000
262.675354	146.680000
262.768280	146.760000
262.861237	147.060000
262.954163	146.680000
263.047119	146.680000
263.140045	146.700000
263.233002	146.500000
263.325958	145.980000
263.418884	145.600000
263.511841	145.560000
263.604797	146.020000
263.697723	146.000000
263.790680	146.300000
263.883636	146.760000
263.976593	146.420000
264.069550	146.300000
264.162476	146.160000
264.255463	146.120000
264.348419	145.860000
264.441376	146.220000
264.534332	145.900000
264.627289	146.200000
264.720245	146.700000
264.813202	146.300000
264.906158	146.500000
264.999115	147.000000
265.092072	147.060000
265.185028	146.980000
265.277985	147.340000
265.370941	147.040000
265.463898	146.740000
265.556854	146.180000
265.649811	145.380000
265.742798	145.600000
265.835754	145.620000
265.928711	146.280000
266.021667	146.480000
266.114655	146.720000
266.207611	146.760000
266.300568	146.260000
266.393585	145.300000
266.486511	145.540000
266.579498	145.080000
266.672485	144.840000
266.765442	145.140000
266.858429	145.800000
266.951385	145.540000
267.044342	145.820000
267.137329	145.900000
267.230316	146.280000
267.323273	145.660000
267.416260	146.400000
267.509216	146.400000
267.602203	146.060000
267.695160	146.140000
267.788147	146.360000
267.881134	145.540000
267.974091	145.840000
268.067078	145.940000
268.160065	145.640000
268.253052	145.520000
268.346008	145.780000
268.438995	145.400000
268.531982	145.580000
268.624969	145.480000
268.717987	146.000000
268.810944	146.080000
268.903961	146.380000
268.996948	146.360000
269.089905	146.720000
269.182892	146.560000
269.275879	146.640000
269.368866	146.220000
269.461853	146.300000
269.554871	146.100000
269.647858	146.180000
269.740845	146.160000
269.833832	146.880000
269.926819	146.560000
270.019806	146.720000
270.112793	146.200000
270.205811	146.240000
270.298798	145.720000
270.391785	146.380000
270.484772	145.800000
270.577789	146.060000
270.670776	145.500000
270.763763	145.380000
270.856750	145.360000
270.949768	145.400000
271.042786	145.760000
271.135773	146.000000
271.228790	146.480000
271.321808	145.980000
271.414795	146.320000
271.507782	145.680000
271.600800	145.640000
271.693817	145.580000
271.786804	146.000000
271.879822	145.960000
271.972809	146.040000
272.065826	146.540000
272.158844	146.220000
272.251831	146.800000
272.344849	146.860000
272.437866	146.740000
272.530853	146.600000
272.623871	146.940000
272.716888	145.680000
272.809906	145.820000
272.902893	145.920000
272.995911	145.440000
273.088928	145.220000
273.181946	145.740000
273.274963	145.480000
273.367981	145.720000
273.460999	145.940000
273.554047	146.600000
273.647003	147.160000
273.740051	147.360000
273.833069	147.660000
273.926086	147.860000
274.019135	147.320000
274.112152	146.600000
274.205170	146.460000
274.298187	146.360000
274.391205	145.800000
274.484222	145.940000
274.577240	146.140000
274.670258	146.220000
274.763306	146.100000
274.856323	146.920000
274.949341	146.960000
275.042358	147.340000
275.135406	147.120000
275.228424	147.080000
275.321442	146.860000
275.414490	146.500000
275.507507	146.440000
275.600525	146.800000
275.693573	146.540000
275.786591	146.080000
275.879669	146.260000
275.972656	145.920000
276.065735	145.600000
276.158752	146.260000
276.251801	146.960000
276.344818	147.120000
276.437866	147.380000
276.530884	147.320000
276.623932	146.400000
276.716980	146.360000
276.809998	146.260000
276.903046	145.940000
276.996094	146.760000
277.089111	147.620000
277.182159	147.940000
277.275208	147.640000
277.368256	147.780000
277.461304	147.500000
277.554321	146.840000
277.647369	146.600000
277.740417	146.700000
277.833466	146.580000
277.926514	146.220000
278.019562	147.020000
278.112610	146.460000
278.205688	146.620000
278.298706	146.680000
278.391785	146.480000
278.484833	145.900000
278.577881	146.140000
278.670929	146.280000
278.763977	146.460000
278.857025	146.920000
278.950073	147.080000
279.043121	146.600000
279.136169	146.480000
279.229248	146.000000
279.322296	145.960000
279.415344	145.520000
279.508392	145.880000
279.601440	145.640000
279.694519	145.580000
279.787567	145.220000
279.880615	145.140000
279.973694	144.660000
280.066742	144.920000
280.159790	145.100000
280.252869	144.920000
280.345917	145.180000
280.438995	145.420000
280.532074	145.160000
280.625122	145.820000
280.718201	146.500000
280.811279	146.720000
280.904327	146.680000
280.997406	147.100000
281.090454	146.740000
281.183533	146.440000
281.276581	146.240000
281.369659	146.340000
281.462738	146.300000
281.555786	146.640000
281.648865	146.700000
281.741943	146.520000
281.835022	147.280000
281.928070	146.820000
282.021149	146.460000
282.114227	146.420000
282.207306	146.680000
282.300385	146.440000
282.393433	146.840000
282.486511	146.800000
282.579590	147.280000
282.672668	147.560000
282.765747	147.060000
282.858856	146.840000
282.951904	146.700000
283.045013	146.560000
283.138062	146.660000
283.231171	147.120000
283.324249	147.620000
283.417328	147.680000
283.510406	146.960000
283.603485	146.760000
283.696564	146.620000
283.789642	146.520000
283.882751	146.260000
283.975830	147.160000
284.068909	146.840000
284.161987	147.380000
284.255066	146.740000
284.348175	147.080000
284.441254	146.900000
284.534332	147.160000
284.627441	146.440000
284.720520	146.340000
284.813599	146.340000
284.906708	146.180000
284.999786	145.520000
285.092896	145.200000
285.185974	146.440000
285.279053	145.880000
285.372192	145.620000
285.465240	146.680000
285.558380	146.940000
285.651459	146.220000
285.744568	147.180000
285.837677	146.960000
285.930756	146.700000
286.023865	146.760000
286.116943	146.340000
286.210052	146.340000
286.303162	146.320000
286.396240	146.160000
286.489349	145.940000
286.582458	146.180000
286.675568	145.640000
286.768646	145.880000
286.861755	146.180000
286.954865	147.100000
287.047974	146.660000
287.141083	146.520000
287.234161	146.260000
287.327271	145.760000
287.420380	145.700000
287.513519	145.780000
287.606598	146.000000
287.699738	146.320000
287.792816	146.460000
287.885956	146.100000
287.979034	146.500000
288.072174	146.360000
288.165283	146.300000
288.258392	146.360000
288.351501	145.620000
288.444611	145.700000
288.537720	146.020000
288.630859	145.900000
288.723969	146.000000
288.817078	146.520000
288.910187	146.320000
289.003296	146.060000
289.096436	145.660000
289.189545	145.240000
289.282654	144.940000
289.375763	145.420000
289.468903	145.540000
289.562012	146.060000
289.655121	146.120000
289.748260	146.320000
289.841400	146.380000
289.934509	146.340000
290.027649	146.380000
290.120728	146.440000
290.213898	146.400000
290.306976	146.060000
290.400146	146.020000
290.493256	145.680000
290.586395	146.140000
290.679535	146.500000
290.772644	146.340000
290.865784	145.840000
290.958893	145.980000
291.052032	145.520000
291.145172	145.360000
291.238281	145.020000
291.331421	145.440000
291.424561	145.860000
291.517670	145.800000
291.610809	146.080000
291.703949	146.460000
291.797089	146.520000
291.890228	145.980000
291.983337	146.180000
292.076477	145.920000
292.169617	146.180000
292.262756	146.140000
292.355927	146.200000
292.449036	145.800000
292.542206	145.980000
292.635315	146.100000
292.728485	146.280000
292.821625	145.960000
292.914764	147.120000
293.007904	147.020000
293.101044	146.700000
293.194183	146.660000
293.287323	147.240000
293.380463	146.620000
293.473602	146.520000
293.566742	146.920000
293.659882	147.140000
293.753021	147.260000
293.846191	147.020000
293.939331	146.580000
294.032471	146.240000
294.125610	145.960000
294.218781	146.300000
294.311920	146.340000
294.405060	146.760000
294.498230	146.640000
294.591370	146.760000
294.684540	145.920000
294.777679	145.820000
294.870850	146.140000
294.963959	146.040000
295.057159	145.860000
295.150299	146.240000
295.243469	146.400000
295.336609	145.720000
295.429779	145.840000
295.522919	146.240000
295.616089	146.060000
295.709229	146.680000
295.802399	146.920000
295.895569	146.600000
295.988708	146.260000
296.081879	146.400000
296.175018	145.660000
296.268188	145.760000
296.361359	146.240000
296.454529	146.600000
296.547668	146.620000
296.640839	146.660000
296.734009	146.200000
296.827179	146.580000
296.920319	146.680000
297.013519	146.300000
297.106659	146.420000
297.199860	146.560000
297.292999	146.040000
297.386200	145.660000
297.479309	145.760000
297.572510	145.700000
297.665680	145.600000
297.758850	145.840000
297.852020	145.460000
297.945190	145.640000
298.038361	145.560000
298.131531	146.360000
298.224701	146.040000
298.317871	146.180000
298.411072	145.600000
298.504242	145.480000
298.597412	145.060000
298.690582	145.300000
298.783752	145.580000
298.876923	146.460000
298.970093	146.780000
299.063293	147.080000
299.156464	147.500000
299.249634	147.360000
299.342834	147.360000
299.436005	147.360000
299.529205	147.020000
299.622345	146.920000
299.715576	146.560000
299.808716	146.140000
299.901917	146.160000
299.995117	146.380000
300.088287	146.280000
300.181488	146.260000
300.274658	146.280000
300.367828	146.380000
300.461029	146.420000
300.554199	146.480000
300.647400	146.480000
300.740601	147.140000
300.833771	146.820000
300.926971	147.120000
301.020142	146.600000
301.113342	146.940000
301.206512	146.320000
301.299713	146.780000
301.392914	146.260000
301.486084	146.580000
301.579285	146.460000
301.672516	146.900000
301.765686	146.560000
301.858887	146.700000
301.952057	146.540000
302.045288	146.640000
302.138458	146.100000
302.231659	146.080000
302.324860	145.840000
302.418060	145.380000
302.511261	145.280000
302.604462	145.560000
302.697662	145.560000
302.790863	145.460000
302.884064	145.340000
302.977264	145.280000
303.070465	145.520000
303.163666	145.980000
303.256866	146.420000
303.350067	146.920000
303.443268	147.140000
303.536469	147.300000
303.629669	146.560000
303.722870	146.840000
303.816071	146.660000
303.909271	146.400000
304.002472	145.640000
304.095673	145.460000
304.188934	144.340000
304.282104	145.160000
304.375336	145.460000
304.468506	145.560000
304.561768	145.600000
304.654968	146.700000
304.748169	146.240000
304.841370	145.980000
304.934601	146.520000
305.027802	146.300000
305.121002	145.620000
305.214233	145.820000
305.307434	145.800000
305.400665	146.140000
305.493866	146.360000
