Model Number: SPM-002-B   
Serial Number: 70087108
Firmware Version: 004.15.4
Exposure Time: 100000.000000us
Data Taken on: 11-12-2020 18:46:55.787
Wavelength	Amplitude
221.570786	0.000000
221.663406	0.000000
221.756027	0.000000
221.848648	0.000000
221.941269	0.000000
222.033905	0.000000
222.126526	0.000000
222.219162	0.000000
222.311798	0.000000
222.404419	0.000000
222.497055	0.000000
222.589676	0.000000
222.682312	0.000000
222.774933	0.000000
222.867569	0.000000
222.960205	0.000000
223.052841	0.000000
223.145462	0.000000
223.238098	0.000000
223.330734	0.000000
223.423386	0.000000
223.516022	0.000000
223.608658	0.000000
223.701309	0.000000
223.793945	0.000000
223.886581	0.000000
223.979218	0.000000
224.071869	0.000000
224.164505	0.000000
224.257156	0.000000
224.349792	0.000000
224.442444	0.000000
224.535095	0.000000
224.627747	0.000000
224.720398	0.000000
224.813034	0.000000
224.905685	0.000000
224.998337	145.900000
225.090988	145.680000
225.183640	145.440000
225.276291	145.380000
225.368942	145.780000
225.461594	146.060000
225.554245	146.480000
225.646912	146.720000
225.739578	147.120000
225.832230	147.340000
225.924896	146.620000
226.017548	146.860000
226.110199	147.340000
226.202866	147.020000
226.295532	146.720000
226.388184	146.800000
226.480850	145.940000
226.573517	145.200000
226.666168	145.320000
226.758835	145.680000
226.851501	146.340000
226.944183	146.760000
227.036850	146.680000
227.129517	146.840000
227.222183	146.800000
227.314850	146.660000
227.407516	146.920000
227.500198	147.640000
227.592865	147.180000
227.685532	146.740000
227.778214	146.640000
227.870880	146.640000
227.963562	146.660000
228.056229	147.160000
228.148926	147.220000
228.241592	147.860000
228.334274	147.580000
228.426956	147.320000
228.519638	147.300000
228.612305	146.980000
228.704987	146.840000
228.797668	146.700000
228.890350	146.440000
228.983032	145.660000
229.075714	146.540000
229.168396	146.120000
229.261108	145.780000
229.353790	145.860000
229.446472	146.400000
229.539169	145.800000
229.631851	145.440000
229.724533	146.040000
229.817230	146.380000
229.909912	147.300000
230.002609	147.720000
230.095306	147.840000
230.187988	147.840000
230.280685	147.540000
230.373383	146.240000
230.466095	145.840000
230.558792	146.000000
230.651474	145.780000
230.744171	145.840000
230.836868	146.240000
230.929581	146.560000
231.022278	146.740000
231.114975	146.900000
231.207672	146.800000
231.300369	147.120000
231.393082	147.040000
231.485779	146.800000
231.578506	146.680000
231.671204	146.820000
231.763916	146.640000
231.856613	146.540000
231.949326	146.980000
232.042023	147.000000
232.134735	146.800000
232.227448	146.460000
232.320160	146.760000
232.412872	146.380000
232.505585	147.240000
232.598297	147.720000
232.691010	147.940000
232.783722	147.320000
232.876450	148.120000
232.969162	147.180000
233.061874	146.560000
233.154587	146.120000
233.247314	146.680000
233.340027	145.700000
233.432739	146.240000
233.525467	146.120000
233.618179	146.440000
233.710907	146.060000
233.803635	146.680000
233.896347	146.200000
233.989090	147.180000
234.081818	147.280000
234.174545	147.420000
234.267258	146.840000
234.359985	147.120000
234.452713	146.700000
234.545441	146.200000
234.638168	146.200000
234.730896	146.700000
234.823639	146.440000
234.916367	146.820000
235.009094	147.360000
235.101822	147.420000
235.194580	147.240000
235.287308	147.340000
235.380051	146.600000
235.472778	146.660000
235.565521	146.980000
235.658249	146.760000
235.750992	146.740000
235.843719	146.900000
235.936462	147.120000
236.029205	146.440000
236.121948	145.920000
236.214691	146.120000
236.307449	147.060000
236.400192	146.520000
236.492935	146.580000
236.585678	146.860000
236.678421	146.820000
236.771164	145.920000
236.863907	146.580000
236.956665	146.860000
237.049408	148.560000
237.142151	148.300000
237.234909	149.140000
237.327652	148.760000
237.420410	148.360000
237.513153	147.220000
237.605927	147.160000
237.698669	146.440000
237.791428	145.920000
237.884186	146.660000
237.976944	146.060000
238.069702	146.520000
238.162445	146.080000
238.255203	146.420000
238.347961	146.360000
238.440720	146.700000
238.533478	146.400000
238.626266	146.560000
238.719025	146.860000
238.811783	146.820000
238.904541	146.760000
238.997314	146.620000
239.090073	146.400000
239.182831	146.120000
239.275604	146.700000
239.368362	146.300000
239.461136	146.560000
239.553909	146.840000
239.646667	146.840000
239.739441	146.500000
239.832214	146.900000
239.925003	146.700000
240.017761	147.280000
240.110535	147.920000
240.203308	147.180000
240.296082	147.600000
240.388855	147.600000
240.481628	147.520000
240.574417	147.480000
240.667191	147.700000
240.759964	147.340000
240.852737	147.160000
240.945526	146.560000
241.038315	146.400000
241.131088	146.540000
241.223877	146.980000
241.316650	146.860000
241.409439	147.460000
241.502228	146.900000
241.595001	147.240000
241.687790	146.720000
241.780579	146.920000
241.873367	146.980000
241.966141	147.360000
242.058929	146.820000
242.151718	146.880000
242.244507	147.400000
242.337311	146.540000
242.430099	147.040000
242.522903	147.560000
242.615692	147.320000
242.708481	147.260000
242.801270	147.980000
242.894073	147.380000
242.986862	147.160000
243.079651	147.620000
243.172455	147.420000
243.265244	147.500000
243.358063	147.360000
243.450867	147.720000
243.543655	147.640000
243.636459	147.420000
243.729263	147.560000
243.822067	147.740000
243.914856	147.460000
244.007660	147.520000
244.100464	147.680000
244.193268	147.040000
244.286072	146.960000
244.378876	146.540000
244.471680	145.960000
244.564499	146.060000
244.657318	146.880000
244.750122	147.000000
244.842926	146.960000
244.935745	147.480000
245.028549	146.960000
245.121368	146.400000
245.214172	146.260000
245.306992	146.360000
245.399796	146.100000
245.492615	146.360000
245.585434	146.120000
245.678253	146.040000
245.771072	146.100000
245.863892	146.480000
245.956711	146.840000
246.049530	146.700000
246.142349	146.460000
246.235168	146.720000
246.327988	147.160000
246.420807	146.880000
246.513626	146.940000
246.606445	146.840000
246.699280	146.540000
246.792099	146.040000
246.884918	145.620000
246.977753	145.400000
247.070587	145.780000
247.163422	145.860000
247.256241	145.840000
247.349075	146.460000
247.441895	146.660000
247.534729	146.500000
247.627563	146.380000
247.720383	146.740000
247.813217	146.400000
247.906052	146.580000
247.998886	146.560000
248.091736	146.540000
248.184570	146.160000
248.277405	146.120000
248.370239	146.680000
248.463074	147.600000
248.555908	147.700000
248.648743	147.320000
248.741592	147.660000
248.834427	147.120000
248.927261	145.980000
249.020111	146.380000
249.112946	147.280000
249.205795	146.720000
249.298630	146.900000
249.391495	147.260000
249.484344	147.120000
249.577179	146.780000
249.670029	147.200000
249.762878	147.480000
249.855728	147.560000
249.948563	147.240000
250.041412	146.720000
250.134262	147.040000
250.227112	146.980000
250.319962	146.840000
250.412827	147.200000
250.505692	146.920000
250.598541	146.700000
250.691391	146.180000
250.784241	146.300000
250.877106	146.240000
250.969955	146.240000
251.062805	146.740000
251.155670	147.480000
251.248520	146.940000
251.341385	147.100000
251.434235	147.340000
251.527100	146.740000
251.619965	146.120000
251.712814	147.220000
251.805695	146.840000
251.898560	147.060000
251.991425	147.280000
252.084290	147.540000
252.177155	146.940000
252.270020	146.800000
252.362885	146.960000
252.455750	146.840000
252.548615	146.520000
252.641479	146.260000
252.734360	146.300000
252.827240	145.900000
252.920105	146.240000
253.012970	146.160000
253.105850	146.400000
253.198715	146.360000
253.291595	146.560000
253.384460	146.040000
253.477341	145.900000
253.570221	146.220000
253.663086	146.140000
253.755966	146.720000
253.848846	146.940000
253.941727	147.600000
254.034592	147.500000
254.127472	147.160000
254.220367	146.880000
254.313248	146.800000
254.406128	146.100000
254.499008	146.100000
254.591904	147.200000
254.684784	147.600000
254.777664	147.700000
254.870544	147.820000
254.963440	147.880000
255.056335	147.360000
255.149216	146.920000
255.242111	147.360000
255.334991	147.580000
255.427887	147.540000
255.520767	147.620000
255.613663	147.620000
255.706558	146.980000
255.799438	146.640000
255.892334	146.320000
255.985229	146.240000
256.078125	146.100000
256.171021	146.160000
256.263916	146.620000
256.356812	147.060000
256.449707	147.260000
256.542603	147.180000
256.635498	147.900000
256.728394	147.840000
256.821289	147.420000
256.914215	147.380000
257.007080	147.580000
257.100006	147.480000
257.192932	147.740000
257.285828	147.780000
257.378723	147.440000
257.471619	147.360000
257.564545	146.440000
257.657440	146.320000
257.750336	146.760000
257.843262	146.600000
257.936157	147.440000
258.029053	148.080000
258.121979	148.140000
258.214874	147.600000
258.307800	147.820000
258.400696	146.840000
258.493622	146.700000
258.586517	145.960000
258.679443	146.600000
258.772339	146.260000
258.865265	146.120000
258.958160	145.700000
259.051086	146.680000
259.144012	146.180000
259.236938	146.940000
259.329834	146.960000
259.422791	147.160000
259.515717	146.520000
259.608612	146.300000
259.701538	146.320000
259.794464	146.400000
259.887390	146.060000
259.980316	146.020000
260.073212	145.940000
260.166138	145.080000
260.259064	145.580000
260.351990	146.360000
260.444916	146.500000
260.537842	146.980000
260.630768	147.600000
260.723694	147.400000
260.816620	147.240000
260.909546	147.400000
261.002472	147.260000
261.095398	146.900000
261.188354	146.620000
261.281281	146.100000
261.374207	146.080000
261.467133	146.500000
261.560089	146.640000
261.653015	146.460000
261.745972	147.060000
261.838867	147.260000
261.931824	147.200000
262.024780	146.880000
262.117706	147.380000
262.210663	147.440000
262.303589	147.000000
262.396515	146.940000
262.489471	147.860000
262.582397	147.680000
262.675354	147.280000
262.768280	147.500000
262.861237	147.480000
262.954163	147.220000
263.047119	147.360000
263.140045	147.100000
263.233002	146.960000
263.325958	146.820000
263.418884	146.200000
263.511841	146.060000
263.604797	146.220000
263.697723	146.360000
263.790680	146.400000
263.883636	147.100000
263.976593	146.820000
264.069550	146.880000
264.162476	146.420000
264.255463	146.400000
264.348419	146.000000
264.441376	146.720000
264.534332	146.520000
264.627289	147.000000
264.720245	147.540000
264.813202	147.400000
264.906158	147.080000
264.999115	147.560000
265.092072	147.500000
265.185028	147.520000
265.277985	147.960000
265.370941	147.780000
265.463898	147.620000
265.556854	147.400000
265.649811	146.560000
265.742798	146.180000
265.835754	146.320000
265.928711	146.580000
266.021667	146.660000
266.114655	146.860000
266.207611	147.080000
266.300568	146.660000
266.393585	145.920000
266.486511	146.140000
266.579498	145.400000
266.672485	145.580000
266.765442	145.660000
266.858429	146.480000
266.951385	146.120000
267.044342	146.800000
267.137329	146.480000
267.230316	146.920000
267.323273	146.460000
267.416260	147.260000
267.509216	146.960000
267.602203	147.000000
267.695160	147.320000
267.788147	147.220000
267.881134	146.440000
267.974091	147.020000
268.067078	146.820000
268.160065	146.320000
268.253052	146.280000
268.346008	146.620000
268.438995	146.420000
268.531982	146.760000
268.624969	146.500000
268.717987	147.040000
268.810944	146.960000
268.903961	147.000000
268.996948	146.740000
269.089905	147.200000
269.182892	146.920000
269.275879	147.040000
269.368866	146.520000
269.461853	146.760000
269.554871	146.900000
269.647858	147.060000
269.740845	147.400000
269.833832	147.740000
269.926819	147.600000
270.019806	147.480000
270.112793	146.960000
270.205811	146.660000
270.298798	146.460000
270.391785	146.840000
270.484772	146.500000
270.577789	146.680000
270.670776	146.360000
270.763763	146.720000
270.856750	146.500000
270.949768	146.140000
271.042786	146.440000
271.135773	146.480000
271.228790	146.440000
271.321808	146.020000
271.414795	146.000000
271.507782	145.580000
271.600800	145.360000
271.693817	145.280000
271.786804	145.980000
271.879822	146.400000
271.972809	146.700000
272.065826	147.380000
272.158844	147.000000
272.251831	147.200000
272.344849	147.240000
272.437866	146.820000
272.530853	146.880000
272.623871	147.540000
272.716888	146.480000
272.809906	146.660000
272.902893	146.960000
272.995911	146.240000
273.088928	145.960000
273.181946	146.460000
273.274963	146.440000
273.367981	146.240000
273.460999	146.560000
273.554047	147.000000
273.647003	147.580000
273.740051	147.480000
273.833069	148.000000
273.926086	148.080000
274.019135	147.640000
274.112152	147.080000
274.205170	147.200000
274.298187	147.120000
274.391205	146.720000
274.484222	146.640000
274.577240	146.680000
274.670258	146.440000
274.763306	146.000000
274.856323	146.580000
274.949341	146.800000
275.042358	147.160000
275.135406	147.140000
275.228424	147.340000
275.321442	147.000000
275.414490	146.520000
275.507507	146.640000
275.600525	147.060000
275.693573	147.080000
275.786591	146.740000
275.879669	147.020000
275.972656	146.460000
276.065735	146.080000
276.158752	146.840000
276.251801	147.700000
276.344818	148.120000
276.437866	148.460000
276.530884	148.320000
276.623932	147.240000
276.716980	147.140000
276.809998	146.960000
276.903046	146.720000
276.996094	147.680000
277.089111	148.140000
277.182159	148.440000
277.275208	148.120000
277.368256	147.960000
277.461304	147.380000
277.554321	146.860000
277.647369	146.400000
277.740417	146.500000
277.833466	146.440000
277.926514	146.000000
278.019562	146.740000
278.112610	146.180000
278.205688	146.300000
278.298706	146.560000
278.391785	146.440000
278.484833	145.760000
278.577881	145.920000
278.670929	146.060000
278.763977	145.960000
278.857025	146.620000
278.950073	146.680000
279.043121	146.800000
279.136169	146.580000
279.229248	146.420000
279.322296	146.300000
279.415344	146.200000
279.508392	146.320000
279.601440	146.340000
279.694519	146.240000
279.787567	146.080000
279.880615	145.980000
279.973694	145.640000
280.066742	145.680000
280.159790	145.940000
280.252869	145.820000
280.345917	146.300000
280.438995	146.620000
280.532074	146.780000
280.625122	147.200000
280.718201	148.040000
280.811279	148.040000
280.904327	147.560000
280.997406	147.200000
281.090454	146.820000
281.183533	146.200000
281.276581	145.980000
281.369659	146.080000
281.462738	146.520000
281.555786	146.620000
281.648865	146.500000
281.741943	146.280000
281.835022	147.340000
281.928070	146.900000
282.021149	146.640000
282.114227	146.580000
282.207306	146.820000
282.300385	146.520000
282.393433	146.800000
282.486511	147.020000
282.579590	147.500000
282.672668	148.100000
282.765747	147.700000
282.858856	147.440000
282.951904	147.480000
283.045013	147.480000
283.138062	147.520000
283.231171	147.620000
283.324249	148.240000
283.417328	148.440000
283.510406	148.020000
283.603485	147.500000
283.696564	147.380000
283.789642	147.240000
283.882751	146.840000
283.975830	147.280000
284.068909	147.080000
284.161987	148.040000
284.255066	147.340000
284.348175	147.280000
284.441254	146.820000
284.534332	147.580000
284.627441	146.740000
284.720520	146.660000
284.813599	147.080000
284.906708	147.300000
284.999786	146.260000
285.092896	146.100000
285.185974	147.120000
285.279053	146.300000
285.372192	146.140000
285.465240	146.880000
285.558380	146.820000
285.651459	146.260000
285.744568	147.220000
285.837677	146.860000
285.930756	146.900000
286.023865	146.800000
286.116943	146.580000
286.210052	146.600000
286.303162	146.620000
286.396240	146.260000
286.489349	146.160000
286.582458	146.500000
286.675568	146.100000
286.768646	146.380000
286.861755	146.880000
286.954865	147.700000
287.047974	147.400000
287.141083	147.320000
287.234161	147.100000
287.327271	146.600000
287.420380	146.540000
287.513519	146.720000
287.606598	146.720000
287.699738	147.020000
287.792816	147.280000
287.885956	146.900000
287.979034	146.540000
288.072174	146.620000
288.165283	146.520000
288.258392	146.700000
288.351501	146.220000
288.444611	146.660000
288.537720	147.060000
288.630859	146.860000
288.723969	146.900000
288.817078	147.440000
288.910187	147.140000
289.003296	146.680000
289.096436	146.460000
289.189545	146.060000
289.282654	145.640000
289.375763	146.040000
289.468903	146.400000
289.562012	146.920000
289.655121	146.840000
289.748260	147.060000
289.841400	147.420000
289.934509	147.340000
290.027649	147.420000
290.120728	147.580000
290.213898	147.500000
290.306976	147.100000
290.400146	147.160000
290.493256	146.720000
290.586395	146.780000
290.679535	147.320000
290.772644	147.000000
290.865784	146.140000
290.958893	146.300000
291.052032	146.000000
291.145172	145.780000
291.238281	145.680000
291.331421	146.300000
291.424561	146.840000
291.517670	147.000000
291.610809	147.200000
291.703949	147.140000
291.797089	147.180000
291.890228	146.700000
291.983337	146.840000
292.076477	146.420000
292.169617	146.780000
292.262756	146.720000
292.355927	146.760000
292.449036	146.420000
292.542206	146.300000
292.635315	146.400000
292.728485	146.500000
292.821625	145.940000
292.914764	146.920000
293.007904	147.020000
293.101044	147.080000
293.194183	146.840000
293.287323	147.360000
293.380463	146.520000
293.473602	146.320000
293.566742	146.320000
293.659882	147.000000
293.753021	147.180000
293.846191	147.280000
293.939331	147.100000
294.032471	146.880000
294.125610	146.480000
294.218781	146.660000
294.311920	146.800000
294.405060	147.400000
294.498230	147.440000
294.591370	147.400000
294.684540	146.820000
294.777679	146.300000
294.870850	146.340000
294.963959	146.080000
295.057159	145.880000
295.150299	146.060000
295.243469	146.360000
295.336609	145.740000
295.429779	145.860000
295.522919	146.360000
295.616089	146.620000
295.709229	146.900000
295.802399	147.220000
295.895569	147.020000
295.988708	146.520000
296.081879	146.500000
296.175018	146.100000
296.268188	146.160000
296.361359	146.540000
296.454529	146.820000
296.547668	146.760000
296.640839	147.160000
296.734009	146.740000
296.827179	146.980000
296.920319	146.920000
297.013519	146.960000
297.106659	146.820000
297.199860	146.960000
297.292999	146.720000
297.386200	146.600000
297.479309	146.080000
297.572510	145.960000
297.665680	145.960000
297.758850	145.900000
297.852020	145.740000
297.945190	145.920000
298.038361	145.680000
298.131531	146.640000
298.224701	146.580000
298.317871	146.160000
298.411072	145.580000
298.504242	145.480000
298.597412	144.660000
298.690582	144.820000
298.783752	145.440000
298.876923	146.260000
298.970093	146.600000
299.063293	147.160000
299.156464	147.680000
299.249634	147.960000
299.342834	148.080000
299.436005	148.220000
299.529205	147.880000
299.622345	147.480000
299.715576	146.760000
299.808716	146.320000
299.901917	146.440000
299.995117	146.920000
300.088287	147.040000
300.181488	146.860000
300.274658	147.020000
300.367828	146.940000
300.461029	146.640000
300.554199	146.900000
300.647400	147.280000
300.740601	147.760000
300.833771	147.460000
300.926971	147.340000
301.020142	146.700000
301.113342	146.620000
301.206512	146.220000
301.299713	146.640000
301.392914	146.800000
301.486084	147.100000
301.579285	147.200000
301.672516	147.620000
301.765686	147.420000
301.858887	147.440000
301.952057	147.420000
302.045288	147.380000
302.138458	146.980000
302.231659	146.840000
302.324860	146.420000
302.418060	146.100000
302.511261	146.100000
302.604462	146.440000
302.697662	146.280000
302.790863	146.240000
302.884064	146.140000
302.977264	146.040000
303.070465	146.200000
303.163666	147.040000
303.256866	147.560000
303.350067	147.460000
303.443268	147.600000
303.536469	147.440000
303.629669	146.700000
303.722870	146.760000
303.816071	146.640000
303.909271	146.620000
304.002472	145.820000
304.095673	145.700000
304.188934	144.960000
304.282104	146.160000
304.375336	146.040000
304.468506	146.300000
304.561768	146.100000
304.654968	146.460000
304.748169	145.640000
304.841370	145.540000
304.934601	145.980000
305.027802	146.120000
305.121002	145.820000
305.214233	145.760000
305.307434	145.960000
305.400665	146.440000
305.493866	146.320000
