Model Number: SPM-002-B   
Serial Number: 70087108
Firmware Version: 004.15.4
Exposure Time: 100000.000000us
Data Taken on: 11-12-2020 18:47:29.294
Wavelength	Amplitude
221.570786	0.000000
221.663406	0.000000
221.756027	0.000000
221.848648	0.000000
221.941269	0.000000
222.033905	0.000000
222.126526	0.000000
222.219162	0.000000
222.311798	0.000000
222.404419	0.000000
222.497055	0.000000
222.589676	0.000000
222.682312	0.000000
222.774933	0.000000
222.867569	0.000000
222.960205	0.000000
223.052841	0.000000
223.145462	0.000000
223.238098	0.000000
223.330734	0.000000
223.423386	0.000000
223.516022	0.000000
223.608658	0.000000
223.701309	0.000000
223.793945	0.000000
223.886581	0.000000
223.979218	0.000000
224.071869	0.000000
224.164505	0.000000
224.257156	0.000000
224.349792	0.000000
224.442444	0.000000
224.535095	0.000000
224.627747	0.000000
224.720398	0.000000
224.813034	0.000000
224.905685	0.000000
224.998337	146.360000
225.090988	145.960000
225.183640	146.220000
225.276291	146.140000
225.368942	146.060000
225.461594	146.540000
225.554245	146.480000
225.646912	146.300000
225.739578	146.840000
225.832230	147.200000
225.924896	146.420000
226.017548	146.940000
226.110199	147.320000
226.202866	146.540000
226.295532	146.420000
226.388184	146.100000
226.480850	145.500000
226.573517	145.120000
226.666168	145.620000
226.758835	145.940000
226.851501	146.940000
226.944183	146.880000
227.036850	146.540000
227.129517	146.020000
227.222183	146.200000
227.314850	145.920000
227.407516	146.280000
227.500198	147.300000
227.592865	147.460000
227.685532	146.960000
227.778214	146.520000
227.870880	146.840000
227.963562	146.760000
228.056229	147.020000
228.148926	146.940000
228.241592	147.980000
228.334274	147.660000
228.426956	147.200000
228.519638	147.340000
228.612305	147.380000
228.704987	146.980000
228.797668	147.040000
228.890350	146.980000
228.983032	146.100000
229.075714	146.560000
229.168396	146.200000
229.261108	145.880000
229.353790	145.940000
229.446472	146.600000
229.539169	146.040000
229.631851	145.900000
229.724533	146.040000
229.817230	146.180000
229.909912	147.120000
230.002609	147.500000
230.095306	147.540000
230.187988	147.660000
230.280685	147.460000
230.373383	146.340000
230.466095	145.920000
230.558792	146.500000
230.651474	146.460000
230.744171	146.200000
230.836868	146.000000
230.929581	146.560000
231.022278	146.100000
231.114975	146.120000
231.207672	146.480000
231.300369	147.120000
231.393082	147.000000
231.485779	146.780000
231.578506	146.620000
231.671204	146.540000
231.763916	146.200000
231.856613	146.080000
231.949326	146.480000
232.042023	146.580000
232.134735	146.620000
232.227448	146.460000
232.320160	146.620000
232.412872	146.520000
232.505585	147.280000
232.598297	147.620000
232.691010	147.500000
232.783722	147.060000
232.876450	147.600000
232.969162	146.920000
233.061874	146.260000
233.154587	146.180000
233.247314	146.640000
233.340027	145.820000
233.432739	146.380000
233.525467	146.440000
233.618179	146.760000
233.710907	146.360000
233.803635	147.180000
233.896347	146.540000
233.989090	147.240000
234.081818	147.200000
234.174545	147.500000
234.267258	146.780000
234.359985	146.940000
234.452713	146.620000
234.545441	146.480000
234.638168	146.360000
234.730896	146.880000
234.823639	146.960000
234.916367	147.160000
235.009094	147.320000
235.101822	147.000000
235.194580	146.700000
235.287308	146.700000
235.380051	145.980000
235.472778	146.300000
235.565521	146.880000
235.658249	146.580000
235.750992	146.560000
235.843719	146.980000
235.936462	146.880000
236.029205	146.260000
236.121948	145.880000
236.214691	146.380000
236.307449	146.780000
236.400192	146.560000
236.492935	146.680000
236.585678	147.280000
236.678421	147.000000
236.771164	146.900000
236.863907	147.420000
236.956665	147.720000
237.049408	149.240000
237.142151	148.480000
237.234909	148.940000
237.327652	148.420000
237.420410	148.220000
237.513153	146.900000
237.605927	147.120000
237.698669	146.580000
237.791428	146.260000
237.884186	146.600000
237.976944	146.060000
238.069702	146.500000
238.162445	146.000000
238.255203	146.180000
238.347961	146.460000
238.440720	146.960000
238.533478	146.480000
238.626266	146.180000
238.719025	146.480000
238.811783	146.160000
238.904541	146.020000
238.997314	146.000000
239.090073	145.860000
239.182831	145.840000
239.275604	146.520000
239.368362	146.500000
239.461136	147.080000
239.553909	147.660000
239.646667	147.500000
239.739441	146.740000
239.832214	146.980000
239.925003	146.920000
240.017761	147.360000
240.110535	147.940000
240.203308	147.740000
240.296082	147.860000
240.388855	147.720000
240.481628	147.480000
240.574417	147.260000
240.667191	147.220000
240.759964	146.700000
240.852737	146.420000
240.945526	146.200000
241.038315	145.840000
241.131088	145.960000
241.223877	146.280000
241.316650	146.380000
241.409439	146.720000
241.502228	146.360000
241.595001	146.880000
241.687790	146.760000
241.780579	146.780000
241.873367	146.820000
241.966141	147.300000
242.058929	146.580000
242.151718	146.740000
242.244507	147.260000
242.337311	146.480000
242.430099	146.880000
242.522903	146.980000
242.615692	146.440000
242.708481	146.160000
242.801270	146.920000
242.894073	146.640000
242.986862	146.880000
243.079651	147.720000
243.172455	147.200000
243.265244	147.140000
243.358063	146.660000
243.450867	146.760000
243.543655	146.200000
243.636459	146.520000
243.729263	146.840000
243.822067	147.360000
243.914856	147.640000
244.007660	147.760000
244.100464	147.640000
244.193268	146.800000
244.286072	146.520000
244.378876	145.840000
244.471680	145.620000
244.564499	145.960000
244.657318	147.020000
244.750122	147.300000
244.842926	147.040000
244.935745	147.540000
245.028549	146.880000
245.121368	146.400000
245.214172	146.180000
245.306992	146.860000
245.399796	146.460000
245.492615	146.980000
245.585434	146.620000
245.678253	146.620000
245.771072	146.380000
245.863892	146.800000
245.956711	146.820000
246.049530	146.900000
246.142349	146.640000
246.235168	146.840000
246.327988	147.220000
246.420807	146.980000
246.513626	146.960000
246.606445	146.720000
246.699280	146.320000
246.792099	145.760000
246.884918	145.700000
246.977753	145.360000
247.070587	145.840000
247.163422	145.940000
247.256241	145.880000
247.349075	146.260000
247.441895	146.480000
247.534729	146.320000
247.627563	146.000000
247.720383	146.480000
247.813217	146.120000
247.906052	145.920000
247.998886	145.920000
248.091736	146.080000
248.184570	145.660000
248.277405	145.720000
248.370239	146.780000
248.463074	147.780000
248.555908	148.200000
248.648743	148.000000
248.741592	148.020000
248.834427	147.360000
248.927261	146.160000
249.020111	146.360000
249.112946	147.040000
249.205795	147.000000
249.298630	147.440000
249.391495	147.760000
249.484344	147.000000
249.577179	146.640000
249.670029	146.620000
249.762878	146.640000
249.855728	147.000000
249.948563	147.440000
250.041412	146.740000
250.134262	147.400000
250.227112	147.520000
250.319962	147.420000
250.412827	147.300000
250.505692	147.360000
250.598541	147.080000
250.691391	146.480000
250.784241	146.440000
250.877106	146.800000
250.969955	146.560000
251.062805	146.940000
251.155670	147.380000
251.248520	147.200000
251.341385	147.120000
251.434235	147.580000
251.527100	147.200000
251.619965	146.800000
251.712814	147.480000
251.805695	147.220000
251.898560	147.360000
251.991425	147.260000
252.084290	147.520000
252.177155	146.380000
252.270020	146.360000
252.362885	146.300000
252.455750	146.400000
252.548615	146.000000
252.641479	146.380000
252.734360	146.520000
252.827240	146.320000
252.920105	146.220000
253.012970	146.260000
253.105850	146.060000
253.198715	145.980000
253.291595	146.360000
253.384460	145.980000
253.477341	145.840000
253.570221	146.220000
253.663086	145.780000
253.755966	146.300000
253.848846	146.600000
253.941727	146.900000
254.034592	146.780000
254.127472	146.480000
254.220367	145.880000
254.313248	145.820000
254.406128	145.620000
254.499008	146.080000
254.591904	147.300000
254.684784	147.960000
254.777664	147.840000
254.870544	147.540000
254.963440	147.300000
255.056335	146.800000
255.149216	146.340000
255.242111	146.940000
255.334991	147.420000
255.427887	147.420000
255.520767	147.200000
255.613663	147.240000
255.706558	146.560000
255.799438	146.360000
255.892334	145.860000
255.985229	145.820000
256.078125	145.580000
256.171021	145.660000
256.263916	146.140000
256.356812	146.600000
256.449707	147.060000
256.542603	147.260000
256.635498	147.740000
256.728394	147.260000
256.821289	146.920000
256.914215	147.100000
257.007080	146.980000
257.100006	147.040000
257.192932	147.320000
257.285828	147.600000
257.378723	147.340000
257.471619	147.300000
257.564545	146.620000
257.657440	146.660000
257.750336	147.460000
257.843262	147.140000
257.936157	148.000000
258.029053	148.600000
258.121979	148.720000
258.214874	147.600000
258.307800	147.620000
258.400696	146.740000
258.493622	146.340000
258.586517	145.460000
258.679443	146.000000
258.772339	145.740000
258.865265	145.600000
258.958160	145.440000
259.051086	146.480000
259.144012	146.120000
259.236938	146.880000
259.329834	147.180000
259.422791	147.260000
259.515717	146.360000
259.608612	146.160000
259.701538	146.360000
259.794464	146.020000
259.887390	145.940000
259.980316	146.040000
260.073212	145.860000
260.166138	144.500000
260.259064	144.860000
260.351990	145.180000
260.444916	145.180000
260.537842	145.900000
260.630768	147.200000
260.723694	147.000000
260.816620	146.960000
260.909546	147.000000
261.002472	146.400000
261.095398	145.840000
261.188354	145.960000
261.281281	145.580000
261.374207	145.760000
261.467133	146.660000
261.560089	146.800000
261.653015	146.200000
261.745972	147.240000
261.838867	147.720000
261.931824	147.540000
262.024780	146.960000
262.117706	147.520000
262.210663	147.440000
262.303589	147.180000
262.396515	147.020000
262.489471	148.060000
262.582397	147.820000
262.675354	146.820000
262.768280	146.740000
262.861237	146.500000
262.954163	146.080000
263.047119	146.440000
263.140045	146.520000
263.233002	146.520000
263.325958	146.340000
263.418884	145.880000
263.511841	146.040000
263.604797	146.260000
263.697723	146.160000
263.790680	146.360000
263.883636	146.880000
263.976593	146.520000
264.069550	146.700000
264.162476	146.620000
264.255463	146.740000
264.348419	146.300000
264.441376	146.340000
264.534332	145.780000
264.627289	146.040000
264.720245	146.160000
264.813202	145.860000
264.906158	146.060000
264.999115	146.640000
265.092072	146.280000
265.185028	146.960000
265.277985	147.580000
265.370941	147.400000
265.463898	146.960000
265.556854	146.720000
265.649811	145.600000
265.742798	145.540000
265.835754	145.600000
265.928711	146.240000
266.021667	146.400000
266.114655	146.860000
266.207611	147.140000
266.300568	146.700000
266.393585	146.180000
266.486511	146.920000
266.579498	146.360000
266.672485	146.140000
266.765442	146.320000
266.858429	146.980000
266.951385	146.300000
267.044342	146.420000
267.137329	146.320000
267.230316	146.520000
267.323273	145.900000
267.416260	146.460000
267.509216	146.400000
267.602203	146.380000
267.695160	146.520000
267.788147	146.840000
267.881134	146.400000
267.974091	146.720000
268.067078	146.620000
268.160065	146.640000
268.253052	146.480000
268.346008	146.360000
268.438995	146.040000
268.531982	146.180000
268.624969	145.860000
268.717987	146.120000
268.810944	146.100000
268.903961	146.400000
268.996948	146.240000
269.089905	146.700000
269.182892	146.640000
269.275879	147.160000
269.368866	146.580000
269.461853	146.720000
269.554871	146.520000
269.647858	146.300000
269.740845	146.580000
269.833832	147.380000
269.926819	147.220000
270.019806	147.160000
270.112793	146.980000
270.205811	146.660000
270.298798	146.220000
270.391785	147.000000
270.484772	146.880000
270.577789	146.900000
270.670776	146.420000
270.763763	146.600000
270.856750	146.300000
270.949768	146.080000
271.042786	146.260000
271.135773	146.580000
271.228790	146.740000
271.321808	146.140000
271.414795	146.100000
271.507782	145.940000
271.600800	145.500000
271.693817	145.300000
271.786804	145.860000
271.879822	146.160000
271.972809	146.140000
272.065826	147.000000
272.158844	146.720000
272.251831	147.180000
272.344849	147.120000
272.437866	146.940000
272.530853	146.820000
272.623871	147.240000
272.716888	146.100000
272.809906	146.540000
272.902893	146.720000
272.995911	145.960000
273.088928	145.800000
273.181946	146.440000
273.274963	146.000000
273.367981	146.040000
273.460999	146.420000
273.554047	146.960000
273.647003	147.300000
273.740051	147.420000
273.833069	147.640000
273.926086	147.960000
274.019135	147.380000
274.112152	147.000000
274.205170	146.940000
274.298187	146.960000
274.391205	146.540000
274.484222	146.640000
274.577240	146.520000
274.670258	146.360000
274.763306	146.160000
274.856323	146.320000
274.949341	146.600000
275.042358	147.240000
275.135406	147.300000
275.228424	147.380000
275.321442	147.280000
275.414490	146.780000
275.507507	146.660000
275.600525	147.360000
275.693573	147.200000
275.786591	147.020000
275.879669	147.080000
275.972656	146.660000
276.065735	146.160000
276.158752	146.760000
276.251801	147.680000
276.344818	147.980000
276.437866	148.100000
276.530884	147.780000
276.623932	146.920000
276.716980	146.680000
276.809998	146.380000
276.903046	146.360000
276.996094	147.240000
277.089111	148.020000
277.182159	148.300000
277.275208	148.380000
277.368256	148.240000
277.461304	147.920000
277.554321	147.020000
277.647369	146.840000
277.740417	147.040000
277.833466	147.080000
277.926514	146.800000
278.019562	147.600000
278.112610	146.600000
278.205688	146.680000
278.298706	146.700000
278.391785	146.500000
278.484833	145.960000
278.577881	146.060000
278.670929	146.100000
278.763977	146.240000
278.857025	146.760000
278.950073	146.820000
279.043121	146.700000
279.136169	146.660000
279.229248	146.380000
279.322296	146.180000
279.415344	146.000000
279.508392	146.420000
279.601440	146.380000
279.694519	146.400000
279.787567	146.300000
279.880615	146.500000
279.973694	146.520000
280.066742	146.340000
280.159790	146.380000
280.252869	146.040000
280.345917	145.940000
280.438995	145.820000
280.532074	145.920000
280.625122	146.060000
280.718201	147.120000
280.811279	147.380000
280.904327	147.420000
280.997406	147.740000
281.090454	147.880000
281.183533	147.140000
281.276581	146.960000
281.369659	146.700000
281.462738	146.640000
281.555786	146.780000
281.648865	146.800000
281.741943	147.140000
281.835022	147.760000
281.928070	147.180000
282.021149	146.960000
282.114227	146.880000
282.207306	146.560000
282.300385	146.920000
282.393433	147.280000
282.486511	147.080000
282.579590	147.680000
282.672668	148.040000
282.765747	147.080000
282.858856	146.720000
282.951904	146.940000
283.045013	146.700000
283.138062	146.640000
283.231171	147.120000
283.324249	147.560000
283.417328	147.640000
283.510406	147.320000
283.603485	147.540000
283.696564	147.600000
283.789642	147.660000
283.882751	147.160000
283.975830	147.440000
284.068909	146.760000
284.161987	147.180000
284.255066	146.760000
284.348175	147.260000
284.441254	147.040000
284.534332	147.640000
284.627441	146.860000
284.720520	146.640000
284.813599	146.140000
284.906708	146.220000
284.999786	145.420000
285.092896	145.460000
285.185974	146.540000
285.279053	146.240000
285.372192	146.140000
285.465240	146.560000
285.558380	146.560000
285.651459	145.680000
285.744568	146.660000
285.837677	146.500000
285.930756	146.700000
286.023865	146.540000
286.116943	146.340000
286.210052	146.320000
286.303162	146.160000
286.396240	146.260000
286.489349	146.160000
286.582458	146.760000
286.675568	146.300000
286.768646	146.720000
286.861755	146.980000
286.954865	147.980000
287.047974	147.520000
287.141083	147.560000
287.234161	147.280000
287.327271	146.720000
287.420380	146.440000
287.513519	146.540000
287.606598	146.800000
287.699738	146.940000
287.792816	146.960000
287.885956	147.080000
287.979034	147.000000
288.072174	146.740000
288.165283	146.760000
288.258392	146.920000
288.351501	146.000000
288.444611	146.180000
288.537720	146.460000
288.630859	146.240000
288.723969	146.400000
288.817078	146.700000
288.910187	146.580000
289.003296	146.060000
289.096436	145.800000
289.189545	145.620000
289.282654	145.400000
289.375763	145.680000
289.468903	146.260000
289.562012	146.760000
289.655121	146.940000
289.748260	147.220000
289.841400	147.700000
289.934509	147.860000
290.027649	147.780000
290.120728	147.440000
290.213898	147.720000
290.306976	147.180000
290.400146	146.800000
290.493256	146.660000
290.586395	146.880000
290.679535	147.120000
290.772644	147.100000
290.865784	146.380000
290.958893	146.440000
291.052032	146.320000
291.145172	145.900000
291.238281	145.480000
291.331421	145.560000
291.424561	146.100000
291.517670	145.700000
291.610809	145.960000
291.703949	146.340000
291.797089	146.800000
291.890228	146.100000
291.983337	146.500000
292.076477	146.340000
292.169617	146.460000
292.262756	146.620000
292.355927	146.680000
292.449036	146.260000
292.542206	146.580000
292.635315	146.460000
292.728485	146.300000
292.821625	146.140000
292.914764	147.240000
293.007904	146.880000
293.101044	146.800000
293.194183	147.200000
293.287323	147.360000
293.380463	146.880000
293.473602	146.920000
293.566742	147.360000
293.659882	147.340000
293.753021	147.660000
293.846191	147.680000
293.939331	147.240000
294.032471	146.900000
294.125610	146.480000
294.218781	146.660000
294.311920	146.800000
294.405060	147.240000
294.498230	147.200000
294.591370	147.200000
294.684540	146.140000
294.777679	145.600000
294.870850	145.720000
294.963959	145.500000
295.057159	145.440000
295.150299	146.280000
295.243469	146.340000
295.336609	145.660000
295.429779	145.900000
295.522919	146.260000
295.616089	146.460000
295.709229	147.060000
295.802399	147.540000
295.895569	147.160000
295.988708	147.060000
296.081879	147.000000
296.175018	146.420000
296.268188	146.160000
296.361359	146.740000
296.454529	146.980000
296.547668	146.400000
296.640839	146.720000
296.734009	146.740000
296.827179	146.840000
296.920319	146.800000
297.013519	147.080000
297.106659	147.080000
297.199860	147.100000
297.292999	146.840000
297.386200	146.760000
297.479309	146.640000
297.572510	146.480000
297.665680	146.280000
297.758850	146.260000
297.852020	145.980000
297.945190	145.960000
298.038361	145.760000
298.131531	146.820000
298.224701	146.820000
298.317871	146.620000
298.411072	146.380000
298.504242	146.280000
298.597412	145.540000
298.690582	145.620000
298.783752	145.620000
298.876923	146.320000
298.970093	146.440000
299.063293	147.020000
299.156464	147.320000
299.249634	148.000000
299.342834	147.980000
299.436005	148.280000
299.529205	147.780000
299.622345	147.420000
299.715576	146.440000
299.808716	145.820000
299.901917	145.840000
299.995117	146.360000
300.088287	146.700000
300.181488	146.840000
300.274658	146.920000
300.367828	146.900000
300.461029	146.280000
300.554199	146.480000
300.647400	146.820000
300.740601	147.500000
300.833771	147.280000
300.926971	147.680000
301.020142	147.240000
301.113342	147.280000
301.206512	146.780000
301.299713	146.860000
301.392914	146.900000
301.486084	147.020000
301.579285	146.740000
301.672516	147.220000
301.765686	147.040000
301.858887	146.860000
301.952057	146.640000
302.045288	146.980000
302.138458	146.320000
302.231659	146.380000
302.324860	145.980000
302.418060	146.040000
302.511261	145.640000
302.604462	146.140000
302.697662	145.880000
302.790863	145.820000
302.884064	145.340000
302.977264	145.500000
303.070465	145.720000
303.163666	146.620000
303.256866	146.960000
303.350067	147.220000
303.443268	147.100000
303.536469	146.900000
303.629669	145.900000
303.722870	146.160000
303.816071	145.960000
303.909271	146.360000
304.002472	145.660000
304.095673	145.960000
304.188934	145.120000
304.282104	146.140000
304.375336	145.900000
304.468506	146.380000
304.561768	146.280000
304.654968	146.980000
304.748169	146.180000
304.841370	146.220000
304.934601	146.340000
305.027802	146.060000
305.121002	145.640000
305.214233	145.900000
305.307434	145.920000
305.400665	146.420000
305.493866	146.520000
