Model Number: SPM-002-B   
Serial Number: 70087108
Firmware Version: 004.15.4
Exposure Time: 100000.000000us
Data Taken on: 11-12-2020 18:47:51.284
Wavelength	Amplitude
221.570786	0.000000
221.663406	0.000000
221.756027	0.000000
221.848648	0.000000
221.941269	0.000000
222.033905	0.000000
222.126526	0.000000
222.219162	0.000000
222.311798	0.000000
222.404419	0.000000
222.497055	0.000000
222.589676	0.000000
222.682312	0.000000
222.774933	0.000000
222.867569	0.000000
222.960205	0.000000
223.052841	0.000000
223.145462	0.000000
223.238098	0.000000
223.330734	0.000000
223.423386	0.000000
223.516022	0.000000
223.608658	0.000000
223.701309	0.000000
223.793945	0.000000
223.886581	0.000000
223.979218	0.000000
224.071869	0.000000
224.164505	0.000000
224.257156	0.000000
224.349792	0.000000
224.442444	0.000000
224.535095	0.000000
224.627747	0.000000
224.720398	0.000000
224.813034	0.000000
224.905685	0.000000
224.998337	145.280000
225.090988	145.100000
225.183640	144.980000
225.276291	144.660000
225.368942	144.880000
225.461594	145.480000
225.554245	146.000000
225.646912	146.160000
225.739578	146.900000
225.832230	147.140000
225.924896	146.140000
226.017548	146.120000
226.110199	146.480000
226.202866	145.680000
226.295532	145.520000
226.388184	145.640000
226.480850	145.180000
226.573517	144.860000
226.666168	145.060000
226.758835	145.320000
226.851501	146.180000
226.944183	146.240000
227.036850	145.700000
227.129517	145.940000
227.222183	146.120000
227.314850	145.880000
227.407516	146.400000
227.500198	147.300000
227.592865	146.920000
227.685532	146.280000
227.778214	146.060000
227.870880	145.780000
227.963562	146.020000
228.056229	146.360000
228.148926	146.760000
228.241592	147.600000
228.334274	147.700000
228.426956	147.300000
228.519638	147.240000
228.612305	146.580000
228.704987	146.260000
228.797668	146.220000
228.890350	146.120000
228.983032	145.620000
229.075714	146.420000
229.168396	145.840000
229.261108	145.240000
229.353790	145.040000
229.446472	145.400000
229.539169	144.960000
229.631851	144.880000
229.724533	145.240000
229.817230	145.720000
229.909912	146.720000
230.002609	146.960000
230.095306	146.800000
230.187988	146.880000
230.280685	146.680000
230.373383	145.480000
230.466095	145.360000
230.558792	145.760000
230.651474	145.900000
230.744171	145.380000
230.836868	145.360000
230.929581	145.580000
231.022278	145.700000
231.114975	145.540000
231.207672	145.900000
231.300369	146.320000
231.393082	146.380000
231.485779	146.120000
231.578506	145.960000
231.671204	145.960000
231.763916	146.100000
231.856613	145.840000
231.949326	146.060000
232.042023	146.140000
232.134735	145.980000
232.227448	145.600000
232.320160	145.820000
232.412872	145.620000
232.505585	146.400000
232.598297	146.840000
232.691010	146.900000
232.783722	146.420000
232.876450	147.080000
232.969162	146.560000
233.061874	145.920000
233.154587	145.480000
233.247314	146.140000
233.340027	145.480000
233.432739	145.840000
233.525467	146.160000
233.618179	146.740000
233.710907	146.180000
233.803635	146.760000
233.896347	146.420000
233.989090	147.060000
234.081818	146.620000
234.174545	146.680000
234.267258	146.060000
234.359985	146.220000
234.452713	145.820000
234.545441	146.060000
234.638168	146.160000
234.730896	146.700000
234.823639	146.500000
234.916367	146.900000
235.009094	146.880000
235.101822	146.940000
235.194580	146.700000
235.287308	146.720000
235.380051	146.160000
235.472778	146.520000
235.565521	146.600000
235.658249	146.220000
235.750992	146.240000
235.843719	146.260000
235.936462	146.060000
236.029205	145.800000
236.121948	145.900000
236.214691	146.480000
236.307449	147.040000
236.400192	146.900000
236.492935	146.500000
236.585678	146.740000
236.678421	146.280000
236.771164	145.920000
236.863907	146.520000
236.956665	147.060000
237.049408	148.440000
237.142151	148.140000
237.234909	148.900000
237.327652	148.640000
237.420410	148.420000
237.513153	147.360000
237.605927	147.340000
237.698669	146.340000
237.791428	145.760000
237.884186	146.380000
237.976944	145.960000
238.069702	146.180000
238.162445	145.940000
238.255203	146.180000
238.347961	146.260000
238.440720	146.520000
238.533478	146.140000
238.626266	145.960000
238.719025	146.180000
238.811783	145.740000
238.904541	145.420000
238.997314	145.660000
239.090073	145.740000
239.182831	146.100000
239.275604	146.580000
239.368362	146.500000
239.461136	146.460000
239.553909	146.660000
239.646667	146.060000
239.739441	145.700000
239.832214	146.040000
239.925003	146.100000
240.017761	146.640000
240.110535	147.280000
240.203308	146.920000
240.296082	146.980000
240.388855	146.980000
240.481628	146.800000
240.574417	146.780000
240.667191	147.300000
240.759964	146.900000
240.852737	146.960000
240.945526	146.480000
241.038315	146.140000
241.131088	145.820000
241.223877	146.120000
241.316650	145.740000
241.409439	146.340000
241.502228	145.820000
241.595001	146.460000
241.687790	146.320000
241.780579	146.440000
241.873367	146.680000
241.966141	147.040000
242.058929	146.260000
242.151718	146.260000
242.244507	146.780000
242.337311	145.660000
242.430099	146.280000
242.522903	146.560000
242.615692	146.460000
242.708481	146.120000
242.801270	147.020000
242.894073	146.540000
242.986862	146.740000
243.079651	146.900000
243.172455	146.860000
243.265244	146.920000
243.358063	146.460000
243.450867	146.720000
243.543655	146.560000
243.636459	146.340000
243.729263	146.220000
243.822067	146.560000
243.914856	146.900000
244.007660	147.300000
244.100464	147.520000
244.193268	147.180000
244.286072	147.060000
244.378876	146.220000
244.471680	145.620000
244.564499	145.880000
244.657318	146.500000
244.750122	146.620000
244.842926	146.240000
244.935745	146.660000
245.028549	146.240000
245.121368	145.840000
245.214172	145.760000
245.306992	146.220000
245.399796	146.160000
245.492615	146.480000
245.585434	146.460000
245.678253	146.500000
245.771072	146.420000
245.863892	146.640000
245.956711	146.720000
246.049530	146.360000
246.142349	146.300000
246.235168	146.520000
246.327988	146.760000
246.420807	146.520000
246.513626	146.660000
246.606445	146.340000
246.699280	146.080000
246.792099	145.840000
246.884918	145.460000
246.977753	145.380000
247.070587	145.580000
247.163422	145.640000
247.256241	145.720000
247.349075	146.180000
247.441895	146.280000
247.534729	146.480000
247.627563	146.180000
247.720383	146.560000
247.813217	146.480000
247.906052	146.260000
247.998886	146.460000
248.091736	146.580000
248.184570	146.040000
248.277405	145.880000
248.370239	146.680000
248.463074	147.220000
248.555908	147.620000
248.648743	147.460000
248.741592	147.860000
248.834427	147.300000
248.927261	145.980000
249.020111	145.940000
249.112946	146.660000
249.205795	145.940000
249.298630	145.820000
249.391495	146.140000
249.484344	145.940000
249.577179	145.580000
249.670029	146.000000
249.762878	146.580000
249.855728	146.760000
249.948563	146.820000
250.041412	146.240000
250.134262	146.700000
250.227112	146.820000
250.319962	146.740000
250.412827	146.700000
250.505692	146.520000
250.598541	146.200000
250.691391	145.700000
250.784241	145.520000
250.877106	145.500000
250.969955	145.220000
251.062805	145.620000
251.155670	146.280000
251.248520	146.360000
251.341385	146.580000
251.434235	147.180000
251.527100	146.940000
251.619965	146.080000
251.712814	146.880000
251.805695	146.560000
251.898560	146.600000
251.991425	146.540000
252.084290	146.860000
252.177155	146.000000
252.270020	145.960000
252.362885	145.640000
252.455750	145.660000
252.548615	145.340000
252.641479	145.580000
252.734360	145.680000
252.827240	145.720000
252.920105	145.820000
253.012970	145.820000
253.105850	145.900000
253.198715	145.880000
253.291595	146.240000
253.384460	145.840000
253.477341	146.040000
253.570221	146.080000
253.663086	145.880000
253.755966	146.420000
253.848846	146.500000
253.941727	146.720000
254.034592	146.460000
254.127472	146.000000
254.220367	145.640000
254.313248	145.680000
254.406128	145.100000
254.499008	145.360000
254.591904	146.160000
254.684784	146.460000
254.777664	146.900000
254.870544	146.900000
254.963440	146.820000
255.056335	146.880000
255.149216	146.580000
255.242111	146.680000
255.334991	147.020000
255.427887	146.920000
255.520767	146.600000
255.613663	146.460000
255.706558	145.840000
255.799438	145.580000
255.892334	145.420000
255.985229	145.680000
256.078125	145.580000
256.171021	145.740000
256.263916	146.140000
256.356812	146.520000
256.449707	146.680000
256.542603	146.700000
256.635498	147.160000
256.728394	146.940000
256.821289	146.720000
256.914215	146.620000
257.007080	146.860000
257.100006	146.800000
257.192932	147.220000
257.285828	147.580000
257.378723	147.380000
257.471619	147.120000
257.564545	146.360000
257.657440	146.240000
257.750336	146.500000
257.843262	146.300000
257.936157	147.380000
258.029053	147.840000
258.121979	147.880000
258.214874	147.240000
258.307800	147.300000
258.400696	146.060000
258.493622	146.080000
258.586517	145.360000
258.679443	145.560000
258.772339	145.180000
258.865265	145.140000
258.958160	144.600000
259.051086	145.500000
259.144012	145.380000
259.236938	146.100000
259.329834	146.640000
259.422791	146.860000
259.515717	146.200000
259.608612	146.160000
259.701538	146.440000
259.794464	146.220000
259.887390	146.280000
259.980316	146.480000
260.073212	146.500000
260.166138	145.260000
260.259064	145.480000
260.351990	145.800000
260.444916	145.680000
260.537842	145.800000
260.630768	146.800000
260.723694	146.780000
260.816620	146.740000
260.909546	146.700000
261.002472	146.540000
261.095398	146.000000
261.188354	145.880000
261.281281	145.420000
261.374207	145.520000
261.467133	145.980000
261.560089	146.460000
261.653015	146.200000
261.745972	146.880000
261.838867	147.440000
261.931824	147.560000
262.024780	146.880000
262.117706	147.120000
262.210663	147.220000
262.303589	146.800000
262.396515	146.500000
262.489471	147.620000
262.582397	147.480000
262.675354	146.820000
262.768280	146.680000
262.861237	146.840000
262.954163	146.540000
263.047119	146.840000
263.140045	146.900000
263.233002	146.780000
263.325958	146.400000
263.418884	145.800000
263.511841	145.520000
263.604797	145.640000
263.697723	146.020000
263.790680	146.180000
263.883636	146.460000
263.976593	146.280000
264.069550	146.360000
264.162476	145.960000
264.255463	145.940000
264.348419	145.780000
264.441376	146.140000
264.534332	145.460000
264.627289	145.620000
264.720245	145.960000
264.813202	145.640000
264.906158	145.840000
264.999115	146.940000
265.092072	146.920000
265.185028	147.320000
265.277985	147.700000
265.370941	147.220000
265.463898	146.520000
265.556854	146.340000
265.649811	145.320000
265.742798	145.180000
265.835754	145.220000
265.928711	145.740000
266.021667	145.700000
266.114655	146.160000
266.207611	146.760000
266.300568	146.100000
266.393585	145.500000
266.486511	145.880000
266.579498	145.140000
266.672485	144.640000
266.765442	145.020000
266.858429	145.640000
266.951385	145.380000
267.044342	145.720000
267.137329	145.860000
267.230316	146.460000
267.323273	145.800000
267.416260	146.660000
267.509216	146.540000
267.602203	146.320000
267.695160	146.220000
267.788147	146.260000
267.881134	145.780000
267.974091	146.140000
268.067078	146.300000
268.160065	146.260000
268.253052	146.480000
268.346008	146.020000
268.438995	145.900000
268.531982	146.100000
268.624969	145.640000
268.717987	145.840000
268.810944	145.920000
268.903961	145.880000
268.996948	145.240000
269.089905	145.820000
269.182892	145.980000
269.275879	146.380000
269.368866	146.080000
269.461853	146.520000
269.554871	146.320000
269.647858	146.220000
269.740845	146.420000
269.833832	146.900000
269.926819	146.560000
270.019806	146.660000
270.112793	146.100000
270.205811	146.200000
270.298798	145.860000
270.391785	146.660000
270.484772	145.940000
270.577789	146.320000
270.670776	145.580000
270.763763	145.840000
270.856750	145.420000
270.949768	145.640000
271.042786	145.820000
271.135773	146.020000
271.228790	145.940000
271.321808	145.620000
271.414795	145.440000
271.507782	145.020000
271.600800	144.700000
271.693817	144.720000
271.786804	145.360000
271.879822	145.840000
271.972809	145.700000
272.065826	146.380000
272.158844	146.140000
272.251831	146.320000
272.344849	146.320000
272.437866	146.400000
272.530853	146.260000
272.623871	146.420000
272.716888	145.440000
272.809906	145.500000
272.902893	145.680000
272.995911	144.820000
273.088928	144.580000
273.181946	145.100000
273.274963	144.680000
273.367981	144.480000
273.460999	145.220000
273.554047	145.720000
273.647003	145.940000
273.740051	146.240000
273.833069	146.680000
273.926086	146.720000
274.019135	146.520000
274.112152	146.240000
274.205170	146.360000
274.298187	146.220000
274.391205	145.620000
274.484222	145.580000
274.577240	145.720000
274.670258	145.480000
274.763306	145.400000
274.856323	146.060000
274.949341	146.420000
275.042358	146.380000
275.135406	146.380000
275.228424	146.420000
275.321442	145.960000
275.414490	145.440000
275.507507	146.360000
275.600525	146.560000
275.693573	146.420000
275.786591	146.300000
275.879669	146.620000
275.972656	145.700000
276.065735	145.920000
276.158752	146.600000
276.251801	147.580000
276.344818	147.440000
276.437866	147.440000
276.530884	147.060000
276.623932	146.040000
276.716980	145.780000
276.809998	145.780000
276.903046	145.900000
276.996094	146.820000
277.089111	147.600000
277.182159	147.920000
277.275208	147.940000
277.368256	147.680000
277.461304	147.200000
277.554321	146.580000
277.647369	146.200000
277.740417	146.340000
277.833466	146.480000
277.926514	146.140000
278.019562	146.960000
278.112610	146.540000
278.205688	146.640000
278.298706	146.880000
278.391785	146.560000
278.484833	146.020000
278.577881	146.020000
278.670929	146.100000
278.763977	146.140000
278.857025	146.880000
278.950073	146.820000
279.043121	146.800000
279.136169	146.440000
279.229248	145.780000
279.322296	145.600000
279.415344	145.640000
279.508392	145.320000
279.601440	145.220000
279.694519	145.520000
279.787567	145.280000
279.880615	145.160000
279.973694	145.280000
280.066742	145.380000
280.159790	145.360000
280.252869	145.240000
280.345917	145.400000
280.438995	145.520000
280.532074	145.680000
280.625122	146.040000
280.718201	146.880000
280.811279	147.080000
280.904327	147.020000
280.997406	147.200000
281.090454	147.200000
281.183533	146.460000
281.276581	146.320000
281.369659	146.260000
281.462738	146.000000
281.555786	146.020000
281.648865	145.860000
281.741943	145.420000
281.835022	146.240000
281.928070	146.300000
282.021149	145.880000
282.114227	146.040000
282.207306	146.220000
282.300385	146.240000
282.393433	146.380000
282.486511	146.560000
282.579590	147.100000
282.672668	147.540000
282.765747	146.860000
282.858856	146.320000
282.951904	146.060000
283.045013	146.080000
283.138062	146.180000
283.231171	146.500000
283.324249	146.980000
283.417328	147.440000
283.510406	146.860000
283.603485	146.440000
283.696564	146.440000
283.789642	146.380000
283.882751	145.880000
283.975830	146.700000
284.068909	146.480000
284.161987	146.960000
284.255066	146.800000
284.348175	147.180000
284.441254	146.540000
284.534332	147.380000
284.627441	146.540000
284.720520	146.080000
284.813599	146.040000
284.906708	146.240000
284.999786	145.440000
285.092896	145.640000
285.185974	146.860000
285.279053	146.340000
285.372192	146.660000
285.465240	147.180000
285.558380	147.340000
285.651459	146.860000
285.744568	148.040000
285.837677	147.100000
285.930756	147.040000
286.023865	146.680000
286.116943	146.300000
286.210052	146.020000
286.303162	146.320000
286.396240	146.020000
286.489349	145.920000
286.582458	146.400000
286.675568	146.040000
286.768646	146.040000
286.861755	146.600000
286.954865	147.420000
287.047974	146.540000
287.141083	146.240000
287.234161	146.120000
287.327271	145.740000
287.420380	145.780000
287.513519	146.160000
287.606598	146.460000
287.699738	146.580000
287.792816	146.320000
287.885956	145.880000
287.979034	145.980000
288.072174	145.740000
288.165283	145.740000
288.258392	146.320000
288.351501	145.920000
288.444611	146.100000
288.537720	146.460000
288.630859	146.560000
288.723969	146.440000
288.817078	146.880000
288.910187	146.840000
289.003296	146.400000
289.096436	145.600000
289.189545	145.260000
289.282654	144.940000
289.375763	144.940000
289.468903	145.340000
289.562012	146.120000
289.655121	146.280000
289.748260	146.340000
289.841400	146.560000
289.934509	146.680000
290.027649	146.900000
290.120728	146.780000
290.213898	147.120000
290.306976	147.080000
290.400146	146.940000
290.493256	146.080000
290.586395	146.200000
290.679535	146.000000
290.772644	145.440000
290.865784	144.800000
290.958893	145.120000
291.052032	145.040000
291.145172	144.960000
291.238281	144.800000
291.331421	145.000000
291.424561	145.560000
291.517670	145.200000
291.610809	145.440000
291.703949	145.720000
291.797089	145.960000
291.890228	145.460000
291.983337	145.440000
292.076477	145.180000
292.169617	145.360000
292.262756	145.360000
292.355927	145.340000
292.449036	145.540000
292.542206	145.640000
292.635315	145.920000
292.728485	146.280000
292.821625	146.080000
292.914764	146.820000
293.007904	147.260000
293.101044	146.780000
293.194183	146.360000
293.287323	146.720000
293.380463	146.540000
293.473602	146.040000
293.566742	146.660000
293.659882	147.320000
293.753021	147.420000
293.846191	146.880000
293.939331	146.700000
294.032471	146.420000
294.125610	145.640000
294.218781	145.960000
294.311920	146.400000
294.405060	146.500000
294.498230	146.440000
294.591370	146.680000
294.684540	146.040000
294.777679	145.440000
294.870850	145.940000
294.963959	145.860000
295.057159	145.760000
295.150299	146.080000
295.243469	146.220000
295.336609	145.480000
295.429779	145.540000
295.522919	146.080000
295.616089	146.260000
295.709229	147.040000
295.802399	147.460000
295.895569	147.100000
295.988708	146.700000
296.081879	146.700000
296.175018	145.980000
296.268188	145.700000
296.361359	146.480000
296.454529	146.400000
296.547668	146.040000
296.640839	146.360000
296.734009	146.460000
296.827179	146.120000
296.920319	146.500000
297.013519	146.300000
297.106659	146.280000
297.199860	146.040000
297.292999	146.100000
297.386200	145.700000
297.479309	145.760000
297.572510	145.560000
297.665680	145.720000
297.758850	145.840000
297.852020	145.880000
297.945190	145.960000
298.038361	145.680000
298.131531	146.340000
298.224701	145.700000
298.317871	145.620000
298.411072	145.240000
298.504242	145.340000
298.597412	144.880000
298.690582	145.480000
298.783752	145.280000
298.876923	146.000000
298.970093	146.040000
299.063293	146.260000
299.156464	146.340000
299.249634	146.780000
299.342834	146.780000
299.436005	147.260000
299.529205	147.140000
299.622345	146.960000
299.715576	146.460000
299.808716	146.180000
299.901917	145.820000
299.995117	145.840000
300.088287	145.980000
300.181488	145.940000
300.274658	146.040000
300.367828	146.080000
300.461029	146.020000
300.554199	146.180000
300.647400	146.280000
300.740601	146.840000
300.833771	146.700000
300.926971	146.920000
301.020142	146.400000
301.113342	146.540000
301.206512	146.080000
301.299713	146.360000
301.392914	146.280000
301.486084	146.980000
301.579285	146.780000
301.672516	147.180000
301.765686	147.160000
301.858887	147.060000
301.952057	146.340000
302.045288	146.400000
302.138458	145.860000
302.231659	145.380000
302.324860	145.160000
302.418060	145.120000
302.511261	145.000000
302.604462	145.360000
302.697662	145.380000
302.790863	145.520000
302.884064	145.500000
302.977264	145.880000
303.070465	146.160000
303.163666	147.100000
303.256866	147.380000
303.350067	147.400000
303.443268	147.380000
303.536469	147.220000
303.629669	146.400000
303.722870	146.460000
303.816071	146.340000
303.909271	146.160000
304.002472	145.300000
304.095673	145.280000
304.188934	144.560000
304.282104	145.640000
304.375336	145.620000
304.468506	145.680000
304.561768	145.660000
304.654968	146.380000
304.748169	145.600000
304.841370	145.360000
304.934601	145.980000
305.027802	145.740000
305.121002	145.180000
305.214233	145.280000
305.307434	145.800000
305.400665	146.400000
305.493866	146.460000
