Model Number: SPM-002-B   
Serial Number: 70087108
Firmware Version: 004.15.4
Exposure Time: 100000.000000us
Data Taken on: 11-12-2020 18:47:57.132
Wavelength	Amplitude
221.570786	0.000000
221.663406	0.000000
221.756027	0.000000
221.848648	0.000000
221.941269	0.000000
222.033905	0.000000
222.126526	0.000000
222.219162	0.000000
222.311798	0.000000
222.404419	0.000000
222.497055	0.000000
222.589676	0.000000
222.682312	0.000000
222.774933	0.000000
222.867569	0.000000
222.960205	0.000000
223.052841	0.000000
223.145462	0.000000
223.238098	0.000000
223.330734	0.000000
223.423386	0.000000
223.516022	0.000000
223.608658	0.000000
223.701309	0.000000
223.793945	0.000000
223.886581	0.000000
223.979218	0.000000
224.071869	0.000000
224.164505	0.000000
224.257156	0.000000
224.349792	0.000000
224.442444	0.000000
224.535095	0.000000
224.627747	0.000000
224.720398	0.000000
224.813034	0.000000
224.905685	0.000000
224.998337	145.500000
225.090988	145.020000
225.183640	144.620000
225.276291	144.520000
225.368942	144.860000
225.461594	145.400000
225.554245	145.820000
225.646912	146.300000
225.739578	146.660000
225.832230	146.800000
225.924896	146.040000
226.017548	146.440000
226.110199	146.700000
226.202866	146.140000
226.295532	146.220000
226.388184	146.140000
226.480850	145.460000
226.573517	145.160000
226.666168	145.580000
226.758835	145.760000
226.851501	146.620000
226.944183	146.920000
227.036850	146.600000
227.129517	146.320000
227.222183	146.280000
227.314850	145.880000
227.407516	146.200000
227.500198	147.120000
227.592865	147.040000
227.685532	146.600000
227.778214	146.320000
227.870880	146.260000
227.963562	146.300000
228.056229	146.620000
228.148926	146.620000
228.241592	147.600000
228.334274	147.200000
228.426956	146.900000
228.519638	147.000000
228.612305	146.840000
228.704987	146.400000
228.797668	146.780000
228.890350	146.260000
228.983032	145.640000
229.075714	146.260000
229.168396	145.880000
229.261108	145.300000
229.353790	145.320000
229.446472	145.600000
229.539169	145.280000
229.631851	144.920000
229.724533	145.380000
229.817230	145.580000
229.909912	146.620000
230.002609	146.660000
230.095306	147.140000
230.187988	147.140000
230.280685	147.220000
230.373383	146.040000
230.466095	146.040000
230.558792	146.120000
230.651474	145.960000
230.744171	145.820000
230.836868	145.600000
230.929581	145.620000
231.022278	145.720000
231.114975	145.860000
231.207672	145.900000
231.300369	146.680000
231.393082	146.800000
231.485779	146.700000
231.578506	146.640000
231.671204	146.940000
231.763916	146.660000
231.856613	146.640000
231.949326	146.720000
232.042023	146.540000
232.134735	146.500000
232.227448	146.020000
232.320160	146.340000
232.412872	146.220000
232.505585	147.120000
232.598297	147.320000
232.691010	147.560000
232.783722	147.000000
232.876450	147.600000
232.969162	146.820000
233.061874	146.120000
233.154587	145.820000
233.247314	146.120000
233.340027	145.400000
233.432739	146.140000
233.525467	145.820000
233.618179	146.160000
233.710907	145.600000
233.803635	146.160000
233.896347	145.680000
233.989090	146.780000
234.081818	146.780000
234.174545	147.440000
234.267258	146.700000
234.359985	146.620000
234.452713	146.020000
234.545441	145.920000
234.638168	145.440000
234.730896	146.360000
234.823639	146.480000
234.916367	147.020000
235.009094	147.220000
235.101822	147.500000
235.194580	147.180000
235.287308	147.120000
235.380051	146.440000
235.472778	146.800000
235.565521	146.900000
235.658249	146.500000
235.750992	146.720000
235.843719	146.860000
235.936462	146.720000
236.029205	146.200000
236.121948	146.000000
236.214691	145.920000
236.307449	146.540000
236.400192	146.100000
236.492935	146.060000
236.585678	146.460000
236.678421	146.160000
236.771164	146.000000
236.863907	146.240000
236.956665	146.600000
237.049408	147.880000
237.142151	147.620000
237.234909	148.120000
237.327652	148.340000
237.420410	148.260000
237.513153	147.280000
237.605927	147.580000
237.698669	147.000000
237.791428	146.360000
237.884186	146.580000
237.976944	146.200000
238.069702	146.300000
238.162445	145.780000
238.255203	146.100000
238.347961	146.300000
238.440720	146.140000
238.533478	145.980000
238.626266	145.920000
238.719025	146.140000
238.811783	145.740000
238.904541	145.920000
238.997314	146.000000
239.090073	145.840000
239.182831	146.220000
239.275604	146.960000
239.368362	146.840000
239.461136	146.560000
239.553909	146.740000
239.646667	146.180000
239.739441	145.700000
239.832214	146.040000
239.925003	146.540000
240.017761	147.240000
240.110535	147.840000
240.203308	147.580000
240.296082	147.240000
240.388855	146.820000
240.481628	146.520000
240.574417	146.340000
240.667191	146.580000
240.759964	146.340000
240.852737	146.520000
240.945526	146.040000
241.038315	145.640000
241.131088	145.600000
241.223877	146.160000
241.316650	146.020000
241.409439	146.380000
241.502228	146.040000
241.595001	146.460000
241.687790	146.180000
241.780579	146.380000
241.873367	146.720000
241.966141	147.340000
242.058929	146.460000
242.151718	146.760000
242.244507	147.000000
242.337311	146.200000
242.430099	146.400000
242.522903	146.940000
242.615692	146.520000
242.708481	146.400000
242.801270	147.160000
242.894073	146.900000
242.986862	146.860000
243.079651	147.360000
243.172455	147.300000
243.265244	147.100000
243.358063	146.540000
243.450867	146.680000
243.543655	146.380000
243.636459	146.320000
243.729263	146.660000
243.822067	147.220000
243.914856	147.320000
244.007660	147.480000
244.100464	147.180000
244.193268	146.620000
244.286072	146.420000
244.378876	146.100000
244.471680	145.880000
244.564499	146.440000
244.657318	147.100000
244.750122	147.460000
244.842926	147.160000
244.935745	147.440000
245.028549	146.820000
245.121368	146.380000
245.214172	146.320000
245.306992	146.660000
245.399796	146.340000
245.492615	146.540000
245.585434	146.280000
245.678253	146.080000
245.771072	145.840000
245.863892	146.340000
245.956711	146.720000
246.049530	146.840000
246.142349	146.680000
246.235168	147.060000
246.327988	147.520000
246.420807	147.440000
246.513626	147.240000
246.606445	147.300000
246.699280	147.380000
246.792099	146.600000
246.884918	146.060000
246.977753	145.900000
247.070587	146.160000
247.163422	145.740000
247.256241	145.960000
247.349075	146.440000
247.441895	146.860000
247.534729	146.480000
247.627563	146.360000
247.720383	146.860000
247.813217	146.680000
247.906052	146.320000
247.998886	146.500000
248.091736	146.380000
248.184570	145.700000
248.277405	145.960000
248.370239	147.060000
248.463074	148.180000
248.555908	148.660000
248.648743	148.400000
248.741592	148.080000
248.834427	147.240000
248.927261	145.580000
249.020111	146.080000
249.112946	146.880000
249.205795	146.480000
249.298630	146.480000
249.391495	146.860000
249.484344	146.300000
249.577179	146.100000
249.670029	146.820000
249.762878	147.420000
249.855728	147.720000
249.948563	147.680000
250.041412	146.920000
250.134262	146.820000
250.227112	146.720000
250.319962	146.340000
250.412827	146.460000
250.505692	146.540000
250.598541	146.600000
250.691391	146.120000
250.784241	146.460000
250.877106	146.380000
250.969955	146.440000
251.062805	146.600000
251.155670	147.280000
251.248520	146.840000
251.341385	146.960000
251.434235	146.900000
251.527100	146.620000
251.619965	146.100000
251.712814	146.920000
251.805695	147.000000
251.898560	147.040000
251.991425	147.300000
252.084290	147.500000
252.177155	146.940000
252.270020	146.340000
252.362885	146.400000
252.455750	146.360000
252.548615	146.140000
252.641479	145.980000
252.734360	146.240000
252.827240	146.240000
252.920105	146.360000
253.012970	146.180000
253.105850	146.040000
253.198715	145.920000
253.291595	146.040000
253.384460	145.560000
253.477341	145.480000
253.570221	145.900000
253.663086	145.800000
253.755966	146.360000
253.848846	146.300000
253.941727	146.700000
254.034592	146.640000
254.127472	146.240000
254.220367	145.780000
254.313248	145.900000
254.406128	145.460000
254.499008	145.720000
254.591904	146.720000
254.684784	147.360000
254.777664	147.380000
254.870544	147.020000
254.963440	146.580000
255.056335	146.320000
255.149216	145.380000
255.242111	145.860000
255.334991	146.460000
255.427887	146.820000
255.520767	146.980000
255.613663	147.280000
255.706558	146.760000
255.799438	146.760000
255.892334	146.400000
255.985229	146.420000
256.078125	146.540000
256.171021	146.520000
256.263916	146.700000
256.356812	146.760000
256.449707	146.700000
256.542603	146.500000
256.635498	146.800000
256.728394	146.500000
256.821289	146.360000
256.914215	146.340000
257.007080	146.460000
257.100006	146.320000
257.192932	146.740000
257.285828	147.080000
257.378723	146.880000
257.471619	146.780000
257.564545	146.340000
257.657440	146.160000
257.750336	146.200000
257.843262	146.060000
257.936157	147.000000
258.029053	147.520000
258.121979	147.300000
258.214874	147.220000
258.307800	146.940000
258.400696	145.620000
258.493622	145.560000
258.586517	145.060000
258.679443	145.440000
258.772339	145.400000
258.865265	145.640000
258.958160	145.120000
259.051086	146.060000
259.144012	145.440000
259.236938	146.180000
259.329834	146.400000
259.422791	146.540000
259.515717	145.860000
259.608612	145.680000
259.701538	145.920000
259.794464	145.880000
259.887390	145.940000
259.980316	146.020000
260.073212	145.960000
260.166138	145.000000
260.259064	145.260000
260.351990	145.680000
260.444916	145.440000
260.537842	145.880000
260.630768	146.600000
260.723694	146.560000
260.816620	146.320000
260.909546	146.620000
261.002472	146.140000
261.095398	145.620000
261.188354	145.600000
261.281281	145.380000
261.374207	145.300000
261.467133	146.240000
261.560089	146.320000
261.653015	145.860000
261.745972	146.640000
261.838867	147.360000
261.931824	147.300000
262.024780	147.120000
262.117706	147.420000
262.210663	147.280000
262.303589	147.000000
262.396515	146.840000
262.489471	147.460000
262.582397	147.320000
262.675354	146.940000
262.768280	146.560000
262.861237	146.500000
262.954163	146.320000
263.047119	146.760000
263.140045	146.380000
263.233002	146.660000
263.325958	146.680000
263.418884	146.480000
263.511841	146.040000
263.604797	146.400000
263.697723	146.400000
263.790680	146.320000
263.883636	146.640000
263.976593	146.260000
264.069550	146.160000
264.162476	145.960000
264.255463	145.760000
264.348419	145.400000
264.441376	146.300000
264.534332	146.060000
264.627289	146.060000
264.720245	146.740000
264.813202	146.200000
264.906158	145.960000
264.999115	146.520000
265.092072	146.360000
265.185028	146.720000
265.277985	147.360000
265.370941	147.100000
265.463898	146.740000
265.556854	146.900000
265.649811	145.580000
265.742798	145.740000
265.835754	146.060000
265.928711	146.400000
266.021667	146.280000
266.114655	146.700000
266.207611	146.660000
266.300568	146.040000
266.393585	145.480000
266.486511	146.220000
266.579498	145.660000
266.672485	145.580000
266.765442	145.440000
266.858429	146.100000
266.951385	145.340000
267.044342	145.720000
267.137329	145.640000
267.230316	146.340000
267.323273	145.780000
267.416260	146.760000
267.509216	146.800000
267.602203	146.720000
267.695160	147.060000
267.788147	147.280000
267.881134	146.080000
267.974091	146.320000
268.067078	146.360000
268.160065	145.620000
268.253052	145.600000
268.346008	145.920000
268.438995	145.620000
268.531982	145.600000
268.624969	145.560000
268.717987	146.020000
268.810944	146.140000
268.903961	146.420000
268.996948	146.180000
269.089905	146.840000
269.182892	146.380000
269.275879	146.480000
269.368866	145.980000
269.461853	146.560000
269.554871	146.320000
269.647858	146.540000
269.740845	146.540000
269.833832	146.900000
269.926819	146.540000
270.019806	146.580000
270.112793	146.000000
270.205811	146.480000
270.298798	146.300000
270.391785	146.920000
270.484772	146.640000
270.577789	146.920000
270.670776	146.140000
270.763763	146.260000
270.856750	146.020000
270.949768	145.880000
271.042786	145.960000
271.135773	146.140000
271.228790	146.140000
271.321808	145.740000
271.414795	145.680000
271.507782	145.560000
271.600800	145.060000
271.693817	145.400000
271.786804	145.780000
271.879822	145.900000
271.972809	145.600000
272.065826	146.320000
272.158844	145.840000
272.251831	146.200000
272.344849	146.160000
272.437866	146.120000
272.530853	146.160000
272.623871	146.440000
272.716888	145.360000
272.809906	145.940000
272.902893	146.380000
272.995911	145.840000
273.088928	145.600000
273.181946	146.120000
273.274963	145.780000
273.367981	145.480000
273.460999	146.060000
273.554047	146.660000
273.647003	147.040000
273.740051	146.760000
273.833069	147.460000
273.926086	147.500000
274.019135	146.920000
274.112152	146.560000
274.205170	146.740000
274.298187	146.700000
274.391205	146.240000
274.484222	146.540000
274.577240	146.680000
274.670258	146.500000
274.763306	146.180000
274.856323	146.600000
274.949341	146.480000
275.042358	146.520000
275.135406	146.720000
275.228424	146.920000
275.321442	146.560000
275.414490	146.380000
275.507507	146.600000
275.600525	146.860000
275.693573	146.520000
275.786591	146.260000
275.879669	146.380000
275.972656	145.940000
276.065735	145.840000
276.158752	146.520000
276.251801	147.280000
276.344818	147.480000
276.437866	147.880000
276.530884	147.540000
276.623932	146.620000
276.716980	146.480000
276.809998	146.280000
276.903046	146.120000
276.996094	147.140000
277.089111	147.620000
277.182159	147.720000
277.275208	147.540000
277.368256	147.280000
277.461304	146.460000
277.554321	145.700000
277.647369	145.640000
277.740417	145.760000
277.833466	145.760000
277.926514	145.820000
278.019562	146.760000
278.112610	146.500000
278.205688	147.000000
278.298706	147.160000
278.391785	147.020000
278.484833	146.480000
278.577881	145.860000
278.670929	145.700000
278.763977	145.460000
278.857025	145.940000
278.950073	146.180000
279.043121	146.820000
279.136169	146.540000
279.229248	146.680000
279.322296	146.540000
279.415344	146.380000
279.508392	146.160000
279.601440	146.140000
279.694519	146.060000
279.787567	145.860000
279.880615	145.900000
279.973694	145.980000
280.066742	145.940000
280.159790	146.240000
280.252869	146.100000
280.345917	146.460000
280.438995	146.420000
280.532074	146.520000
280.625122	146.640000
280.718201	147.400000
280.811279	147.240000
280.904327	147.120000
280.997406	147.200000
281.090454	147.000000
281.183533	146.080000
281.276581	146.020000
281.369659	145.700000
281.462738	145.660000
281.555786	145.840000
281.648865	146.200000
281.741943	146.040000
281.835022	147.180000
281.928070	147.040000
282.021149	146.660000
282.114227	146.640000
282.207306	146.740000
282.300385	146.520000
282.393433	146.740000
282.486511	147.000000
282.579590	147.260000
282.672668	147.700000
282.765747	147.040000
282.858856	146.880000
282.951904	147.040000
283.045013	147.080000
283.138062	147.000000
283.231171	147.600000
283.324249	148.100000
283.417328	148.080000
283.510406	147.680000
283.603485	147.240000
283.696564	146.740000
283.789642	146.480000
283.882751	146.000000
283.975830	146.560000
284.068909	146.260000
284.161987	147.260000
284.255066	146.620000
284.348175	146.960000
284.441254	146.740000
284.534332	147.220000
284.627441	146.740000
284.720520	146.600000
284.813599	146.460000
284.906708	146.260000
284.999786	145.700000
285.092896	145.100000
285.185974	146.660000
285.279053	146.260000
285.372192	146.480000
285.465240	147.540000
285.558380	147.440000
285.651459	146.620000
285.744568	147.500000
285.837677	147.180000
285.930756	146.980000
286.023865	147.520000
286.116943	147.160000
286.210052	147.060000
286.303162	147.320000
286.396240	146.960000
286.489349	146.580000
286.582458	146.960000
286.675568	146.960000
286.768646	146.660000
286.861755	147.000000
286.954865	147.700000
287.047974	147.220000
287.141083	146.760000
287.234161	146.540000
287.327271	146.400000
287.420380	146.500000
287.513519	146.440000
287.606598	146.760000
287.699738	147.200000
287.792816	146.860000
287.885956	146.720000
287.979034	146.920000
288.072174	146.760000
288.165283	146.660000
288.258392	146.940000
288.351501	146.480000
288.444611	146.920000
288.537720	147.240000
288.630859	147.020000
288.723969	147.280000
288.817078	147.280000
288.910187	146.820000
289.003296	146.280000
289.096436	146.200000
289.189545	145.740000
289.282654	145.520000
289.375763	146.040000
289.468903	146.540000
289.562012	146.800000
289.655121	146.860000
289.748260	146.980000
289.841400	146.880000
289.934509	146.600000
290.027649	146.640000
290.120728	146.500000
290.213898	146.700000
290.306976	146.360000
290.400146	146.600000
290.493256	146.260000
290.586395	146.980000
290.679535	147.220000
290.772644	147.020000
290.865784	146.120000
290.958893	146.320000
291.052032	145.740000
291.145172	145.520000
291.238281	145.440000
291.331421	145.940000
291.424561	146.300000
291.517670	146.060000
291.610809	146.120000
291.703949	146.220000
291.797089	146.240000
291.890228	145.720000
291.983337	145.620000
292.076477	145.460000
292.169617	145.920000
292.262756	146.080000
292.355927	145.860000
292.449036	146.160000
292.542206	146.080000
292.635315	145.920000
292.728485	146.040000
292.821625	146.100000
292.914764	147.020000
293.007904	147.380000
293.101044	147.160000
293.194183	146.820000
293.287323	147.040000
293.380463	146.200000
293.473602	145.920000
293.566742	146.220000
293.659882	146.780000
293.753021	146.900000
293.846191	146.820000
293.939331	146.600000
294.032471	146.460000
294.125610	145.880000
294.218781	146.100000
294.311920	146.460000
294.405060	146.600000
294.498230	146.580000
294.591370	146.480000
294.684540	145.960000
294.777679	145.140000
294.870850	145.660000
294.963959	145.460000
295.057159	145.460000
295.150299	145.860000
295.243469	146.040000
295.336609	145.280000
295.429779	145.460000
295.522919	145.840000
295.616089	145.760000
295.709229	146.460000
295.802399	146.840000
295.895569	146.540000
295.988708	146.580000
296.081879	146.620000
296.175018	146.120000
296.268188	145.820000
296.361359	146.460000
296.454529	146.420000
296.547668	146.280000
296.640839	146.680000
296.734009	146.660000
296.827179	146.660000
296.920319	147.080000
297.013519	147.120000
297.106659	147.220000
297.199860	147.240000
297.292999	147.080000
297.386200	146.600000
297.479309	146.380000
297.572510	146.040000
297.665680	145.780000
297.758850	145.820000
297.852020	145.700000
297.945190	145.720000
298.038361	145.520000
298.131531	146.600000
298.224701	146.380000
298.317871	146.140000
298.411072	145.740000
298.504242	145.600000
298.597412	145.000000
298.690582	145.320000
298.783752	145.520000
298.876923	146.300000
298.970093	146.560000
299.063293	146.700000
299.156464	146.940000
299.249634	147.240000
299.342834	147.120000
299.436005	147.460000
299.529205	147.540000
299.622345	147.220000
299.715576	146.500000
299.808716	146.220000
299.901917	146.180000
299.995117	146.140000
300.088287	146.380000
300.181488	146.660000
300.274658	146.620000
300.367828	146.440000
300.461029	146.440000
300.554199	146.580000
300.647400	146.620000
300.740601	147.040000
300.833771	147.040000
300.926971	147.200000
301.020142	146.600000
301.113342	146.360000
301.206512	146.460000
301.299713	146.740000
301.392914	146.720000
301.486084	147.080000
301.579285	147.300000
301.672516	147.520000
301.765686	147.040000
301.858887	146.900000
301.952057	146.840000
302.045288	147.240000
302.138458	146.640000
302.231659	146.380000
302.324860	146.160000
302.418060	145.980000
302.511261	145.700000
302.604462	146.080000
302.697662	146.400000
302.790863	146.380000
302.884064	146.380000
302.977264	146.360000
303.070465	146.720000
303.163666	147.320000
303.256866	147.800000
303.350067	147.700000
303.443268	148.020000
303.536469	147.900000
303.629669	147.260000
303.722870	147.320000
303.816071	147.340000
303.909271	147.180000
304.002472	146.300000
304.095673	146.220000
304.188934	145.160000
304.282104	145.840000
304.375336	145.580000
304.468506	145.920000
304.561768	145.800000
304.654968	146.820000
304.748169	146.060000
304.841370	145.780000
304.934601	146.260000
305.027802	146.140000
305.121002	145.800000
305.214233	146.220000
305.307434	146.620000
305.400665	146.660000
305.493866	146.580000
