Model Number: SPM-002-B   
Serial Number: 70087108
Firmware Version: 004.15.4
Exposure Time: 100000.000000us
Data Taken on: 11-12-2020 18:48:02.898
Wavelength	Amplitude
221.570786	0.000000
221.663406	0.000000
221.756027	0.000000
221.848648	0.000000
221.941269	0.000000
222.033905	0.000000
222.126526	0.000000
222.219162	0.000000
222.311798	0.000000
222.404419	0.000000
222.497055	0.000000
222.589676	0.000000
222.682312	0.000000
222.774933	0.000000
222.867569	0.000000
222.960205	0.000000
223.052841	0.000000
223.145462	0.000000
223.238098	0.000000
223.330734	0.000000
223.423386	0.000000
223.516022	0.000000
223.608658	0.000000
223.701309	0.000000
223.793945	0.000000
223.886581	0.000000
223.979218	0.000000
224.071869	0.000000
224.164505	0.000000
224.257156	0.000000
224.349792	0.000000
224.442444	0.000000
224.535095	0.000000
224.627747	0.000000
224.720398	0.000000
224.813034	0.000000
224.905685	0.000000
224.998337	145.540000
225.090988	145.360000
225.183640	145.200000
225.276291	145.020000
225.368942	145.160000
225.461594	145.640000
225.554245	145.860000
225.646912	146.140000
225.739578	146.720000
225.832230	147.200000
225.924896	146.340000
226.017548	146.860000
226.110199	147.540000
226.202866	146.700000
226.295532	146.160000
226.388184	146.280000
226.480850	145.680000
226.573517	144.860000
226.666168	145.300000
226.758835	145.540000
226.851501	146.140000
226.944183	146.400000
227.036850	146.020000
227.129517	146.040000
227.222183	146.400000
227.314850	146.100000
227.407516	146.080000
227.500198	147.120000
227.592865	146.580000
227.685532	146.140000
227.778214	146.040000
227.870880	146.260000
227.963562	146.620000
228.056229	147.220000
228.148926	147.120000
228.241592	147.720000
228.334274	147.360000
228.426956	146.840000
228.519638	146.900000
228.612305	146.620000
228.704987	146.300000
228.797668	146.260000
228.890350	145.700000
228.983032	144.900000
229.075714	145.780000
229.168396	145.580000
229.261108	145.320000
229.353790	145.400000
229.446472	146.180000
229.539169	145.900000
229.631851	145.440000
229.724533	145.760000
229.817230	146.100000
229.909912	146.920000
230.002609	146.460000
230.095306	146.700000
230.187988	146.540000
230.280685	146.500000
230.373383	145.020000
230.466095	145.160000
230.558792	145.580000
230.651474	145.700000
230.744171	145.640000
230.836868	146.120000
230.929581	146.400000
231.022278	146.480000
231.114975	146.740000
231.207672	146.280000
231.300369	146.440000
231.393082	146.400000
231.485779	145.940000
231.578506	145.800000
231.671204	146.260000
231.763916	146.120000
231.856613	146.140000
231.949326	146.680000
232.042023	146.440000
232.134735	146.260000
232.227448	146.280000
232.320160	146.680000
232.412872	146.300000
232.505585	147.340000
232.598297	147.960000
232.691010	147.780000
232.783722	147.320000
232.876450	147.820000
232.969162	146.700000
233.061874	145.880000
233.154587	145.480000
233.247314	145.620000
233.340027	144.980000
233.432739	145.760000
233.525467	145.700000
233.618179	146.520000
233.710907	146.080000
233.803635	146.880000
233.896347	146.400000
233.989090	147.160000
234.081818	146.660000
234.174545	146.980000
234.267258	146.060000
234.359985	146.320000
234.452713	146.100000
234.545441	146.040000
234.638168	145.580000
234.730896	146.260000
234.823639	146.140000
234.916367	146.260000
235.009094	146.480000
235.101822	146.900000
235.194580	146.700000
235.287308	146.720000
235.380051	146.340000
235.472778	146.560000
235.565521	147.060000
235.658249	146.900000
235.750992	146.600000
235.843719	146.580000
235.936462	146.460000
236.029205	145.400000
236.121948	144.900000
236.214691	145.260000
236.307449	145.840000
236.400192	145.660000
236.492935	146.000000
236.585678	146.160000
236.678421	146.280000
236.771164	146.200000
236.863907	146.600000
236.956665	146.860000
237.049408	148.440000
237.142151	147.860000
237.234909	148.080000
237.327652	147.740000
237.420410	147.240000
237.513153	146.240000
237.605927	146.200000
237.698669	145.660000
237.791428	145.240000
237.884186	145.840000
237.976944	145.380000
238.069702	145.880000
238.162445	145.460000
238.255203	145.620000
238.347961	146.000000
238.440720	146.020000
238.533478	145.860000
238.626266	145.880000
238.719025	146.420000
238.811783	145.960000
238.904541	146.260000
238.997314	146.220000
239.090073	145.960000
239.182831	146.360000
239.275604	146.960000
239.368362	146.600000
239.461136	146.900000
239.553909	147.280000
239.646667	146.680000
239.739441	146.100000
239.832214	146.460000
239.925003	146.160000
240.017761	146.880000
240.110535	147.340000
240.203308	147.160000
240.296082	147.340000
240.388855	147.300000
240.481628	147.160000
240.574417	147.040000
240.667191	147.420000
240.759964	146.800000
240.852737	146.700000
240.945526	145.960000
241.038315	145.660000
241.131088	145.520000
241.223877	145.720000
241.316650	145.720000
241.409439	146.300000
241.502228	146.000000
241.595001	146.380000
241.687790	146.480000
241.780579	146.340000
241.873367	146.560000
241.966141	146.940000
242.058929	146.240000
242.151718	146.740000
242.244507	147.240000
242.337311	146.420000
242.430099	146.680000
242.522903	147.220000
242.615692	146.560000
242.708481	146.280000
242.801270	146.940000
242.894073	146.640000
242.986862	146.220000
243.079651	146.860000
243.172455	146.880000
243.265244	146.840000
243.358063	146.440000
243.450867	146.900000
243.543655	146.300000
243.636459	146.660000
243.729263	146.880000
243.822067	147.480000
243.914856	147.820000
244.007660	147.940000
244.100464	147.400000
244.193268	146.820000
244.286072	146.460000
244.378876	145.600000
244.471680	145.300000
244.564499	145.780000
244.657318	146.460000
244.750122	146.860000
244.842926	146.560000
244.935745	147.320000
245.028549	147.200000
245.121368	146.620000
245.214172	146.480000
245.306992	146.980000
245.399796	146.420000
245.492615	146.160000
245.585434	146.120000
245.678253	146.040000
245.771072	145.820000
245.863892	146.380000
245.956711	146.820000
246.049530	146.720000
246.142349	146.580000
246.235168	146.760000
246.327988	146.920000
246.420807	146.520000
246.513626	146.740000
246.606445	146.500000
246.699280	146.700000
246.792099	146.180000
246.884918	145.760000
246.977753	145.500000
247.070587	145.740000
247.163422	145.620000
247.256241	145.720000
247.349075	146.400000
247.441895	146.640000
247.534729	146.620000
247.627563	146.160000
247.720383	146.480000
247.813217	146.240000
247.906052	145.840000
247.998886	145.580000
248.091736	145.800000
248.184570	145.380000
248.277405	145.280000
248.370239	146.580000
248.463074	147.800000
248.555908	147.720000
248.648743	147.900000
248.741592	148.400000
248.834427	147.080000
248.927261	146.220000
249.020111	146.920000
249.112946	147.440000
249.205795	146.920000
249.298630	147.520000
249.391495	147.140000
249.484344	146.720000
249.577179	146.160000
249.670029	146.240000
249.762878	146.680000
249.855728	146.940000
249.948563	147.060000
250.041412	146.800000
250.134262	146.880000
250.227112	146.540000
250.319962	146.780000
250.412827	146.700000
250.505692	146.500000
250.598541	146.560000
250.691391	146.360000
250.784241	146.160000
250.877106	146.160000
250.969955	145.960000
251.062805	146.280000
251.155670	146.820000
251.248520	146.580000
251.341385	146.720000
251.434235	146.900000
251.527100	146.580000
251.619965	145.940000
251.712814	147.160000
251.805695	147.140000
251.898560	147.420000
251.991425	147.760000
252.084290	148.040000
252.177155	146.920000
252.270020	146.560000
252.362885	146.580000
252.455750	146.380000
252.548615	146.240000
252.641479	146.380000
252.734360	146.540000
252.827240	146.260000
252.920105	146.420000
253.012970	145.920000
253.105850	145.920000
253.198715	145.740000
253.291595	145.900000
253.384460	145.580000
253.477341	146.060000
253.570221	146.220000
253.663086	146.060000
253.755966	146.660000
253.848846	146.500000
253.941727	146.340000
254.034592	146.000000
254.127472	145.800000
254.220367	145.480000
254.313248	145.720000
254.406128	145.240000
254.499008	145.840000
254.591904	146.720000
254.684784	147.360000
254.777664	147.240000
254.870544	147.260000
254.963440	146.940000
255.056335	146.800000
255.149216	146.200000
255.242111	146.740000
255.334991	147.320000
255.427887	147.360000
255.520767	147.280000
255.613663	147.400000
255.706558	146.540000
255.799438	146.040000
255.892334	145.660000
255.985229	145.460000
256.078125	145.160000
256.171021	145.500000
256.263916	146.260000
256.356812	146.620000
256.449707	147.180000
256.542603	147.100000
256.635498	147.540000
256.728394	147.220000
256.821289	146.940000
256.914215	146.560000
257.007080	146.940000
257.100006	147.000000
257.192932	147.440000
257.285828	147.620000
257.378723	147.740000
257.471619	147.300000
257.564545	146.740000
257.657440	146.340000
257.750336	146.800000
257.843262	146.220000
257.936157	147.260000
258.029053	147.580000
258.121979	147.600000
258.214874	147.300000
258.307800	147.500000
258.400696	146.460000
258.493622	146.340000
258.586517	145.820000
258.679443	145.780000
258.772339	145.320000
258.865265	145.280000
258.958160	145.100000
259.051086	145.940000
259.144012	145.900000
259.236938	146.720000
259.329834	146.960000
259.422791	146.580000
259.515717	146.060000
259.608612	146.080000
259.701538	146.020000
259.794464	146.040000
259.887390	146.300000
259.980316	146.060000
260.073212	145.740000
260.166138	144.880000
260.259064	145.040000
260.351990	145.500000
260.444916	145.900000
260.537842	146.400000
260.630768	147.340000
260.723694	147.200000
260.816620	147.220000
260.909546	147.260000
261.002472	146.560000
261.095398	145.900000
261.188354	145.800000
261.281281	144.920000
261.374207	144.720000
261.467133	145.740000
261.560089	146.200000
261.653015	145.880000
261.745972	146.920000
261.838867	147.240000
261.931824	146.920000
262.024780	146.400000
262.117706	146.920000
262.210663	146.760000
262.303589	146.880000
262.396515	146.780000
262.489471	147.780000
262.582397	147.620000
262.675354	147.220000
262.768280	147.040000
262.861237	147.080000
262.954163	146.580000
263.047119	146.520000
263.140045	146.240000
263.233002	146.100000
263.325958	145.920000
263.418884	145.460000
263.511841	145.280000
263.604797	145.460000
263.697723	145.560000
263.790680	145.540000
263.883636	146.400000
263.976593	146.380000
264.069550	146.720000
264.162476	146.200000
264.255463	146.180000
264.348419	145.560000
264.441376	145.780000
264.534332	145.360000
264.627289	145.880000
264.720245	146.240000
264.813202	146.060000
264.906158	146.320000
264.999115	146.720000
265.092072	146.820000
265.185028	147.160000
265.277985	147.340000
265.370941	147.120000
265.463898	147.180000
265.556854	146.640000
265.649811	145.680000
265.742798	145.840000
265.835754	145.960000
265.928711	146.320000
266.021667	146.500000
266.114655	146.960000
266.207611	147.080000
266.300568	146.360000
266.393585	145.640000
266.486511	146.220000
266.579498	145.620000
266.672485	145.500000
266.765442	145.740000
266.858429	146.200000
266.951385	145.480000
267.044342	146.000000
267.137329	145.940000
267.230316	146.100000
267.323273	145.680000
267.416260	146.620000
267.509216	146.440000
267.602203	146.620000
267.695160	147.120000
267.788147	147.380000
267.881134	146.840000
267.974091	147.140000
268.067078	146.700000
268.160065	146.460000
268.253052	146.140000
268.346008	146.000000
268.438995	145.620000
268.531982	146.160000
268.624969	145.760000
268.717987	146.320000
268.810944	146.240000
268.903961	146.360000
268.996948	145.720000
269.089905	146.280000
269.182892	146.100000
269.275879	146.560000
269.368866	146.140000
269.461853	146.600000
269.554871	146.320000
269.647858	146.120000
269.740845	146.120000
269.833832	146.700000
269.926819	146.340000
270.019806	146.600000
270.112793	146.400000
270.205811	146.260000
270.298798	145.840000
270.391785	146.620000
270.484772	146.120000
270.577789	146.200000
270.670776	145.720000
270.763763	145.740000
270.856750	145.380000
270.949768	145.360000
271.042786	145.520000
271.135773	145.800000
271.228790	146.540000
271.321808	145.880000
271.414795	145.680000
271.507782	145.480000
271.600800	145.220000
271.693817	145.140000
271.786804	145.980000
271.879822	146.420000
271.972809	146.380000
272.065826	147.100000
272.158844	146.500000
272.251831	146.840000
272.344849	146.880000
272.437866	146.720000
272.530853	146.520000
272.623871	146.680000
272.716888	145.340000
272.809906	145.240000
272.902893	145.300000
272.995911	144.660000
273.088928	144.660000
273.181946	145.340000
273.274963	145.240000
273.367981	145.540000
273.460999	145.880000
273.554047	146.460000
273.647003	147.000000
273.740051	147.420000
273.833069	147.580000
273.926086	147.780000
274.019135	147.200000
274.112152	146.760000
274.205170	146.500000
274.298187	146.800000
274.391205	146.320000
274.484222	146.500000
274.577240	146.640000
274.670258	146.380000
274.763306	145.900000
274.856323	146.280000
274.949341	146.200000
275.042358	146.380000
275.135406	146.560000
275.228424	146.400000
275.321442	146.280000
275.414490	146.240000
275.507507	146.420000
275.600525	146.580000
275.693573	146.700000
275.786591	146.420000
275.879669	146.540000
275.972656	146.040000
276.065735	145.800000
276.158752	146.040000
276.251801	146.880000
276.344818	147.020000
276.437866	146.960000
276.530884	146.960000
276.623932	146.060000
276.716980	145.660000
276.809998	145.640000
276.903046	145.460000
276.996094	146.220000
277.089111	147.220000
277.182159	147.800000
277.275208	147.460000
277.368256	147.900000
277.461304	147.420000
277.554321	146.600000
277.647369	146.040000
277.740417	145.900000
277.833466	145.580000
277.926514	145.440000
278.019562	146.340000
278.112610	145.880000
278.205688	146.240000
278.298706	146.460000
278.391785	146.020000
278.484833	145.340000
278.577881	145.340000
278.670929	145.220000
278.763977	145.340000
278.857025	146.180000
278.950073	146.460000
279.043121	146.660000
279.136169	146.640000
279.229248	146.100000
279.322296	145.760000
279.415344	145.520000
279.508392	145.300000
279.601440	145.400000
279.694519	145.360000
279.787567	145.200000
279.880615	145.080000
279.973694	145.260000
280.066742	145.180000
280.159790	145.500000
280.252869	145.440000
280.345917	145.980000
280.438995	146.100000
280.532074	145.960000
280.625122	146.280000
280.718201	147.300000
280.811279	147.100000
280.904327	147.060000
280.997406	147.200000
281.090454	147.320000
281.183533	146.480000
281.276581	146.500000
281.369659	146.180000
281.462738	146.060000
281.555786	145.560000
281.648865	145.600000
281.741943	145.380000
281.835022	146.400000
281.928070	146.500000
282.021149	146.540000
282.114227	146.340000
282.207306	146.400000
282.300385	146.200000
282.393433	146.420000
282.486511	146.240000
282.579590	147.000000
282.672668	147.140000
282.765747	146.420000
282.858856	146.060000
282.951904	146.340000
283.045013	146.060000
283.138062	146.520000
283.231171	147.160000
283.324249	147.260000
283.417328	147.420000
283.510406	146.880000
283.603485	146.400000
283.696564	146.160000
283.789642	146.540000
283.882751	146.120000
283.975830	146.760000
284.068909	146.460000
284.161987	146.900000
284.255066	146.300000
284.348175	146.580000
284.441254	146.280000
284.534332	146.740000
284.627441	146.040000
284.720520	145.940000
284.813599	145.960000
284.906708	146.160000
284.999786	145.800000
285.092896	145.460000
285.185974	146.680000
285.279053	146.320000
285.372192	146.120000
285.465240	146.780000
285.558380	147.020000
285.651459	146.260000
285.744568	147.320000
285.837677	147.060000
285.930756	146.680000
286.023865	147.040000
286.116943	146.460000
286.210052	146.020000
286.303162	146.660000
286.396240	146.760000
286.489349	146.300000
286.582458	147.100000
286.675568	146.580000
286.768646	146.200000
286.861755	146.580000
286.954865	147.420000
287.047974	146.640000
287.141083	146.580000
287.234161	146.220000
287.327271	145.820000
287.420380	146.040000
287.513519	146.160000
287.606598	146.240000
287.699738	146.660000
287.792816	146.680000
287.885956	146.120000
287.979034	146.140000
288.072174	146.460000
288.165283	146.440000
288.258392	146.540000
288.351501	146.000000
288.444611	146.320000
288.537720	146.460000
288.630859	146.140000
288.723969	146.000000
288.817078	146.560000
288.910187	146.440000
289.003296	145.900000
289.096436	145.620000
289.189545	145.600000
289.282654	145.100000
289.375763	145.700000
289.468903	146.100000
289.562012	146.580000
289.655121	146.440000
289.748260	146.740000
289.841400	146.640000
289.934509	146.380000
290.027649	146.440000
290.120728	146.380000
290.213898	146.320000
290.306976	146.000000
290.400146	146.340000
290.493256	146.140000
290.586395	146.380000
290.679535	146.780000
290.772644	146.680000
290.865784	145.860000
290.958893	145.540000
291.052032	145.180000
291.145172	145.000000
291.238281	144.760000
291.331421	144.980000
291.424561	145.840000
291.517670	145.760000
291.610809	146.140000
291.703949	146.320000
291.797089	146.780000
291.890228	146.020000
291.983337	146.020000
292.076477	145.300000
292.169617	145.780000
292.262756	145.760000
292.355927	145.960000
292.449036	146.140000
292.542206	146.480000
292.635315	146.240000
292.728485	146.380000
292.821625	146.300000
292.914764	147.260000
293.007904	147.180000
293.101044	147.100000
293.194183	146.760000
293.287323	146.920000
293.380463	145.900000
293.473602	145.620000
293.566742	145.820000
293.659882	146.300000
293.753021	146.340000
293.846191	146.480000
293.939331	146.080000
294.032471	145.900000
294.125610	145.620000
294.218781	145.920000
294.311920	146.140000
294.405060	146.800000
294.498230	146.820000
294.591370	146.800000
294.684540	146.020000
294.777679	145.700000
294.870850	145.980000
294.963959	145.700000
295.057159	145.480000
295.150299	146.000000
295.243469	146.060000
295.336609	145.160000
295.429779	145.500000
295.522919	145.980000
295.616089	145.820000
295.709229	146.060000
295.802399	146.560000
295.895569	146.060000
295.988708	145.700000
296.081879	146.080000
296.175018	145.600000
296.268188	145.640000
296.361359	146.300000
296.454529	146.520000
296.547668	146.200000
296.640839	146.800000
296.734009	146.520000
296.827179	146.340000
296.920319	146.520000
297.013519	146.240000
297.106659	146.020000
297.199860	146.020000
297.292999	145.880000
297.386200	145.400000
297.479309	145.460000
297.572510	145.480000
297.665680	145.420000
297.758850	145.520000
297.852020	145.660000
297.945190	145.400000
298.038361	145.080000
298.131531	145.840000
298.224701	145.420000
298.317871	145.260000
298.411072	145.220000
298.504242	145.300000
298.597412	144.960000
298.690582	145.280000
298.783752	145.380000
298.876923	146.160000
298.970093	146.080000
299.063293	146.260000
299.156464	146.620000
299.249634	146.880000
299.342834	146.860000
299.436005	147.640000
299.529205	147.480000
299.622345	147.260000
299.715576	146.680000
299.808716	146.300000
299.901917	145.720000
299.995117	146.000000
300.088287	146.260000
300.181488	146.260000
300.274658	146.360000
300.367828	146.580000
300.461029	146.380000
300.554199	146.500000
300.647400	146.480000
300.740601	146.800000
300.833771	146.780000
300.926971	146.820000
301.020142	146.320000
301.113342	146.680000
301.206512	146.300000
301.299713	146.340000
301.392914	146.360000
301.486084	146.600000
301.579285	146.340000
301.672516	147.020000
301.765686	146.780000
301.858887	146.560000
301.952057	146.680000
302.045288	146.720000
302.138458	146.060000
302.231659	145.920000
302.324860	145.960000
302.418060	145.580000
302.511261	145.640000
302.604462	145.920000
302.697662	146.000000
302.790863	146.040000
302.884064	145.860000
302.977264	145.880000
303.070465	146.100000
303.163666	146.740000
303.256866	146.760000
303.350067	146.780000
303.443268	146.660000
303.536469	146.640000
303.629669	146.060000
303.722870	146.120000
303.816071	146.060000
303.909271	146.520000
304.002472	145.780000
304.095673	145.520000
304.188934	144.900000
304.282104	145.960000
304.375336	145.940000
304.468506	146.440000
304.561768	146.360000
304.654968	147.080000
304.748169	146.400000
304.841370	145.980000
304.934601	146.060000
305.027802	146.260000
305.121002	145.980000
305.214233	146.020000
305.307434	146.020000
305.400665	146.620000
305.493866	146.260000
