Model Number: SPM-002-B   
Serial Number: 70087108
Firmware Version: 004.15.4
Exposure Time: 100000.000000us
Data Taken on: 11-12-2020 18:48:17.159
Wavelength	Amplitude
221.570786	0.000000
221.663406	0.000000
221.756027	0.000000
221.848648	0.000000
221.941269	0.000000
222.033905	0.000000
222.126526	0.000000
222.219162	0.000000
222.311798	0.000000
222.404419	0.000000
222.497055	0.000000
222.589676	0.000000
222.682312	0.000000
222.774933	0.000000
222.867569	0.000000
222.960205	0.000000
223.052841	0.000000
223.145462	0.000000
223.238098	0.000000
223.330734	0.000000
223.423386	0.000000
223.516022	0.000000
223.608658	0.000000
223.701309	0.000000
223.793945	0.000000
223.886581	0.000000
223.979218	0.000000
224.071869	0.000000
224.164505	0.000000
224.257156	0.000000
224.349792	0.000000
224.442444	0.000000
224.535095	0.000000
224.627747	0.000000
224.720398	0.000000
224.813034	0.000000
224.905685	0.000000
224.998337	145.300000
225.090988	145.120000
225.183640	144.960000
225.276291	144.880000
225.368942	145.680000
225.461594	146.220000
225.554245	146.160000
225.646912	146.360000
225.739578	147.140000
225.832230	147.160000
225.924896	146.420000
226.017548	146.960000
226.110199	147.440000
226.202866	146.440000
226.295532	146.200000
226.388184	145.940000
226.480850	145.340000
226.573517	144.680000
226.666168	145.180000
226.758835	145.540000
226.851501	146.280000
226.944183	146.400000
227.036850	146.180000
227.129517	146.300000
227.222183	146.160000
227.314850	145.980000
227.407516	146.060000
227.500198	147.160000
227.592865	146.480000
227.685532	146.420000
227.778214	146.020000
227.870880	146.300000
227.963562	146.200000
228.056229	146.820000
228.148926	146.620000
228.241592	147.640000
228.334274	147.360000
228.426956	147.060000
228.519638	146.960000
228.612305	146.700000
228.704987	146.440000
228.797668	146.560000
228.890350	146.000000
228.983032	145.540000
229.075714	146.180000
229.168396	145.840000
229.261108	145.600000
229.353790	145.780000
229.446472	146.220000
229.539169	146.000000
229.631851	145.600000
229.724533	145.760000
229.817230	146.020000
229.909912	146.940000
230.002609	147.000000
230.095306	147.200000
230.187988	147.260000
230.280685	147.020000
230.373383	145.900000
230.466095	145.480000
230.558792	145.880000
230.651474	145.800000
230.744171	145.620000
230.836868	145.480000
230.929581	145.940000
231.022278	145.760000
231.114975	145.580000
231.207672	145.700000
231.300369	146.140000
231.393082	146.160000
231.485779	146.000000
231.578506	146.140000
231.671204	146.260000
231.763916	146.500000
231.856613	146.440000
231.949326	146.700000
232.042023	146.680000
232.134735	146.540000
232.227448	145.780000
232.320160	146.060000
232.412872	145.980000
232.505585	146.920000
232.598297	147.260000
232.691010	147.340000
232.783722	146.780000
232.876450	147.500000
232.969162	146.660000
233.061874	146.180000
233.154587	146.000000
233.247314	146.300000
233.340027	145.620000
233.432739	146.120000
233.525467	146.380000
233.618179	146.900000
233.710907	146.540000
233.803635	146.860000
233.896347	146.560000
233.989090	147.140000
234.081818	147.020000
234.174545	147.400000
234.267258	146.740000
234.359985	146.940000
234.452713	146.580000
234.545441	146.520000
234.638168	146.280000
234.730896	146.860000
234.823639	146.500000
234.916367	146.720000
235.009094	146.820000
235.101822	146.920000
235.194580	146.660000
235.287308	146.760000
235.380051	146.020000
235.472778	146.380000
235.565521	146.560000
235.658249	146.140000
235.750992	146.040000
235.843719	146.140000
235.936462	146.000000
236.029205	145.580000
236.121948	145.640000
236.214691	146.240000
236.307449	146.900000
236.400192	146.480000
236.492935	146.260000
236.585678	146.500000
236.678421	145.980000
236.771164	145.880000
236.863907	146.340000
236.956665	146.860000
237.049408	148.180000
237.142151	148.160000
237.234909	148.620000
237.327652	148.400000
237.420410	148.320000
237.513153	147.520000
237.605927	147.400000
237.698669	146.920000
237.791428	146.420000
237.884186	146.960000
237.976944	146.240000
238.069702	146.540000
238.162445	145.980000
238.255203	146.340000
238.347961	146.260000
238.440720	146.520000
238.533478	146.260000
238.626266	146.480000
238.719025	146.860000
238.811783	146.420000
238.904541	146.140000
238.997314	146.220000
239.090073	145.960000
239.182831	145.900000
239.275604	146.560000
239.368362	146.400000
239.461136	146.560000
239.553909	146.620000
239.646667	146.220000
239.739441	145.660000
239.832214	146.340000
239.925003	146.320000
240.017761	147.060000
240.110535	147.840000
240.203308	147.640000
240.296082	147.520000
240.388855	147.280000
240.481628	147.080000
240.574417	147.020000
240.667191	147.060000
240.759964	146.740000
240.852737	146.740000
240.945526	146.220000
241.038315	145.800000
241.131088	146.080000
241.223877	146.220000
241.316650	145.660000
241.409439	146.200000
241.502228	145.840000
241.595001	145.900000
241.687790	145.780000
241.780579	146.440000
241.873367	146.280000
241.966141	146.720000
242.058929	146.040000
242.151718	146.220000
242.244507	146.640000
242.337311	146.200000
242.430099	146.400000
242.522903	147.160000
242.615692	147.000000
242.708481	146.760000
242.801270	147.260000
242.894073	146.860000
242.986862	146.540000
243.079651	147.260000
243.172455	146.900000
243.265244	146.780000
243.358063	146.340000
243.450867	146.780000
243.543655	146.280000
243.636459	146.580000
243.729263	146.880000
243.822067	147.460000
243.914856	147.660000
244.007660	147.820000
244.100464	147.640000
244.193268	146.960000
244.286072	146.780000
244.378876	145.920000
244.471680	145.680000
244.564499	146.100000
244.657318	147.000000
244.750122	147.100000
244.842926	146.640000
244.935745	146.760000
245.028549	146.260000
245.121368	145.760000
245.214172	145.900000
245.306992	146.740000
245.399796	146.620000
245.492615	146.640000
245.585434	146.540000
245.678253	146.360000
245.771072	146.040000
245.863892	146.460000
245.956711	146.940000
246.049530	147.000000
246.142349	147.080000
246.235168	147.440000
246.327988	147.640000
246.420807	146.940000
246.513626	146.980000
246.606445	146.340000
246.699280	146.160000
246.792099	145.560000
246.884918	145.440000
246.977753	145.120000
247.070587	145.700000
247.163422	145.480000
247.256241	145.360000
247.349075	145.900000
247.441895	146.200000
247.534729	146.080000
247.627563	146.140000
247.720383	146.880000
247.813217	146.700000
247.906052	146.400000
247.998886	146.500000
248.091736	146.180000
248.184570	145.620000
248.277405	145.620000
248.370239	146.620000
248.463074	147.520000
248.555908	148.060000
248.648743	148.020000
248.741592	148.140000
248.834427	147.480000
248.927261	146.200000
249.020111	146.600000
249.112946	147.160000
249.205795	146.780000
249.298630	146.800000
249.391495	146.980000
249.484344	146.380000
249.577179	146.060000
249.670029	146.180000
249.762878	146.520000
249.855728	146.680000
249.948563	146.600000
250.041412	146.320000
250.134262	146.700000
250.227112	146.760000
250.319962	146.660000
250.412827	146.780000
250.505692	146.320000
250.598541	146.100000
250.691391	145.540000
250.784241	145.520000
250.877106	145.620000
250.969955	145.880000
251.062805	146.220000
251.155670	146.920000
251.248520	146.800000
251.341385	146.900000
251.434235	147.020000
251.527100	146.840000
251.619965	146.000000
251.712814	146.920000
251.805695	146.920000
251.898560	146.780000
251.991425	146.900000
252.084290	147.080000
252.177155	146.240000
252.270020	146.120000
252.362885	146.260000
252.455750	146.000000
252.548615	145.880000
252.641479	145.860000
252.734360	145.620000
252.827240	145.500000
252.920105	145.560000
253.012970	145.240000
253.105850	145.320000
253.198715	145.260000
253.291595	145.620000
253.384460	145.200000
253.477341	145.560000
253.570221	145.840000
253.663086	145.840000
253.755966	146.200000
253.848846	146.500000
253.941727	146.660000
254.034592	146.440000
254.127472	146.080000
254.220367	145.840000
254.313248	146.000000
254.406128	145.780000
254.499008	145.920000
254.591904	146.980000
254.684784	147.200000
254.777664	147.180000
254.870544	146.880000
254.963440	146.560000
255.056335	146.180000
255.149216	145.780000
255.242111	146.220000
255.334991	147.000000
255.427887	147.460000
255.520767	147.480000
255.613663	147.640000
255.706558	147.020000
255.799438	146.440000
255.892334	146.020000
255.985229	146.020000
256.078125	145.500000
256.171021	145.600000
256.263916	146.100000
256.356812	146.540000
256.449707	146.620000
256.542603	146.520000
256.635498	147.020000
256.728394	146.820000
256.821289	146.560000
256.914215	146.800000
257.007080	147.480000
257.100006	147.060000
257.192932	147.140000
257.285828	147.460000
257.378723	146.960000
257.471619	146.480000
257.564545	145.940000
257.657440	146.060000
257.750336	146.320000
257.843262	146.420000
257.936157	147.620000
258.029053	148.340000
258.121979	148.500000
258.214874	147.740000
258.307800	147.300000
258.400696	146.140000
258.493622	145.880000
258.586517	144.680000
258.679443	145.060000
258.772339	145.060000
258.865265	144.900000
258.958160	144.720000
259.051086	146.100000
259.144012	145.920000
259.236938	146.700000
259.329834	147.300000
259.422791	147.100000
259.515717	146.220000
259.608612	145.840000
259.701538	145.700000
259.794464	145.160000
259.887390	145.560000
259.980316	145.760000
260.073212	145.920000
260.166138	145.200000
260.259064	145.780000
260.351990	145.880000
260.444916	146.100000
260.537842	146.660000
260.630768	147.400000
260.723694	147.060000
260.816620	146.800000
260.909546	146.620000
261.002472	146.220000
261.095398	145.700000
261.188354	145.860000
261.281281	145.840000
261.374207	145.940000
261.467133	146.320000
261.560089	146.720000
261.653015	146.220000
261.745972	146.660000
261.838867	146.780000
261.931824	146.920000
262.024780	146.320000
262.117706	146.880000
262.210663	147.020000
262.303589	146.920000
262.396515	146.800000
262.489471	147.880000
262.582397	147.540000
262.675354	147.080000
262.768280	146.920000
262.861237	146.860000
262.954163	146.300000
263.047119	146.500000
263.140045	146.440000
263.233002	146.520000
263.325958	146.400000
263.418884	146.080000
263.511841	146.080000
263.604797	146.180000
263.697723	145.900000
263.790680	145.760000
263.883636	146.340000
263.976593	146.140000
264.069550	146.020000
264.162476	145.980000
264.255463	145.960000
264.348419	145.660000
264.441376	145.980000
264.534332	145.900000
264.627289	146.320000
264.720245	146.800000
264.813202	146.540000
264.906158	146.780000
264.999115	147.320000
265.092072	147.120000
265.185028	147.740000
265.277985	147.760000
265.370941	147.420000
265.463898	147.100000
265.556854	146.880000
265.649811	145.760000
265.742798	146.080000
265.835754	145.980000
265.928711	146.340000
266.021667	146.380000
266.114655	146.560000
266.207611	146.580000
266.300568	146.200000
266.393585	145.540000
266.486511	145.960000
266.579498	145.540000
266.672485	145.460000
266.765442	145.780000
266.858429	146.460000
266.951385	145.960000
267.044342	146.320000
267.137329	146.300000
267.230316	146.320000
267.323273	145.780000
267.416260	146.740000
267.509216	146.480000
267.602203	146.520000
267.695160	147.080000
267.788147	147.280000
267.881134	146.480000
267.974091	146.840000
268.067078	146.600000
268.160065	146.260000
268.253052	146.180000
268.346008	146.300000
268.438995	145.920000
268.531982	145.980000
268.624969	145.600000
268.717987	146.000000
268.810944	146.000000
268.903961	146.200000
268.996948	145.840000
269.089905	146.560000
269.182892	146.240000
269.275879	146.360000
269.368866	145.880000
269.461853	146.460000
269.554871	145.940000
269.647858	146.240000
269.740845	146.540000
269.833832	147.200000
269.926819	146.820000
270.019806	146.900000
270.112793	146.420000
270.205811	146.540000
270.298798	146.020000
270.391785	146.660000
270.484772	146.440000
270.577789	146.520000
270.670776	145.820000
270.763763	145.740000
270.856750	145.540000
270.949768	145.440000
271.042786	145.360000
271.135773	145.520000
271.228790	146.060000
271.321808	145.560000
271.414795	145.220000
271.507782	145.040000
271.600800	144.860000
271.693817	144.800000
271.786804	145.320000
271.879822	145.840000
271.972809	145.840000
272.065826	146.320000
272.158844	145.920000
272.251831	146.480000
272.344849	146.420000
272.437866	146.380000
272.530853	146.240000
272.623871	146.620000
272.716888	145.580000
272.809906	145.840000
272.902893	146.260000
272.995911	145.800000
273.088928	145.820000
273.181946	146.100000
273.274963	145.680000
273.367981	145.420000
273.460999	145.920000
273.554047	146.440000
273.647003	147.020000
273.740051	147.200000
273.833069	147.620000
273.926086	147.500000
274.019135	146.920000
274.112152	146.320000
274.205170	146.240000
274.298187	146.180000
274.391205	145.940000
274.484222	145.980000
274.577240	146.300000
274.670258	146.360000
274.763306	146.240000
274.856323	146.720000
274.949341	146.760000
275.042358	146.780000
275.135406	146.780000
275.228424	146.580000
275.321442	146.260000
275.414490	145.920000
275.507507	146.080000
275.600525	146.600000
275.693573	146.540000
275.786591	146.560000
275.879669	146.640000
275.972656	146.280000
276.065735	145.920000
276.158752	146.360000
276.251801	146.880000
276.344818	147.240000
276.437866	147.120000
276.530884	146.960000
276.623932	146.020000
276.716980	145.780000
276.809998	145.860000
276.903046	146.160000
276.996094	146.940000
277.089111	148.160000
277.182159	148.520000
277.275208	148.200000
277.368256	147.880000
277.461304	147.260000
277.554321	146.440000
277.647369	146.220000
277.740417	146.260000
277.833466	146.420000
277.926514	146.600000
278.019562	147.320000
278.112610	146.880000
278.205688	146.920000
278.298706	146.860000
278.391785	146.640000
278.484833	145.960000
278.577881	146.000000
278.670929	146.320000
278.763977	146.640000
278.857025	147.180000
278.950073	147.500000
279.043121	147.440000
279.136169	147.160000
279.229248	146.300000
279.322296	145.860000
279.415344	145.580000
279.508392	145.480000
279.601440	145.420000
279.694519	145.840000
279.787567	145.740000
279.880615	145.980000
279.973694	146.140000
280.066742	146.460000
280.159790	146.620000
280.252869	146.400000
280.345917	146.340000
280.438995	146.400000
280.532074	146.000000
280.625122	146.180000
280.718201	147.060000
280.811279	147.060000
280.904327	146.700000
280.997406	146.860000
281.090454	146.820000
281.183533	145.880000
281.276581	145.680000
281.369659	145.700000
281.462738	145.900000
281.555786	145.980000
281.648865	146.580000
281.741943	146.420000
281.835022	147.120000
281.928070	146.760000
282.021149	146.380000
282.114227	146.180000
282.207306	146.280000
282.300385	146.280000
282.393433	146.440000
282.486511	146.540000
282.579590	146.860000
282.672668	147.340000
282.765747	146.600000
282.858856	146.240000
282.951904	146.380000
283.045013	146.420000
283.138062	146.540000
283.231171	147.140000
283.324249	147.720000
283.417328	147.880000
283.510406	147.240000
283.603485	147.140000
283.696564	146.880000
283.789642	146.580000
283.882751	146.420000
283.975830	147.040000
284.068909	146.480000
284.161987	147.140000
284.255066	146.880000
284.348175	146.880000
284.441254	146.640000
284.534332	147.020000
284.627441	146.420000
284.720520	146.280000
284.813599	146.380000
284.906708	146.380000
284.999786	145.940000
285.092896	145.700000
285.185974	146.920000
285.279053	146.400000
285.372192	146.420000
285.465240	147.340000
285.558380	147.380000
285.651459	146.600000
285.744568	147.660000
285.837677	147.280000
285.930756	146.820000
286.023865	147.060000
286.116943	146.820000
286.210052	146.240000
286.303162	146.500000
286.396240	146.680000
286.489349	146.200000
286.582458	146.600000
286.675568	146.400000
286.768646	146.360000
286.861755	146.480000
286.954865	147.420000
287.047974	146.900000
287.141083	146.660000
287.234161	146.460000
287.327271	146.060000
287.420380	146.280000
287.513519	146.280000
287.606598	146.740000
287.699738	147.120000
287.792816	146.920000
287.885956	146.240000
287.979034	146.400000
288.072174	146.200000
288.165283	146.020000
288.258392	146.320000
288.351501	146.180000
288.444611	146.480000
288.537720	146.900000
288.630859	146.840000
288.723969	147.000000
288.817078	147.340000
288.910187	147.200000
289.003296	146.720000
289.096436	146.480000
289.189545	146.200000
289.282654	145.840000
289.375763	146.220000
289.468903	146.560000
289.562012	146.940000
289.655121	147.040000
289.748260	147.380000
289.841400	147.180000
289.934509	147.240000
290.027649	147.140000
290.120728	147.000000
290.213898	147.040000
290.306976	146.780000
290.400146	146.640000
290.493256	146.560000
290.586395	146.840000
290.679535	146.920000
290.772644	146.900000
290.865784	146.160000
290.958893	146.100000
291.052032	145.780000
291.145172	145.580000
291.238281	145.280000
291.331421	145.720000
291.424561	146.240000
291.517670	146.340000
291.610809	146.600000
291.703949	147.000000
291.797089	147.100000
291.890228	146.340000
291.983337	146.100000
292.076477	145.780000
292.169617	146.240000
292.262756	146.180000
292.355927	146.460000
292.449036	146.400000
292.542206	146.380000
292.635315	146.040000
292.728485	146.400000
292.821625	146.300000
292.914764	147.300000
293.007904	147.360000
293.101044	147.440000
293.194183	147.320000
293.287323	147.500000
293.380463	147.040000
293.473602	146.720000
293.566742	146.900000
293.659882	147.100000
293.753021	147.300000
293.846191	147.060000
293.939331	146.920000
294.032471	146.500000
294.125610	146.200000
294.218781	146.580000
294.311920	146.900000
294.405060	147.220000
294.498230	147.340000
294.591370	147.200000
294.684540	145.980000
294.777679	145.540000
294.870850	145.860000
294.963959	145.980000
295.057159	146.000000
295.150299	147.040000
295.243469	147.040000
295.336609	146.380000
295.429779	146.220000
295.522919	146.700000
295.616089	146.180000
295.709229	146.900000
295.802399	147.080000
295.895569	146.620000
295.988708	146.160000
296.081879	146.280000
296.175018	145.460000
296.268188	145.420000
296.361359	146.140000
296.454529	146.300000
296.547668	146.220000
296.640839	146.480000
296.734009	146.460000
296.827179	146.660000
296.920319	146.940000
297.013519	146.660000
297.106659	146.860000
297.199860	147.200000
297.292999	146.680000
297.386200	145.980000
297.479309	146.100000
297.572510	145.980000
297.665680	145.520000
297.758850	145.820000
297.852020	145.920000
297.945190	145.940000
298.038361	145.420000
298.131531	146.240000
298.224701	145.680000
298.317871	145.540000
298.411072	145.080000
298.504242	144.980000
298.597412	144.380000
298.690582	144.920000
298.783752	145.220000
298.876923	145.900000
298.970093	146.060000
299.063293	146.500000
299.156464	146.880000
299.249634	147.140000
299.342834	147.340000
299.436005	148.080000
299.529205	147.760000
299.622345	147.440000
299.715576	146.800000
299.808716	146.440000
299.901917	146.280000
299.995117	146.620000
300.088287	146.600000
300.181488	146.460000
300.274658	146.520000
300.367828	146.620000
300.461029	146.340000
300.554199	146.600000
300.647400	147.020000
300.740601	147.360000
300.833771	147.120000
300.926971	147.200000
301.020142	146.680000
301.113342	146.680000
301.206512	146.340000
301.299713	146.560000
301.392914	146.800000
301.486084	146.840000
301.579285	146.700000
301.672516	147.240000
301.765686	146.740000
301.858887	146.440000
301.952057	146.420000
302.045288	146.440000
302.138458	146.000000
302.231659	145.840000
302.324860	145.780000
302.418060	145.540000
302.511261	145.520000
302.604462	145.840000
302.697662	146.000000
302.790863	146.120000
302.884064	146.380000
302.977264	146.440000
303.070465	146.620000
303.163666	147.020000
303.256866	147.060000
303.350067	147.140000
303.443268	147.440000
303.536469	147.380000
303.629669	146.980000
303.722870	146.940000
303.816071	146.440000
303.909271	146.120000
304.002472	145.260000
304.095673	145.020000
304.188934	144.220000
304.282104	145.300000
304.375336	145.420000
304.468506	145.580000
304.561768	145.680000
304.654968	146.560000
304.748169	146.080000
304.841370	145.660000
304.934601	145.860000
305.027802	146.080000
305.121002	145.780000
305.214233	145.640000
305.307434	146.040000
305.400665	146.560000
305.493866	146.240000
