Model Number: SPM-002-B   
Serial Number: 70087108
Firmware Version: 004.15.4
Exposure Time: 100000.000000us
Data Taken on: 11-12-2020 18:48:37.881
Wavelength	Amplitude
221.570786	0.000000
221.663406	0.000000
221.756027	0.000000
221.848648	0.000000
221.941269	0.000000
222.033905	0.000000
222.126526	0.000000
222.219162	0.000000
222.311798	0.000000
222.404419	0.000000
222.497055	0.000000
222.589676	0.000000
222.682312	0.000000
222.774933	0.000000
222.867569	0.000000
222.960205	0.000000
223.052841	0.000000
223.145462	0.000000
223.238098	0.000000
223.330734	0.000000
223.423386	0.000000
223.516022	0.000000
223.608658	0.000000
223.701309	0.000000
223.793945	0.000000
223.886581	0.000000
223.979218	0.000000
224.071869	0.000000
224.164505	0.000000
224.257156	0.000000
224.349792	0.000000
224.442444	0.000000
224.535095	0.000000
224.627747	0.000000
224.720398	0.000000
224.813034	0.000000
224.905685	0.000000
224.998337	145.640000
225.090988	145.560000
225.183640	145.460000
225.276291	145.420000
225.368942	146.100000
225.461594	146.400000
225.554245	146.600000
225.646912	146.760000
225.739578	147.160000
225.832230	147.200000
225.924896	146.180000
226.017548	146.660000
226.110199	147.200000
226.202866	146.640000
226.295532	146.260000
226.388184	146.580000
226.480850	146.060000
226.573517	145.320000
226.666168	145.220000
226.758835	145.760000
226.851501	146.100000
226.944183	146.180000
227.036850	146.140000
227.129517	146.420000
227.222183	145.940000
227.314850	146.040000
227.407516	146.480000
227.500198	147.040000
227.592865	146.880000
227.685532	146.860000
227.778214	146.700000
227.870880	146.680000
227.963562	147.320000
228.056229	147.660000
228.148926	147.520000
228.241592	148.220000
228.334274	147.800000
228.426956	147.140000
228.519638	146.940000
228.612305	146.940000
228.704987	146.720000
228.797668	146.640000
228.890350	146.500000
228.983032	145.940000
229.075714	146.280000
229.168396	145.780000
229.261108	145.100000
229.353790	145.120000
229.446472	145.820000
229.539169	145.860000
229.631851	145.420000
229.724533	146.120000
229.817230	146.420000
229.909912	146.880000
230.002609	146.660000
230.095306	146.960000
230.187988	147.140000
230.280685	146.860000
230.373383	145.900000
230.466095	145.720000
230.558792	146.120000
230.651474	145.820000
230.744171	145.660000
230.836868	145.680000
230.929581	146.100000
231.022278	146.060000
231.114975	146.160000
231.207672	146.100000
231.300369	146.500000
231.393082	146.460000
231.485779	146.480000
231.578506	146.660000
231.671204	146.720000
231.763916	146.620000
231.856613	146.380000
231.949326	146.280000
232.042023	146.060000
232.134735	146.280000
232.227448	145.880000
232.320160	146.260000
232.412872	146.080000
232.505585	147.100000
232.598297	147.260000
232.691010	147.280000
232.783722	146.840000
232.876450	147.500000
232.969162	146.560000
233.061874	145.880000
233.154587	145.840000
233.247314	146.100000
233.340027	145.220000
233.432739	145.520000
233.525467	145.880000
233.618179	146.220000
233.710907	145.760000
233.803635	146.700000
233.896347	146.520000
233.989090	146.860000
234.081818	146.820000
234.174545	147.080000
234.267258	146.060000
234.359985	146.120000
234.452713	146.040000
234.545441	145.900000
234.638168	145.880000
234.730896	146.700000
234.823639	146.700000
234.916367	146.780000
235.009094	146.660000
235.101822	146.840000
235.194580	146.800000
235.287308	146.920000
235.380051	146.260000
235.472778	146.660000
235.565521	146.920000
235.658249	146.280000
235.750992	146.120000
235.843719	146.440000
235.936462	146.540000
236.029205	145.960000
236.121948	145.780000
236.214691	146.220000
236.307449	146.860000
236.400192	146.580000
236.492935	146.520000
236.585678	146.680000
236.678421	146.380000
236.771164	146.020000
236.863907	146.340000
236.956665	146.520000
237.049408	148.260000
237.142151	147.620000
237.234909	147.900000
237.327652	147.580000
237.420410	147.380000
237.513153	146.200000
237.605927	146.260000
237.698669	145.680000
237.791428	145.580000
237.884186	146.180000
237.976944	145.420000
238.069702	146.020000
238.162445	145.800000
238.255203	145.700000
238.347961	145.660000
238.440720	145.920000
238.533478	145.600000
238.626266	145.480000
238.719025	145.720000
238.811783	145.540000
238.904541	145.520000
238.997314	145.320000
239.090073	145.460000
239.182831	145.880000
239.275604	146.320000
239.368362	146.360000
239.461136	146.580000
239.553909	146.680000
239.646667	146.220000
239.739441	145.840000
239.832214	146.220000
239.925003	146.400000
240.017761	146.840000
240.110535	147.240000
240.203308	146.780000
240.296082	146.600000
240.388855	146.400000
240.481628	146.500000
240.574417	146.400000
240.667191	146.840000
240.759964	146.560000
240.852737	146.540000
240.945526	146.160000
241.038315	146.080000
241.131088	145.940000
241.223877	146.320000
241.316650	146.120000
241.409439	146.060000
241.502228	145.600000
241.595001	146.060000
241.687790	145.940000
241.780579	146.080000
241.873367	146.120000
241.966141	146.460000
242.058929	146.000000
242.151718	145.960000
242.244507	146.320000
242.337311	145.780000
242.430099	146.340000
242.522903	146.580000
242.615692	146.360000
242.708481	146.060000
242.801270	147.000000
242.894073	146.700000
242.986862	146.600000
243.079651	147.020000
243.172455	146.720000
243.265244	146.340000
243.358063	145.420000
243.450867	145.840000
243.543655	145.620000
243.636459	145.840000
243.729263	146.200000
243.822067	146.920000
243.914856	146.960000
244.007660	147.280000
244.100464	147.320000
244.193268	146.740000
244.286072	146.480000
244.378876	145.740000
244.471680	145.360000
244.564499	145.640000
244.657318	146.540000
244.750122	146.880000
244.842926	146.420000
244.935745	146.860000
245.028549	146.600000
245.121368	145.840000
245.214172	145.680000
245.306992	146.560000
245.399796	146.020000
245.492615	146.320000
245.585434	146.180000
245.678253	146.400000
245.771072	146.380000
245.863892	147.020000
245.956711	147.040000
246.049530	147.100000
246.142349	146.640000
246.235168	146.720000
246.327988	146.800000
246.420807	146.500000
246.513626	146.500000
246.606445	146.360000
246.699280	146.400000
246.792099	146.100000
246.884918	145.820000
246.977753	145.740000
247.070587	145.940000
247.163422	145.700000
247.256241	145.640000
247.349075	145.980000
247.441895	145.980000
247.534729	145.860000
247.627563	145.900000
247.720383	146.260000
247.813217	146.160000
247.906052	146.300000
247.998886	146.280000
248.091736	145.960000
248.184570	145.840000
248.277405	146.040000
248.370239	146.940000
248.463074	148.100000
248.555908	148.480000
248.648743	148.140000
248.741592	148.180000
248.834427	147.180000
248.927261	145.840000
249.020111	146.180000
249.112946	146.780000
249.205795	146.240000
249.298630	146.600000
249.391495	147.060000
249.484344	146.540000
249.577179	146.340000
249.670029	146.600000
249.762878	147.080000
249.855728	147.080000
249.948563	147.240000
250.041412	146.460000
250.134262	146.820000
250.227112	146.740000
250.319962	146.900000
250.412827	146.640000
250.505692	146.900000
250.598541	146.540000
250.691391	146.100000
250.784241	145.720000
250.877106	145.760000
250.969955	145.760000
251.062805	146.600000
251.155670	146.940000
251.248520	146.800000
251.341385	147.160000
251.434235	147.040000
251.527100	146.580000
251.619965	146.020000
251.712814	146.700000
251.805695	146.500000
251.898560	146.820000
251.991425	146.860000
252.084290	147.360000
252.177155	146.740000
252.270020	146.500000
252.362885	146.360000
252.455750	146.320000
252.548615	145.700000
252.641479	145.920000
252.734360	145.900000
252.827240	145.760000
252.920105	145.680000
253.012970	145.720000
253.105850	145.600000
253.198715	145.560000
253.291595	145.820000
253.384460	145.220000
253.477341	145.380000
253.570221	145.680000
253.663086	145.400000
253.755966	146.100000
253.848846	146.720000
253.941727	146.860000
254.034592	146.840000
254.127472	146.960000
254.220367	146.300000
254.313248	146.320000
254.406128	145.940000
254.499008	145.880000
254.591904	146.620000
254.684784	147.080000
254.777664	146.780000
254.870544	146.720000
254.963440	146.580000
255.056335	146.160000
255.149216	145.560000
255.242111	145.900000
255.334991	146.640000
255.427887	146.900000
255.520767	146.860000
255.613663	147.140000
255.706558	146.580000
255.799438	146.060000
255.892334	145.720000
255.985229	145.800000
256.078125	145.620000
256.171021	145.900000
256.263916	146.400000
256.356812	146.700000
256.449707	146.880000
256.542603	146.680000
256.635498	146.960000
256.728394	146.620000
256.821289	146.600000
256.914215	146.600000
257.007080	146.860000
257.100006	147.020000
257.192932	147.440000
257.285828	147.240000
257.378723	146.920000
257.471619	146.940000
257.564545	146.400000
257.657440	146.260000
257.750336	146.940000
257.843262	146.920000
257.936157	147.740000
258.029053	147.980000
258.121979	147.800000
258.214874	147.100000
258.307800	146.980000
258.400696	145.740000
258.493622	145.820000
258.586517	145.100000
258.679443	145.340000
258.772339	145.080000
258.865265	145.120000
258.958160	144.640000
259.051086	145.700000
259.144012	145.780000
259.236938	146.760000
259.329834	147.080000
259.422791	147.100000
259.515717	146.480000
259.608612	146.060000
259.701538	145.880000
259.794464	145.720000
259.887390	145.860000
259.980316	146.040000
260.073212	145.980000
260.166138	145.180000
260.259064	145.700000
260.351990	146.320000
260.444916	146.060000
260.537842	146.540000
260.630768	147.080000
260.723694	146.420000
260.816620	146.140000
260.909546	146.100000
261.002472	145.680000
261.095398	145.280000
261.188354	145.600000
261.281281	145.060000
261.374207	145.380000
261.467133	146.240000
261.560089	146.440000
261.653015	146.160000
261.745972	146.860000
261.838867	147.020000
261.931824	146.740000
262.024780	146.060000
262.117706	146.280000
262.210663	146.260000
262.303589	146.060000
262.396515	146.280000
262.489471	147.680000
262.582397	147.820000
262.675354	147.120000
262.768280	147.020000
262.861237	146.980000
262.954163	146.260000
263.047119	146.180000
263.140045	146.360000
263.233002	146.500000
263.325958	146.200000
263.418884	146.240000
263.511841	146.300000
263.604797	146.440000
263.697723	146.480000
263.790680	146.340000
263.883636	146.840000
263.976593	146.760000
264.069550	146.840000
264.162476	146.340000
264.255463	146.240000
264.348419	145.680000
264.441376	145.760000
264.534332	145.540000
264.627289	146.020000
264.720245	146.400000
264.813202	146.240000
264.906158	146.160000
264.999115	146.580000
265.092072	146.280000
265.185028	146.560000
265.277985	146.900000
265.370941	146.940000
265.463898	146.620000
265.556854	146.660000
265.649811	145.520000
265.742798	145.760000
265.835754	145.780000
265.928711	146.260000
266.021667	146.440000
266.114655	147.140000
266.207611	147.160000
266.300568	146.580000
266.393585	146.000000
266.486511	146.020000
266.579498	145.440000
266.672485	145.280000
266.765442	145.600000
266.858429	146.240000
266.951385	146.060000
267.044342	146.260000
267.137329	146.060000
267.230316	146.100000
267.323273	145.280000
267.416260	145.460000
267.509216	145.480000
267.602203	145.620000
267.695160	146.140000
267.788147	146.340000
267.881134	146.220000
267.974091	146.720000
268.067078	146.280000
268.160065	146.000000
268.253052	145.960000
268.346008	146.240000
268.438995	145.880000
268.531982	146.460000
268.624969	145.940000
268.717987	146.200000
268.810944	145.700000
268.903961	145.780000
268.996948	145.200000
269.089905	145.860000
269.182892	146.020000
269.275879	146.620000
269.368866	146.280000
269.461853	146.600000
269.554871	146.440000
269.647858	146.420000
269.740845	146.500000
269.833832	146.780000
269.926819	146.460000
270.019806	146.500000
270.112793	146.120000
270.205811	146.240000
270.298798	146.240000
270.391785	147.120000
270.484772	146.600000
270.577789	146.680000
270.670776	145.880000
270.763763	145.780000
270.856750	145.360000
270.949768	145.480000
271.042786	145.700000
271.135773	146.040000
271.228790	146.520000
271.321808	146.100000
271.414795	145.980000
271.507782	145.660000
271.600800	145.340000
271.693817	145.140000
271.786804	145.720000
271.879822	146.040000
271.972809	145.960000
272.065826	146.540000
272.158844	145.920000
272.251831	146.400000
272.344849	146.560000
272.437866	146.460000
272.530853	146.300000
272.623871	146.740000
272.716888	145.600000
272.809906	145.520000
272.902893	145.580000
272.995911	145.040000
273.088928	144.940000
273.181946	145.280000
273.274963	144.900000
273.367981	144.980000
273.460999	145.380000
273.554047	146.040000
273.647003	146.760000
273.740051	147.140000
273.833069	147.720000
273.926086	147.940000
274.019135	147.440000
274.112152	147.160000
274.205170	146.980000
274.298187	146.840000
274.391205	146.120000
274.484222	145.940000
274.577240	145.740000
274.670258	145.560000
274.763306	145.200000
274.856323	145.920000
274.949341	146.160000
275.042358	146.380000
275.135406	146.400000
275.228424	146.780000
275.321442	146.640000
275.414490	146.080000
275.507507	146.160000
275.600525	146.760000
275.693573	146.140000
275.786591	145.760000
275.879669	146.260000
275.972656	146.000000
276.065735	145.640000
276.158752	146.760000
276.251801	147.480000
276.344818	147.420000
276.437866	147.440000
276.530884	147.160000
276.623932	146.140000
276.716980	146.160000
276.809998	146.280000
276.903046	146.360000
276.996094	147.200000
277.089111	147.720000
277.182159	148.000000
277.275208	147.700000
277.368256	147.260000
277.461304	146.680000
277.554321	145.820000
277.647369	145.540000
277.740417	145.340000
277.833466	145.580000
277.926514	145.480000
278.019562	146.680000
278.112610	146.160000
278.205688	146.500000
278.298706	146.320000
278.391785	146.320000
278.484833	145.320000
278.577881	145.100000
278.670929	145.380000
278.763977	145.820000
278.857025	146.040000
278.950073	146.300000
279.043121	146.500000
279.136169	145.980000
279.229248	145.520000
279.322296	145.500000
279.415344	145.260000
279.508392	145.060000
279.601440	145.320000
279.694519	145.240000
279.787567	145.280000
279.880615	145.380000
279.973694	145.560000
280.066742	145.340000
280.159790	145.700000
280.252869	145.400000
280.345917	145.660000
280.438995	145.440000
280.532074	145.500000
280.625122	145.500000
280.718201	146.320000
280.811279	146.280000
280.904327	146.440000
280.997406	146.780000
281.090454	146.640000
281.183533	145.920000
281.276581	145.760000
281.369659	145.500000
281.462738	145.400000
281.555786	145.740000
281.648865	145.840000
281.741943	145.740000
281.835022	146.440000
281.928070	145.820000
282.021149	145.440000
282.114227	145.200000
282.207306	145.240000
282.300385	145.080000
282.393433	146.080000
282.486511	146.360000
282.579590	147.040000
282.672668	147.380000
282.765747	146.760000
282.858856	146.100000
282.951904	145.800000
283.045013	145.700000
283.138062	145.980000
283.231171	146.660000
283.324249	147.000000
283.417328	147.220000
283.510406	146.400000
283.603485	145.880000
283.696564	145.460000
283.789642	145.600000
283.882751	145.220000
283.975830	146.220000
284.068909	146.280000
284.161987	147.180000
284.255066	146.660000
284.348175	146.960000
284.441254	146.740000
284.534332	147.000000
284.627441	146.240000
284.720520	146.180000
284.813599	146.120000
284.906708	145.740000
284.999786	145.100000
285.092896	145.080000
285.185974	146.080000
285.279053	145.860000
285.372192	146.160000
285.465240	146.880000
285.558380	146.880000
285.651459	146.340000
285.744568	147.420000
285.837677	147.060000
285.930756	146.980000
286.023865	147.080000
286.116943	146.740000
286.210052	146.180000
286.303162	146.300000
286.396240	146.180000
286.489349	145.760000
286.582458	146.120000
286.675568	145.620000
286.768646	145.820000
286.861755	146.100000
286.954865	147.240000
287.047974	146.600000
287.141083	146.740000
287.234161	146.460000
287.327271	146.160000
287.420380	146.000000
287.513519	146.240000
287.606598	146.380000
287.699738	146.500000
287.792816	146.500000
287.885956	146.340000
287.979034	146.220000
288.072174	146.620000
288.165283	146.720000
288.258392	146.780000
288.351501	146.140000
288.444611	146.620000
288.537720	146.480000
288.630859	146.400000
288.723969	146.700000
288.817078	147.240000
288.910187	147.080000
289.003296	146.620000
289.096436	146.260000
289.189545	145.640000
289.282654	145.140000
289.375763	145.440000
289.468903	146.140000
289.562012	146.580000
289.655121	146.620000
289.748260	146.920000
289.841400	147.040000
289.934509	146.560000
290.027649	146.620000
290.120728	146.880000
290.213898	146.680000
290.306976	146.580000
290.400146	146.660000
290.493256	146.300000
290.586395	146.140000
290.679535	146.580000
290.772644	146.060000
290.865784	145.400000
290.958893	145.280000
291.052032	145.140000
291.145172	144.720000
291.238281	144.700000
291.331421	145.160000
291.424561	145.560000
291.517670	145.940000
291.610809	146.280000
291.703949	146.480000
291.797089	146.600000
291.890228	146.320000
291.983337	146.040000
292.076477	145.560000
292.169617	145.640000
292.262756	145.620000
292.355927	145.620000
292.449036	145.420000
292.542206	145.700000
292.635315	145.640000
292.728485	145.960000
292.821625	145.780000
292.914764	146.920000
293.007904	146.780000
293.101044	146.680000
293.194183	146.340000
293.287323	146.500000
293.380463	145.840000
293.473602	145.640000
293.566742	145.980000
293.659882	146.560000
293.753021	147.040000
293.846191	146.920000
293.939331	146.960000
294.032471	146.800000
294.125610	146.340000
294.218781	146.500000
294.311920	146.860000
294.405060	147.320000
294.498230	147.100000
294.591370	147.300000
294.684540	146.480000
294.777679	145.760000
294.870850	145.700000
294.963959	145.740000
295.057159	145.340000
295.150299	145.680000
295.243469	145.960000
295.336609	145.540000
295.429779	145.820000
295.522919	146.260000
295.616089	146.640000
295.709229	147.340000
295.802399	147.580000
295.895569	147.000000
295.988708	146.620000
296.081879	146.380000
296.175018	145.780000
296.268188	145.860000
296.361359	146.620000
296.454529	146.740000
296.547668	146.660000
296.640839	146.860000
296.734009	146.680000
296.827179	146.680000
296.920319	146.900000
297.013519	146.780000
297.106659	146.500000
297.199860	146.500000
297.292999	146.220000
297.386200	145.800000
297.479309	145.480000
297.572510	145.480000
297.665680	145.300000
297.758850	145.160000
297.852020	145.320000
297.945190	145.340000
298.038361	145.120000
298.131531	146.100000
298.224701	146.160000
298.317871	145.840000
298.411072	145.660000
298.504242	145.680000
298.597412	144.840000
298.690582	145.160000
298.783752	145.440000
298.876923	145.840000
298.970093	145.900000
299.063293	146.420000
299.156464	146.280000
299.249634	146.300000
299.342834	146.700000
299.436005	146.940000
299.529205	146.400000
299.622345	146.560000
299.715576	146.300000
299.808716	145.940000
299.901917	145.980000
299.995117	146.600000
300.088287	146.580000
300.181488	146.400000
300.274658	146.080000
300.367828	145.820000
300.461029	145.300000
300.554199	145.360000
300.647400	145.680000
300.740601	146.420000
300.833771	146.560000
300.926971	146.700000
301.020142	146.400000
301.113342	146.300000
301.206512	146.220000
301.299713	146.500000
301.392914	146.560000
301.486084	146.800000
301.579285	146.760000
301.672516	146.720000
301.765686	146.360000
301.858887	146.280000
301.952057	146.120000
302.045288	146.200000
302.138458	145.940000
302.231659	145.540000
302.324860	145.640000
302.418060	145.660000
302.511261	145.640000
302.604462	145.960000
302.697662	146.160000
302.790863	146.140000
302.884064	145.900000
302.977264	145.980000
303.070465	145.960000
303.163666	147.060000
303.256866	147.040000
303.350067	147.280000
303.443268	147.220000
303.536469	147.480000
303.629669	146.480000
303.722870	146.660000
303.816071	146.400000
303.909271	146.440000
304.002472	145.440000
304.095673	145.260000
304.188934	144.700000
304.282104	145.380000
304.375336	145.300000
304.468506	145.560000
304.561768	145.500000
304.654968	146.300000
304.748169	145.580000
304.841370	145.520000
304.934601	145.780000
305.027802	145.900000
305.121002	145.320000
305.214233	145.640000
305.307434	145.440000
305.400665	146.180000
305.493866	146.080000
