Model Number: SPM-002-B   
Serial Number: 70087108
Firmware Version: 004.15.4
Exposure Time: 100000.000000us
Data Taken on: 11-12-2020 18:49:01.364
Wavelength	Amplitude
221.570786	0.000000
221.663406	0.000000
221.756027	0.000000
221.848648	0.000000
221.941269	0.000000
222.033905	0.000000
222.126526	0.000000
222.219162	0.000000
222.311798	0.000000
222.404419	0.000000
222.497055	0.000000
222.589676	0.000000
222.682312	0.000000
222.774933	0.000000
222.867569	0.000000
222.960205	0.000000
223.052841	0.000000
223.145462	0.000000
223.238098	0.000000
223.330734	0.000000
223.423386	0.000000
223.516022	0.000000
223.608658	0.000000
223.701309	0.000000
223.793945	0.000000
223.886581	0.000000
223.979218	0.000000
224.071869	0.000000
224.164505	0.000000
224.257156	0.000000
224.349792	0.000000
224.442444	0.000000
224.535095	0.000000
224.627747	0.000000
224.720398	0.000000
224.813034	0.000000
224.905685	0.000000
224.998337	146.580000
225.090988	146.140000
225.183640	145.800000
225.276291	145.700000
225.368942	146.080000
225.461594	146.620000
225.554245	146.920000
225.646912	147.200000
225.739578	147.740000
225.832230	148.080000
225.924896	147.360000
226.017548	147.720000
226.110199	148.060000
226.202866	147.300000
226.295532	146.960000
226.388184	146.560000
226.480850	145.840000
226.573517	145.380000
226.666168	145.900000
226.758835	145.900000
226.851501	146.840000
226.944183	147.000000
227.036850	146.760000
227.129517	146.760000
227.222183	147.180000
227.314850	146.900000
227.407516	147.380000
227.500198	148.200000
227.592865	147.960000
227.685532	147.280000
227.778214	147.160000
227.870880	147.280000
227.963562	147.400000
228.056229	147.660000
228.148926	147.920000
228.241592	148.640000
228.334274	148.300000
228.426956	148.020000
228.519638	147.920000
228.612305	147.740000
228.704987	147.280000
228.797668	147.100000
228.890350	146.700000
228.983032	146.100000
229.075714	146.980000
229.168396	146.660000
229.261108	146.300000
229.353790	146.540000
229.446472	147.020000
229.539169	146.700000
229.631851	146.660000
229.724533	147.240000
229.817230	147.440000
229.909912	148.280000
230.002609	148.080000
230.095306	148.040000
230.187988	147.880000
230.280685	147.620000
230.373383	146.620000
230.466095	146.460000
230.558792	146.940000
230.651474	146.960000
230.744171	146.580000
230.836868	146.540000
230.929581	146.800000
231.022278	146.420000
231.114975	146.660000
231.207672	146.520000
231.300369	147.040000
231.393082	147.140000
231.485779	147.140000
231.578506	146.920000
231.671204	147.340000
231.763916	146.880000
231.856613	146.500000
231.949326	146.880000
232.042023	146.620000
232.134735	146.440000
232.227448	146.140000
232.320160	146.420000
232.412872	146.240000
232.505585	146.960000
232.598297	147.520000
232.691010	147.940000
232.783722	147.620000
232.876450	148.180000
232.969162	147.820000
233.061874	147.060000
233.154587	146.580000
233.247314	146.840000
233.340027	146.240000
233.432739	146.520000
233.525467	146.660000
233.618179	147.120000
233.710907	146.800000
233.803635	146.920000
233.896347	146.740000
233.989090	147.540000
234.081818	147.420000
234.174545	147.660000
234.267258	147.520000
234.359985	147.340000
234.452713	147.000000
234.545441	146.920000
234.638168	146.760000
234.730896	147.200000
234.823639	147.300000
234.916367	147.420000
235.009094	147.820000
235.101822	148.200000
235.194580	148.020000
235.287308	148.040000
235.380051	147.720000
235.472778	147.440000
235.565521	147.360000
235.658249	147.020000
235.750992	147.000000
235.843719	147.100000
235.936462	147.400000
236.029205	146.960000
236.121948	146.780000
236.214691	146.920000
236.307449	147.420000
236.400192	146.880000
236.492935	146.880000
236.585678	147.000000
236.678421	146.940000
236.771164	146.480000
236.863907	147.420000
236.956665	147.820000
237.049408	149.360000
237.142151	148.880000
237.234909	149.620000
237.327652	149.100000
237.420410	148.800000
237.513153	148.160000
237.605927	148.200000
237.698669	147.460000
237.791428	147.000000
237.884186	147.120000
237.976944	145.960000
238.069702	146.320000
238.162445	145.980000
238.255203	146.280000
238.347961	146.980000
238.440720	147.320000
238.533478	147.160000
238.626266	146.960000
238.719025	147.160000
238.811783	146.400000
238.904541	146.540000
238.997314	146.520000
239.090073	146.700000
239.182831	146.800000
239.275604	147.700000
239.368362	147.300000
239.461136	147.420000
239.553909	147.420000
239.646667	146.840000
239.739441	146.220000
239.832214	146.960000
239.925003	147.140000
240.017761	147.780000
240.110535	148.360000
240.203308	147.940000
240.296082	147.400000
240.388855	147.440000
240.481628	147.160000
240.574417	147.140000
240.667191	147.320000
240.759964	147.220000
240.852737	146.720000
240.945526	146.500000
241.038315	146.560000
241.131088	147.080000
241.223877	147.480000
241.316650	147.540000
241.409439	147.940000
241.502228	147.500000
241.595001	147.620000
241.687790	147.660000
241.780579	147.600000
241.873367	147.360000
241.966141	147.840000
242.058929	147.140000
242.151718	146.940000
242.244507	147.420000
242.337311	146.800000
242.430099	146.900000
242.522903	147.360000
242.615692	147.060000
242.708481	146.780000
242.801270	147.560000
242.894073	147.180000
242.986862	147.020000
243.079651	147.880000
243.172455	147.920000
243.265244	147.780000
243.358063	147.700000
243.450867	148.000000
243.543655	147.660000
243.636459	147.800000
243.729263	148.220000
243.822067	148.640000
243.914856	148.740000
244.007660	148.860000
244.100464	148.560000
244.193268	148.020000
244.286072	147.640000
244.378876	146.880000
244.471680	146.320000
244.564499	146.840000
244.657318	147.480000
244.750122	147.740000
244.842926	147.680000
244.935745	148.200000
245.028549	147.660000
245.121368	147.280000
245.214172	147.180000
245.306992	148.060000
245.399796	147.840000
245.492615	148.340000
245.585434	148.100000
245.678253	148.160000
245.771072	147.460000
245.863892	147.840000
245.956711	147.720000
246.049530	147.480000
246.142349	147.060000
246.235168	147.260000
246.327988	147.420000
246.420807	147.380000
246.513626	147.580000
246.606445	147.640000
246.699280	147.820000
246.792099	147.340000
246.884918	147.060000
246.977753	147.080000
247.070587	147.440000
247.163422	147.240000
247.256241	147.020000
247.349075	147.160000
247.441895	147.280000
247.534729	146.980000
247.627563	146.700000
247.720383	147.420000
247.813217	147.480000
247.906052	147.280000
247.998886	147.060000
248.091736	147.320000
248.184570	146.900000
248.277405	146.740000
248.370239	147.540000
248.463074	148.620000
248.555908	148.660000
248.648743	148.380000
248.741592	148.660000
248.834427	148.080000
248.927261	147.000000
249.020111	147.260000
249.112946	148.000000
249.205795	147.520000
249.298630	147.560000
249.391495	147.760000
249.484344	147.440000
249.577179	147.240000
249.670029	147.680000
249.762878	148.120000
249.855728	148.540000
249.948563	148.720000
250.041412	148.140000
250.134262	148.260000
250.227112	147.780000
250.319962	147.420000
250.412827	147.280000
250.505692	146.920000
250.598541	146.620000
250.691391	146.880000
250.784241	146.980000
250.877106	147.000000
250.969955	147.060000
251.062805	147.680000
251.155670	148.260000
251.248520	148.020000
251.341385	148.220000
251.434235	148.300000
251.527100	147.600000
251.619965	146.580000
251.712814	147.460000
251.805695	147.300000
251.898560	147.300000
251.991425	147.860000
252.084290	148.000000
252.177155	147.260000
252.270020	147.180000
252.362885	147.140000
252.455750	146.820000
252.548615	146.640000
252.641479	146.660000
252.734360	146.520000
252.827240	146.840000
252.920105	146.980000
253.012970	146.840000
253.105850	146.900000
253.198715	146.560000
253.291595	146.440000
253.384460	146.140000
253.477341	146.380000
253.570221	146.340000
253.663086	146.660000
253.755966	147.360000
253.848846	147.320000
253.941727	147.380000
254.034592	147.400000
254.127472	146.960000
254.220367	146.720000
254.313248	146.940000
254.406128	146.460000
254.499008	146.800000
254.591904	147.700000
254.684784	148.080000
254.777664	147.820000
254.870544	147.760000
254.963440	147.500000
255.056335	147.360000
255.149216	146.900000
255.242111	147.480000
255.334991	148.000000
255.427887	147.920000
255.520767	147.900000
255.613663	147.760000
255.706558	147.120000
255.799438	146.880000
255.892334	146.820000
255.985229	146.620000
256.078125	146.580000
256.171021	146.860000
256.263916	147.360000
256.356812	147.540000
256.449707	148.040000
256.542603	148.020000
256.635498	148.400000
256.728394	148.260000
256.821289	148.240000
256.914215	148.280000
257.007080	148.540000
257.100006	148.400000
257.192932	148.560000
257.285828	148.900000
257.378723	148.280000
257.471619	147.700000
257.564545	147.400000
257.657440	147.580000
257.750336	147.640000
257.843262	147.600000
257.936157	149.200000
258.029053	149.320000
258.121979	148.920000
258.214874	148.460000
258.307800	148.280000
258.400696	146.720000
258.493622	146.780000
258.586517	146.360000
258.679443	146.560000
258.772339	146.580000
258.865265	146.380000
258.958160	145.900000
259.051086	146.440000
259.144012	146.000000
259.236938	147.060000
259.329834	147.580000
259.422791	147.500000
259.515717	146.980000
259.608612	146.900000
259.701538	146.400000
259.794464	146.320000
259.887390	146.620000
259.980316	146.760000
260.073212	146.880000
260.166138	146.000000
260.259064	146.280000
260.351990	146.660000
260.444916	146.720000
260.537842	146.960000
260.630768	148.000000
260.723694	147.780000
260.816620	147.440000
260.909546	147.320000
261.002472	147.120000
261.095398	146.380000
261.188354	146.540000
261.281281	146.080000
261.374207	146.200000
261.467133	147.100000
261.560089	147.640000
261.653015	146.920000
261.745972	148.000000
261.838867	148.300000
261.931824	147.860000
262.024780	147.240000
262.117706	147.900000
262.210663	147.660000
262.303589	147.440000
262.396515	147.500000
262.489471	148.400000
262.582397	148.260000
262.675354	147.740000
262.768280	147.480000
262.861237	147.620000
262.954163	147.140000
263.047119	147.240000
263.140045	147.020000
263.233002	147.320000
263.325958	146.680000
263.418884	146.180000
263.511841	146.200000
263.604797	146.640000
263.697723	146.680000
263.790680	146.560000
263.883636	147.380000
263.976593	147.220000
264.069550	146.720000
264.162476	146.280000
264.255463	146.560000
264.348419	146.200000
264.441376	146.460000
264.534332	146.580000
264.627289	146.940000
264.720245	147.640000
264.813202	147.220000
264.906158	147.320000
264.999115	147.860000
265.092072	147.980000
265.185028	148.080000
265.277985	148.680000
265.370941	148.580000
265.463898	148.520000
265.556854	148.040000
265.649811	147.140000
265.742798	146.940000
265.835754	146.840000
265.928711	146.940000
266.021667	147.300000
266.114655	147.460000
266.207611	147.680000
266.300568	147.300000
266.393585	146.720000
266.486511	146.920000
266.579498	146.220000
266.672485	146.120000
266.765442	146.440000
266.858429	147.040000
266.951385	146.680000
267.044342	147.480000
267.137329	147.340000
267.230316	147.380000
267.323273	146.840000
267.416260	147.480000
267.509216	147.160000
267.602203	146.920000
267.695160	147.500000
267.788147	147.380000
267.881134	146.400000
267.974091	146.760000
268.067078	146.740000
268.160065	146.100000
268.253052	146.540000
268.346008	147.060000
268.438995	146.620000
268.531982	147.040000
268.624969	146.840000
268.717987	147.060000
268.810944	146.920000
268.903961	147.380000
268.996948	147.080000
269.089905	147.900000
269.182892	147.740000
269.275879	148.300000
269.368866	147.860000
269.461853	148.000000
269.554871	147.580000
269.647858	147.600000
269.740845	147.460000
269.833832	148.020000
269.926819	147.800000
270.019806	147.820000
270.112793	147.500000
270.205811	147.540000
270.298798	147.060000
270.391785	147.900000
270.484772	147.440000
270.577789	147.620000
270.670776	147.140000
270.763763	147.180000
270.856750	146.860000
270.949768	147.080000
271.042786	147.020000
271.135773	147.280000
271.228790	147.560000
271.321808	147.000000
271.414795	146.540000
271.507782	146.360000
271.600800	145.980000
271.693817	145.940000
271.786804	146.500000
271.879822	147.280000
271.972809	147.240000
272.065826	147.960000
272.158844	147.700000
272.251831	148.020000
272.344849	147.880000
272.437866	147.520000
272.530853	147.340000
272.623871	147.660000
272.716888	146.480000
272.809906	146.240000
272.902893	146.660000
272.995911	146.180000
273.088928	146.060000
273.181946	146.660000
273.274963	146.520000
273.367981	146.600000
273.460999	146.820000
273.554047	147.320000
273.647003	147.520000
273.740051	147.600000
273.833069	147.860000
273.926086	148.020000
274.019135	147.440000
274.112152	147.240000
274.205170	147.300000
274.298187	147.380000
274.391205	147.080000
274.484222	146.920000
274.577240	147.080000
274.670258	146.860000
274.763306	146.580000
274.856323	147.020000
274.949341	147.280000
275.042358	147.540000
275.135406	147.540000
275.228424	147.400000
275.321442	147.260000
275.414490	146.760000
275.507507	146.880000
275.600525	147.760000
275.693573	147.760000
275.786591	147.460000
275.879669	147.700000
275.972656	147.280000
276.065735	146.600000
276.158752	147.200000
276.251801	148.000000
276.344818	147.820000
276.437866	148.160000
276.530884	148.020000
276.623932	147.080000
276.716980	147.020000
276.809998	147.540000
276.903046	147.360000
276.996094	148.320000
277.089111	149.320000
277.182159	149.280000
277.275208	148.920000
277.368256	148.660000
277.461304	147.960000
277.554321	146.900000
277.647369	146.480000
277.740417	146.600000
277.833466	146.460000
277.926514	146.200000
278.019562	147.140000
278.112610	146.660000
278.205688	146.420000
278.298706	146.640000
278.391785	146.620000
278.484833	146.080000
278.577881	146.400000
278.670929	146.980000
278.763977	146.780000
278.857025	147.320000
278.950073	147.180000
279.043121	147.140000
279.136169	146.960000
279.229248	147.160000
279.322296	147.080000
279.415344	147.340000
279.508392	147.240000
279.601440	147.160000
279.694519	146.900000
279.787567	146.680000
279.880615	146.640000
279.973694	146.420000
280.066742	146.320000
280.159790	146.700000
280.252869	146.260000
280.345917	146.220000
280.438995	146.340000
280.532074	146.200000
280.625122	146.420000
280.718201	147.640000
280.811279	147.720000
280.904327	147.760000
280.997406	148.080000
281.090454	147.860000
281.183533	146.800000
281.276581	146.840000
281.369659	146.600000
281.462738	146.720000
281.555786	146.960000
281.648865	147.280000
281.741943	147.040000
281.835022	147.840000
281.928070	147.440000
282.021149	146.940000
282.114227	146.840000
282.207306	147.140000
282.300385	147.380000
282.393433	147.740000
282.486511	147.800000
282.579590	148.280000
282.672668	148.480000
282.765747	147.520000
282.858856	147.040000
282.951904	147.120000
283.045013	147.280000
283.138062	147.180000
283.231171	147.740000
283.324249	148.360000
283.417328	148.520000
283.510406	147.940000
283.603485	147.620000
283.696564	147.400000
283.789642	147.400000
283.882751	147.080000
283.975830	147.600000
284.068909	147.480000
284.161987	148.080000
284.255066	147.600000
284.348175	147.740000
284.441254	147.560000
284.534332	148.040000
284.627441	147.580000
284.720520	147.260000
284.813599	147.320000
284.906708	147.200000
284.999786	146.780000
285.092896	146.420000
285.185974	147.620000
285.279053	147.060000
285.372192	146.940000
285.465240	147.380000
285.558380	147.060000
285.651459	146.180000
285.744568	147.260000
285.837677	146.920000
285.930756	146.800000
286.023865	147.480000
286.116943	147.620000
286.210052	147.380000
286.303162	147.600000
286.396240	147.500000
286.489349	147.140000
286.582458	147.280000
286.675568	146.820000
286.768646	146.600000
286.861755	146.860000
286.954865	147.540000
287.047974	147.140000
287.141083	146.880000
287.234161	146.980000
287.327271	146.880000
287.420380	147.120000
287.513519	147.020000
287.606598	147.380000
287.699738	147.460000
287.792816	147.080000
287.885956	146.660000
287.979034	146.800000
288.072174	147.000000
288.165283	147.020000
288.258392	147.540000
288.351501	146.980000
288.444611	147.140000
288.537720	147.320000
288.630859	147.380000
288.723969	147.120000
288.817078	147.620000
288.910187	147.500000
289.003296	146.680000
289.096436	146.100000
289.189545	146.120000
289.282654	145.580000
289.375763	146.240000
289.468903	146.720000
289.562012	147.580000
289.655121	147.520000
289.748260	147.900000
289.841400	147.620000
289.934509	147.680000
290.027649	147.580000
290.120728	147.360000
290.213898	147.320000
290.306976	147.220000
290.400146	147.240000
290.493256	146.660000
290.586395	146.900000
290.679535	147.320000
290.772644	147.240000
290.865784	146.680000
290.958893	146.940000
291.052032	146.560000
291.145172	146.120000
291.238281	145.800000
291.331421	146.120000
291.424561	146.680000
291.517670	146.940000
291.610809	147.360000
291.703949	147.300000
291.797089	147.460000
291.890228	147.020000
291.983337	146.880000
292.076477	146.500000
292.169617	146.940000
292.262756	146.940000
292.355927	146.860000
292.449036	146.780000
292.542206	146.980000
292.635315	147.080000
292.728485	147.260000
292.821625	147.020000
292.914764	148.300000
293.007904	148.400000
293.101044	148.220000
293.194183	147.880000
293.287323	147.740000
293.380463	146.620000
293.473602	146.440000
293.566742	146.860000
293.659882	147.180000
293.753021	147.620000
293.846191	147.620000
293.939331	147.220000
294.032471	147.000000
294.125610	147.180000
294.218781	147.620000
294.311920	148.160000
294.405060	148.780000
294.498230	148.740000
294.591370	148.360000
294.684540	147.460000
294.777679	147.000000
294.870850	147.060000
294.963959	146.860000
295.057159	146.920000
295.150299	147.600000
295.243469	147.640000
295.336609	147.080000
295.429779	147.320000
295.522919	147.660000
295.616089	147.560000
295.709229	147.980000
295.802399	148.100000
295.895569	147.560000
295.988708	147.100000
296.081879	147.300000
296.175018	146.700000
296.268188	146.500000
296.361359	147.060000
296.454529	147.140000
296.547668	146.720000
296.640839	147.380000
296.734009	147.720000
296.827179	147.940000
296.920319	148.260000
297.013519	148.060000
297.106659	147.760000
297.199860	147.600000
297.292999	147.560000
297.386200	147.200000
297.479309	147.400000
297.572510	147.000000
297.665680	146.760000
297.758850	146.520000
297.852020	146.580000
297.945190	146.760000
298.038361	146.900000
298.131531	147.800000
298.224701	147.300000
298.317871	146.940000
298.411072	146.520000
298.504242	146.560000
298.597412	146.060000
298.690582	146.420000
298.783752	146.580000
298.876923	146.980000
298.970093	146.660000
299.063293	146.780000
299.156464	147.000000
299.249634	147.480000
299.342834	147.660000
299.436005	148.460000
299.529205	148.160000
299.622345	148.120000
299.715576	147.520000
299.808716	147.120000
299.901917	146.660000
299.995117	147.120000
300.088287	147.240000
300.181488	147.100000
300.274658	147.040000
300.367828	147.020000
300.461029	146.520000
300.554199	146.620000
300.647400	146.920000
300.740601	147.500000
300.833771	147.520000
300.926971	147.820000
301.020142	147.480000
301.113342	147.380000
301.206512	147.360000
301.299713	147.620000
301.392914	147.620000
301.486084	147.600000
301.579285	147.580000
301.672516	147.780000
301.765686	147.400000
301.858887	147.160000
301.952057	147.080000
302.045288	147.220000
302.138458	146.640000
302.231659	146.320000
302.324860	146.280000
302.418060	146.180000
302.511261	146.020000
302.604462	146.060000
302.697662	146.220000
302.790863	146.040000
302.884064	145.900000
302.977264	145.920000
303.070465	146.280000
303.163666	147.120000
303.256866	147.580000
303.350067	148.020000
303.443268	147.900000
303.536469	147.860000
303.629669	147.040000
303.722870	147.160000
303.816071	146.760000
303.909271	147.040000
304.002472	146.280000
304.095673	146.360000
304.188934	145.420000
304.282104	146.320000
304.375336	146.360000
304.468506	146.740000
304.561768	146.740000
304.654968	147.720000
304.748169	147.160000
304.841370	146.800000
304.934601	146.920000
305.027802	146.780000
305.121002	146.260000
305.214233	146.340000
305.307434	146.520000
305.400665	147.120000
305.493866	147.140000
