Model Number: SPM-002-B   
Serial Number: 70087108
Firmware Version: 004.15.4
Exposure Time: 100000.000000us
Data Taken on: 11-12-2020 18:49:11.197
Wavelength	Amplitude
221.570786	0.000000
221.663406	0.000000
221.756027	0.000000
221.848648	0.000000
221.941269	0.000000
222.033905	0.000000
222.126526	0.000000
222.219162	0.000000
222.311798	0.000000
222.404419	0.000000
222.497055	0.000000
222.589676	0.000000
222.682312	0.000000
222.774933	0.000000
222.867569	0.000000
222.960205	0.000000
223.052841	0.000000
223.145462	0.000000
223.238098	0.000000
223.330734	0.000000
223.423386	0.000000
223.516022	0.000000
223.608658	0.000000
223.701309	0.000000
223.793945	0.000000
223.886581	0.000000
223.979218	0.000000
224.071869	0.000000
224.164505	0.000000
224.257156	0.000000
224.349792	0.000000
224.442444	0.000000
224.535095	0.000000
224.627747	0.000000
224.720398	0.000000
224.813034	0.000000
224.905685	0.000000
224.998337	146.180000
225.090988	145.520000
225.183640	145.780000
225.276291	145.440000
225.368942	145.780000
225.461594	146.240000
225.554245	146.760000
225.646912	146.500000
225.739578	147.200000
225.832230	147.840000
225.924896	147.140000
226.017548	147.340000
226.110199	147.740000
226.202866	146.820000
226.295532	146.200000
226.388184	146.020000
226.480850	145.380000
226.573517	145.040000
226.666168	145.740000
226.758835	146.020000
226.851501	146.880000
226.944183	147.300000
227.036850	146.840000
227.129517	146.780000
227.222183	146.760000
227.314850	146.240000
227.407516	146.540000
227.500198	147.600000
227.592865	147.360000
227.685532	147.260000
227.778214	147.380000
227.870880	147.300000
227.963562	147.360000
228.056229	147.880000
228.148926	147.480000
228.241592	148.140000
228.334274	147.780000
228.426956	147.440000
228.519638	147.160000
228.612305	147.040000
228.704987	146.600000
228.797668	146.680000
228.890350	146.500000
228.983032	145.820000
229.075714	146.580000
229.168396	146.480000
229.261108	146.220000
229.353790	146.300000
229.446472	147.020000
229.539169	146.680000
229.631851	146.300000
229.724533	146.760000
229.817230	146.860000
229.909912	147.520000
230.002609	147.360000
230.095306	147.340000
230.187988	147.100000
230.280685	147.160000
230.373383	146.100000
230.466095	146.420000
230.558792	146.980000
230.651474	147.200000
230.744171	146.720000
230.836868	146.720000
230.929581	146.880000
231.022278	146.640000
231.114975	146.520000
231.207672	146.460000
231.300369	146.760000
231.393082	146.800000
231.485779	146.340000
231.578506	146.120000
231.671204	146.520000
231.763916	146.460000
231.856613	145.980000
231.949326	146.340000
232.042023	146.180000
232.134735	146.060000
232.227448	145.720000
232.320160	145.980000
232.412872	145.920000
232.505585	147.100000
232.598297	147.200000
232.691010	147.280000
232.783722	147.080000
232.876450	147.680000
232.969162	146.780000
233.061874	146.700000
233.154587	146.160000
233.247314	146.500000
233.340027	145.760000
233.432739	146.200000
233.525467	145.920000
233.618179	146.820000
233.710907	146.260000
233.803635	146.900000
233.896347	146.400000
233.989090	147.340000
234.081818	146.940000
234.174545	147.240000
234.267258	146.500000
234.359985	146.640000
234.452713	146.240000
234.545441	146.260000
234.638168	146.200000
234.730896	147.020000
234.823639	147.020000
234.916367	147.220000
235.009094	147.480000
235.101822	147.420000
235.194580	147.080000
235.287308	147.220000
235.380051	146.440000
235.472778	146.540000
235.565521	146.780000
235.658249	146.220000
235.750992	146.300000
235.843719	146.460000
235.936462	146.440000
236.029205	146.020000
236.121948	146.320000
236.214691	146.240000
236.307449	147.060000
236.400192	146.880000
236.492935	146.960000
236.585678	146.920000
236.678421	147.140000
236.771164	146.880000
236.863907	147.580000
236.956665	147.760000
237.049408	149.320000
237.142151	148.720000
237.234909	149.300000
237.327652	148.800000
237.420410	148.440000
237.513153	147.360000
237.605927	147.460000
237.698669	146.760000
237.791428	146.080000
237.884186	146.760000
237.976944	146.420000
238.069702	146.860000
238.162445	146.320000
238.255203	146.880000
238.347961	147.220000
238.440720	147.340000
238.533478	146.900000
238.626266	146.760000
238.719025	146.860000
238.811783	146.380000
238.904541	146.060000
238.997314	146.060000
239.090073	145.920000
239.182831	146.000000
239.275604	146.640000
239.368362	146.540000
239.461136	146.820000
239.553909	147.000000
239.646667	146.760000
239.739441	146.120000
239.832214	146.480000
239.925003	146.400000
240.017761	147.100000
240.110535	147.480000
240.203308	147.100000
240.296082	147.180000
240.388855	146.820000
240.481628	146.800000
240.574417	146.620000
240.667191	146.900000
240.759964	146.680000
240.852737	147.060000
240.945526	146.580000
241.038315	146.560000
241.131088	146.520000
241.223877	147.080000
241.316650	146.460000
241.409439	146.920000
241.502228	146.420000
241.595001	147.100000
241.687790	146.780000
241.780579	147.140000
241.873367	147.060000
241.966141	147.720000
242.058929	146.780000
242.151718	146.620000
242.244507	146.940000
242.337311	146.320000
242.430099	146.580000
242.522903	146.900000
242.615692	146.720000
242.708481	146.780000
242.801270	147.680000
242.894073	147.320000
242.986862	147.620000
243.079651	148.140000
243.172455	148.100000
243.265244	147.840000
243.358063	147.380000
243.450867	147.360000
243.543655	147.260000
243.636459	147.220000
243.729263	147.440000
243.822067	147.920000
243.914856	148.260000
244.007660	148.400000
244.100464	148.180000
244.193268	147.660000
244.286072	147.380000
244.378876	146.800000
244.471680	146.140000
244.564499	146.640000
244.657318	147.340000
244.750122	147.800000
244.842926	147.280000
244.935745	147.720000
245.028549	147.180000
245.121368	146.760000
245.214172	146.660000
245.306992	147.380000
245.399796	147.300000
245.492615	147.600000
245.585434	147.580000
245.678253	147.280000
245.771072	146.940000
245.863892	147.420000
245.956711	147.460000
246.049530	147.400000
246.142349	147.500000
246.235168	147.780000
246.327988	148.040000
246.420807	147.720000
246.513626	147.660000
246.606445	147.540000
246.699280	147.300000
246.792099	146.760000
246.884918	146.580000
246.977753	146.240000
247.070587	146.320000
247.163422	146.620000
247.256241	146.480000
247.349075	146.800000
247.441895	146.940000
247.534729	146.660000
247.627563	146.340000
247.720383	146.900000
247.813217	146.940000
247.906052	147.000000
247.998886	146.960000
248.091736	146.940000
248.184570	146.520000
248.277405	146.480000
248.370239	147.360000
248.463074	148.440000
248.555908	148.900000
248.648743	148.680000
248.741592	148.720000
248.834427	147.820000
248.927261	146.880000
249.020111	146.960000
249.112946	147.400000
249.205795	146.980000
249.298630	147.160000
249.391495	147.300000
249.484344	146.940000
249.577179	147.020000
249.670029	147.460000
249.762878	148.000000
249.855728	147.980000
249.948563	147.880000
250.041412	147.260000
250.134262	147.420000
250.227112	147.220000
250.319962	147.320000
250.412827	147.400000
250.505692	147.040000
250.598541	146.840000
250.691391	146.400000
250.784241	146.500000
250.877106	146.640000
250.969955	146.560000
251.062805	146.920000
251.155670	147.620000
251.248520	147.120000
251.341385	147.260000
251.434235	147.780000
251.527100	147.400000
251.619965	146.720000
251.712814	147.820000
251.805695	147.760000
251.898560	147.680000
251.991425	147.880000
252.084290	147.980000
252.177155	146.840000
252.270020	146.440000
252.362885	146.400000
252.455750	146.320000
252.548615	145.980000
252.641479	146.340000
252.734360	146.120000
252.827240	145.920000
252.920105	146.080000
253.012970	145.940000
253.105850	145.920000
253.198715	146.040000
253.291595	146.400000
253.384460	145.660000
253.477341	145.760000
253.570221	145.680000
253.663086	145.820000
253.755966	146.420000
253.848846	146.640000
253.941727	147.280000
254.034592	147.520000
254.127472	146.740000
254.220367	146.440000
254.313248	146.700000
254.406128	146.180000
254.499008	146.060000
254.591904	147.180000
254.684784	147.380000
254.777664	147.540000
254.870544	147.160000
254.963440	147.060000
255.056335	147.080000
255.149216	146.640000
255.242111	147.220000
255.334991	147.620000
255.427887	147.680000
255.520767	147.520000
255.613663	147.900000
255.706558	146.880000
255.799438	146.740000
255.892334	146.660000
255.985229	146.660000
256.078125	146.480000
256.171021	146.640000
256.263916	147.400000
256.356812	147.400000
256.449707	147.300000
256.542603	147.320000
256.635498	147.720000
256.728394	147.320000
256.821289	147.320000
256.914215	147.400000
257.007080	147.440000
257.100006	147.180000
257.192932	147.580000
257.285828	147.660000
257.378723	147.600000
257.471619	147.180000
257.564545	147.300000
257.657440	147.240000
257.750336	147.600000
257.843262	147.280000
257.936157	148.380000
258.029053	148.320000
258.121979	148.280000
258.214874	148.120000
258.307800	148.220000
258.400696	147.240000
258.493622	146.980000
258.586517	146.280000
258.679443	146.360000
258.772339	145.940000
258.865265	145.980000
258.958160	145.900000
259.051086	146.660000
259.144012	146.120000
259.236938	146.980000
259.329834	146.880000
259.422791	146.980000
259.515717	146.320000
259.608612	146.400000
259.701538	146.640000
259.794464	146.440000
259.887390	146.560000
259.980316	146.540000
260.073212	146.600000
260.166138	145.240000
260.259064	145.940000
260.351990	146.440000
260.444916	146.500000
260.537842	146.960000
260.630768	148.360000
260.723694	147.940000
260.816620	147.420000
260.909546	147.320000
261.002472	146.760000
261.095398	145.980000
261.188354	146.360000
261.281281	146.100000
261.374207	146.500000
261.467133	147.480000
261.560089	147.760000
261.653015	147.180000
261.745972	147.900000
261.838867	148.100000
261.931824	147.640000
262.024780	146.960000
262.117706	147.280000
262.210663	147.200000
262.303589	146.980000
262.396515	146.800000
262.489471	147.920000
262.582397	147.860000
262.675354	147.400000
262.768280	147.480000
262.861237	147.600000
262.954163	147.380000
263.047119	147.400000
263.140045	147.240000
263.233002	147.040000
263.325958	146.780000
263.418884	146.280000
263.511841	146.360000
263.604797	146.380000
263.697723	146.580000
263.790680	146.720000
263.883636	147.000000
263.976593	146.940000
264.069550	147.000000
264.162476	146.440000
264.255463	146.520000
264.348419	146.400000
264.441376	146.600000
264.534332	146.460000
264.627289	146.740000
264.720245	147.020000
264.813202	146.640000
264.906158	146.440000
264.999115	147.020000
265.092072	146.980000
265.185028	147.360000
265.277985	147.800000
265.370941	147.760000
265.463898	147.420000
265.556854	147.380000
265.649811	146.380000
265.742798	146.240000
265.835754	146.140000
265.928711	146.560000
266.021667	146.440000
266.114655	146.860000
266.207611	147.040000
266.300568	146.760000
266.393585	146.140000
266.486511	146.760000
266.579498	145.960000
266.672485	146.020000
266.765442	146.000000
266.858429	146.800000
266.951385	146.400000
267.044342	146.920000
267.137329	146.820000
267.230316	147.280000
267.323273	146.680000
267.416260	147.120000
267.509216	146.880000
267.602203	146.760000
267.695160	147.160000
267.788147	147.340000
267.881134	146.760000
267.974091	147.080000
268.067078	146.920000
268.160065	146.580000
268.253052	146.440000
268.346008	146.600000
268.438995	146.420000
268.531982	146.740000
268.624969	146.540000
268.717987	146.640000
268.810944	146.600000
268.903961	146.680000
268.996948	146.460000
269.089905	146.860000
269.182892	147.080000
269.275879	147.260000
269.368866	146.640000
269.461853	146.840000
269.554871	146.640000
269.647858	146.480000
269.740845	146.940000
269.833832	147.700000
269.926819	147.260000
270.019806	146.980000
270.112793	146.580000
270.205811	146.340000
270.298798	146.320000
270.391785	147.280000
270.484772	147.340000
270.577789	147.520000
270.670776	147.180000
270.763763	147.020000
270.856750	146.640000
270.949768	146.520000
271.042786	146.380000
271.135773	146.320000
271.228790	146.880000
271.321808	146.320000
271.414795	145.920000
271.507782	146.140000
271.600800	146.020000
271.693817	145.800000
271.786804	146.560000
271.879822	147.260000
271.972809	147.020000
272.065826	147.480000
272.158844	147.100000
272.251831	147.340000
272.344849	147.440000
272.437866	147.380000
272.530853	147.280000
272.623871	147.420000
272.716888	146.260000
272.809906	146.280000
272.902893	146.300000
272.995911	145.820000
273.088928	145.780000
273.181946	146.260000
273.274963	145.820000
273.367981	145.820000
273.460999	146.240000
273.554047	146.720000
273.647003	147.380000
273.740051	147.480000
273.833069	147.840000
273.926086	147.780000
274.019135	147.080000
274.112152	146.420000
274.205170	146.380000
274.298187	146.640000
274.391205	146.300000
274.484222	146.320000
274.577240	146.300000
274.670258	146.320000
274.763306	146.040000
274.856323	146.660000
274.949341	147.000000
275.042358	147.620000
275.135406	147.500000
275.228424	147.440000
275.321442	147.260000
275.414490	147.000000
275.507507	146.960000
275.600525	147.540000
275.693573	147.440000
275.786591	146.860000
275.879669	147.200000
275.972656	147.040000
276.065735	146.640000
276.158752	147.120000
276.251801	148.180000
276.344818	148.220000
276.437866	148.020000
276.530884	147.900000
276.623932	147.300000
276.716980	147.300000
276.809998	147.300000
276.903046	147.300000
276.996094	148.120000
277.089111	148.720000
277.182159	148.760000
277.275208	148.060000
277.368256	148.120000
277.461304	147.640000
277.554321	146.960000
277.647369	146.800000
277.740417	147.220000
277.833466	147.160000
277.926514	146.860000
278.019562	147.540000
278.112610	146.900000
278.205688	147.060000
278.298706	147.260000
278.391785	147.300000
278.484833	146.860000
278.577881	146.660000
278.670929	147.100000
278.763977	146.820000
278.857025	147.200000
278.950073	147.300000
279.043121	147.620000
279.136169	147.160000
279.229248	147.020000
279.322296	146.780000
279.415344	146.620000
279.508392	146.580000
279.601440	146.320000
279.694519	146.260000
279.787567	146.220000
279.880615	146.120000
279.973694	146.040000
280.066742	146.460000
280.159790	146.760000
280.252869	146.560000
280.345917	146.680000
280.438995	146.820000
280.532074	146.700000
280.625122	147.020000
280.718201	147.900000
280.811279	148.100000
280.904327	148.200000
280.997406	148.140000
281.090454	147.840000
281.183533	147.260000
281.276581	146.980000
281.369659	146.260000
281.462738	146.020000
281.555786	145.980000
281.648865	145.980000
281.741943	145.900000
281.835022	146.740000
281.928070	146.800000
282.021149	146.500000
282.114227	146.460000
282.207306	146.200000
282.300385	146.440000
282.393433	146.800000
282.486511	147.100000
282.579590	147.500000
282.672668	148.220000
282.765747	147.480000
282.858856	147.160000
282.951904	147.160000
283.045013	146.940000
283.138062	147.200000
283.231171	147.460000
283.324249	147.860000
283.417328	148.020000
283.510406	147.800000
283.603485	147.420000
283.696564	147.620000
283.789642	147.620000
283.882751	147.580000
283.975830	148.140000
284.068909	147.720000
284.161987	148.100000
284.255066	147.180000
284.348175	147.040000
284.441254	146.760000
284.534332	147.140000
284.627441	146.560000
284.720520	146.800000
284.813599	146.760000
284.906708	146.740000
284.999786	146.240000
285.092896	146.040000
285.185974	147.140000
285.279053	146.740000
285.372192	146.800000
285.465240	147.700000
285.558380	147.540000
285.651459	146.840000
285.744568	147.960000
285.837677	147.260000
285.930756	146.900000
286.023865	147.340000
286.116943	147.240000
286.210052	146.780000
286.303162	147.200000
286.396240	147.280000
286.489349	147.060000
286.582458	147.440000
286.675568	147.080000
286.768646	147.000000
286.861755	147.180000
286.954865	147.700000
287.047974	146.900000
287.141083	146.820000
287.234161	146.620000
287.327271	146.300000
287.420380	146.600000
287.513519	146.880000
287.606598	147.100000
287.699738	147.260000
287.792816	146.960000
287.885956	146.560000
287.979034	146.640000
288.072174	147.000000
288.165283	146.820000
288.258392	147.180000
288.351501	146.600000
288.444611	147.040000
288.537720	147.320000
288.630859	147.340000
288.723969	147.500000
288.817078	148.140000
288.910187	147.960000
289.003296	147.220000
289.096436	147.220000
289.189545	146.860000
289.282654	146.320000
289.375763	146.540000
289.468903	146.840000
289.562012	147.040000
289.655121	147.380000
289.748260	147.620000
289.841400	147.420000
289.934509	147.160000
290.027649	147.460000
290.120728	147.480000
290.213898	147.300000
290.306976	147.040000
290.400146	147.360000
290.493256	146.740000
290.586395	146.620000
290.679535	147.260000
290.772644	147.300000
290.865784	146.620000
290.958893	146.940000
291.052032	146.640000
291.145172	146.520000
291.238281	146.160000
291.331421	146.560000
291.424561	146.740000
291.517670	146.640000
291.610809	146.580000
291.703949	146.520000
291.797089	146.360000
291.890228	146.260000
291.983337	146.280000
292.076477	146.040000
292.169617	146.980000
292.262756	147.400000
292.355927	147.160000
292.449036	147.180000
292.542206	147.120000
292.635315	147.140000
292.728485	147.080000
292.821625	146.960000
292.914764	147.940000
293.007904	147.960000
293.101044	147.440000
293.194183	147.220000
293.287323	147.240000
293.380463	146.400000
293.473602	146.320000
293.566742	146.400000
293.659882	146.860000
293.753021	147.180000
293.846191	147.240000
293.939331	146.840000
294.032471	146.660000
294.125610	146.300000
294.218781	146.600000
294.311920	146.820000
294.405060	147.280000
294.498230	147.460000
294.591370	147.520000
294.684540	146.680000
294.777679	146.220000
294.870850	146.640000
294.963959	146.520000
295.057159	146.360000
295.150299	146.860000
295.243469	147.160000
295.336609	146.160000
295.429779	146.200000
295.522919	146.700000
295.616089	146.880000
295.709229	147.420000
295.802399	148.140000
295.895569	147.880000
295.988708	147.340000
296.081879	147.340000
296.175018	146.460000
296.268188	146.480000
296.361359	147.100000
296.454529	147.480000
296.547668	147.260000
296.640839	147.680000
296.734009	147.500000
296.827179	147.400000
296.920319	147.580000
297.013519	147.220000
297.106659	147.500000
297.199860	147.100000
297.292999	147.020000
297.386200	146.560000
297.479309	146.500000
297.572510	145.980000
297.665680	145.960000
297.758850	145.960000
297.852020	145.620000
297.945190	145.820000
298.038361	145.720000
298.131531	146.700000
298.224701	146.540000
298.317871	146.500000
298.411072	145.880000
298.504242	145.760000
298.597412	145.440000
298.690582	145.540000
298.783752	145.740000
298.876923	146.560000
298.970093	146.720000
299.063293	146.820000
299.156464	146.900000
299.249634	147.120000
299.342834	147.200000
299.436005	147.720000
299.529205	147.160000
299.622345	147.160000
299.715576	146.560000
299.808716	146.220000
299.901917	145.780000
299.995117	146.400000
300.088287	146.660000
300.181488	146.960000
300.274658	147.000000
300.367828	147.180000
300.461029	146.960000
300.554199	147.040000
300.647400	146.940000
300.740601	147.580000
300.833771	147.460000
300.926971	147.580000
301.020142	147.000000
301.113342	147.060000
301.206512	146.540000
301.299713	146.740000
301.392914	146.520000
301.486084	146.880000
301.579285	146.880000
301.672516	147.500000
301.765686	147.240000
301.858887	147.140000
301.952057	147.040000
302.045288	147.140000
302.138458	146.800000
302.231659	146.740000
302.324860	146.920000
302.418060	146.540000
302.511261	146.680000
302.604462	146.640000
302.697662	146.560000
302.790863	146.340000
302.884064	146.340000
302.977264	146.280000
303.070465	146.600000
303.163666	147.240000
303.256866	147.760000
303.350067	147.980000
303.443268	147.920000
303.536469	147.820000
303.629669	147.380000
303.722870	147.340000
303.816071	147.060000
303.909271	147.160000
304.002472	146.360000
304.095673	146.200000
304.188934	145.760000
304.282104	146.700000
304.375336	146.440000
304.468506	146.760000
304.561768	146.540000
304.654968	146.920000
304.748169	146.400000
304.841370	146.320000
304.934601	146.480000
305.027802	146.860000
305.121002	146.180000
305.214233	146.380000
305.307434	146.780000
305.400665	147.660000
305.493866	147.300000
