Model Number: SPM-002-B   
Serial Number: 70087108
Firmware Version: 004.15.4
Exposure Time: 100000.000000us
Data Taken on: 11-12-2020 18:49:47.321
Wavelength	Amplitude
221.570786	0.000000
221.663406	0.000000
221.756027	0.000000
221.848648	0.000000
221.941269	0.000000
222.033905	0.000000
222.126526	0.000000
222.219162	0.000000
222.311798	0.000000
222.404419	0.000000
222.497055	0.000000
222.589676	0.000000
222.682312	0.000000
222.774933	0.000000
222.867569	0.000000
222.960205	0.000000
223.052841	0.000000
223.145462	0.000000
223.238098	0.000000
223.330734	0.000000
223.423386	0.000000
223.516022	0.000000
223.608658	0.000000
223.701309	0.000000
223.793945	0.000000
223.886581	0.000000
223.979218	0.000000
224.071869	0.000000
224.164505	0.000000
224.257156	0.000000
224.349792	0.000000
224.442444	0.000000
224.535095	0.000000
224.627747	0.000000
224.720398	0.000000
224.813034	0.000000
224.905685	0.000000
224.998337	145.680000
225.090988	145.640000
225.183640	145.740000
225.276291	145.440000
225.368942	145.800000
225.461594	146.320000
225.554245	146.220000
225.646912	145.900000
225.739578	146.380000
225.832230	146.780000
225.924896	145.720000
226.017548	146.100000
226.110199	146.900000
226.202866	146.200000
226.295532	145.900000
226.388184	146.240000
226.480850	145.520000
226.573517	144.820000
226.666168	145.120000
226.758835	145.440000
226.851501	146.020000
226.944183	146.300000
227.036850	145.980000
227.129517	145.760000
227.222183	145.920000
227.314850	145.780000
227.407516	146.280000
227.500198	147.220000
227.592865	147.160000
227.685532	146.760000
227.778214	146.480000
227.870880	146.320000
227.963562	146.360000
228.056229	147.140000
228.148926	146.840000
228.241592	147.400000
228.334274	147.080000
228.426956	146.640000
228.519638	146.260000
228.612305	146.100000
228.704987	145.940000
228.797668	146.080000
228.890350	145.900000
228.983032	145.320000
229.075714	146.100000
229.168396	145.640000
229.261108	145.180000
229.353790	145.420000
229.446472	145.700000
229.539169	145.460000
229.631851	145.080000
229.724533	145.540000
229.817230	145.560000
229.909912	146.380000
230.002609	146.260000
230.095306	146.640000
230.187988	146.680000
230.280685	146.540000
230.373383	145.500000
230.466095	145.140000
230.558792	145.340000
230.651474	145.380000
230.744171	145.280000
230.836868	145.080000
230.929581	145.600000
231.022278	145.600000
231.114975	145.360000
231.207672	145.040000
231.300369	145.860000
231.393082	145.880000
231.485779	145.440000
231.578506	145.480000
231.671204	145.720000
231.763916	145.500000
231.856613	145.200000
231.949326	145.540000
232.042023	145.700000
232.134735	145.940000
232.227448	145.960000
232.320160	146.520000
232.412872	146.760000
232.505585	147.160000
232.598297	147.260000
232.691010	146.860000
232.783722	146.220000
232.876450	146.860000
232.969162	146.320000
233.061874	145.940000
233.154587	145.580000
233.247314	145.920000
233.340027	145.100000
233.432739	145.480000
233.525467	145.340000
233.618179	145.920000
233.710907	145.080000
233.803635	145.620000
233.896347	145.080000
233.989090	146.200000
234.081818	145.920000
234.174545	146.740000
234.267258	146.060000
234.359985	146.340000
234.452713	145.620000
234.545441	145.400000
234.638168	145.300000
234.730896	145.700000
234.823639	145.660000
234.916367	146.100000
235.009094	146.600000
235.101822	146.540000
235.194580	146.300000
235.287308	146.060000
235.380051	145.420000
235.472778	145.720000
235.565521	146.140000
235.658249	145.920000
235.750992	146.260000
235.843719	146.280000
235.936462	146.300000
236.029205	145.620000
236.121948	145.680000
236.214691	145.760000
236.307449	146.540000
236.400192	146.040000
236.492935	145.980000
236.585678	146.060000
236.678421	146.160000
236.771164	145.780000
236.863907	146.160000
236.956665	146.520000
237.049408	148.260000
237.142151	147.520000
237.234909	147.920000
237.327652	147.700000
237.420410	147.220000
237.513153	145.920000
237.605927	146.200000
237.698669	145.680000
237.791428	145.200000
237.884186	145.800000
237.976944	145.200000
238.069702	145.500000
238.162445	145.180000
238.255203	145.540000
238.347961	145.600000
238.440720	145.960000
238.533478	145.940000
238.626266	145.740000
238.719025	145.940000
238.811783	145.660000
238.904541	145.680000
238.997314	145.500000
239.090073	145.400000
239.182831	145.480000
239.275604	146.480000
239.368362	146.080000
239.461136	145.980000
239.553909	146.180000
239.646667	146.220000
239.739441	145.660000
239.832214	145.980000
239.925003	146.140000
240.017761	146.700000
240.110535	146.920000
240.203308	146.480000
240.296082	146.680000
240.388855	146.600000
240.481628	146.340000
240.574417	146.280000
240.667191	146.480000
240.759964	145.920000
240.852737	146.160000
240.945526	145.880000
241.038315	145.460000
241.131088	145.500000
241.223877	146.020000
241.316650	145.540000
241.409439	145.980000
241.502228	145.820000
241.595001	145.860000
241.687790	145.400000
241.780579	145.560000
241.873367	145.780000
241.966141	146.140000
242.058929	145.760000
242.151718	146.080000
242.244507	146.440000
242.337311	145.500000
242.430099	145.900000
242.522903	146.380000
242.615692	146.040000
242.708481	146.220000
242.801270	147.160000
242.894073	146.960000
242.986862	147.000000
243.079651	147.500000
243.172455	147.080000
243.265244	147.040000
243.358063	146.560000
243.450867	146.640000
243.543655	146.460000
243.636459	146.560000
243.729263	146.440000
243.822067	146.900000
243.914856	146.980000
244.007660	147.280000
244.100464	147.340000
244.193268	147.080000
244.286072	146.820000
244.378876	146.260000
244.471680	145.880000
244.564499	146.040000
244.657318	146.900000
244.750122	147.320000
244.842926	147.020000
244.935745	147.480000
245.028549	146.940000
245.121368	146.220000
245.214172	146.060000
245.306992	146.920000
245.399796	146.460000
245.492615	146.720000
245.585434	146.400000
245.678253	146.060000
245.771072	145.540000
245.863892	145.920000
245.956711	146.000000
246.049530	146.340000
246.142349	146.240000
246.235168	146.340000
246.327988	146.580000
246.420807	146.640000
246.513626	146.480000
246.606445	146.320000
246.699280	146.040000
246.792099	145.760000
246.884918	145.500000
246.977753	145.120000
247.070587	145.320000
247.163422	145.520000
247.256241	145.540000
247.349075	146.000000
247.441895	146.360000
247.534729	146.300000
247.627563	146.500000
247.720383	146.780000
247.813217	146.420000
247.906052	146.360000
247.998886	146.580000
248.091736	146.360000
248.184570	145.780000
248.277405	145.740000
248.370239	146.540000
248.463074	147.580000
248.555908	147.640000
248.648743	147.800000
248.741592	147.940000
248.834427	147.120000
248.927261	145.740000
249.020111	146.220000
249.112946	146.960000
249.205795	146.700000
249.298630	146.880000
249.391495	147.140000
249.484344	146.640000
249.577179	146.040000
249.670029	146.560000
249.762878	147.080000
249.855728	147.320000
249.948563	147.640000
250.041412	147.120000
250.134262	147.140000
250.227112	147.020000
250.319962	146.860000
250.412827	146.600000
250.505692	146.340000
250.598541	145.920000
250.691391	145.260000
250.784241	145.220000
250.877106	145.260000
250.969955	145.460000
251.062805	146.060000
251.155670	146.960000
251.248520	146.980000
251.341385	147.240000
251.434235	147.100000
251.527100	146.500000
251.619965	145.680000
251.712814	146.440000
251.805695	146.480000
251.898560	147.140000
251.991425	147.660000
252.084290	148.240000
252.177155	147.140000
252.270020	146.800000
252.362885	146.500000
252.455750	146.180000
252.548615	145.760000
252.641479	145.940000
252.734360	145.840000
252.827240	145.700000
252.920105	145.940000
253.012970	145.720000
253.105850	145.720000
253.198715	145.560000
253.291595	145.760000
253.384460	145.360000
253.477341	145.580000
253.570221	145.860000
253.663086	145.660000
253.755966	146.220000
253.848846	146.560000
253.941727	146.920000
254.034592	147.060000
254.127472	147.080000
254.220367	146.860000
254.313248	146.820000
254.406128	146.420000
254.499008	146.460000
254.591904	147.580000
254.684784	148.100000
254.777664	147.980000
254.870544	147.780000
254.963440	147.640000
255.056335	147.160000
255.149216	146.100000
255.242111	146.420000
255.334991	146.760000
255.427887	146.840000
255.520767	146.820000
255.613663	147.220000
255.706558	146.660000
255.799438	146.500000
255.892334	145.920000
255.985229	145.980000
256.078125	145.980000
256.171021	146.180000
256.263916	146.520000
256.356812	146.960000
256.449707	146.740000
256.542603	146.560000
256.635498	147.220000
256.728394	147.020000
256.821289	146.880000
256.914215	147.500000
257.007080	147.840000
257.100006	147.280000
257.192932	147.720000
257.285828	147.840000
257.378723	147.040000
257.471619	146.520000
257.564545	146.400000
257.657440	146.360000
257.750336	146.540000
257.843262	146.560000
257.936157	147.680000
258.029053	148.240000
258.121979	148.100000
258.214874	147.620000
258.307800	147.800000
258.400696	146.560000
258.493622	146.060000
258.586517	145.460000
258.679443	146.120000
258.772339	145.460000
258.865265	145.760000
258.958160	145.460000
259.051086	146.100000
259.144012	145.620000
259.236938	146.880000
259.329834	147.000000
259.422791	147.060000
259.515717	146.360000
259.608612	146.200000
259.701538	145.640000
259.794464	145.260000
259.887390	145.340000
259.980316	145.560000
260.073212	145.520000
260.166138	144.840000
260.259064	145.360000
260.351990	146.160000
260.444916	146.020000
260.537842	146.460000
260.630768	147.220000
260.723694	147.240000
260.816620	146.640000
260.909546	146.620000
261.002472	145.960000
261.095398	145.480000
261.188354	145.300000
261.281281	144.880000
261.374207	145.220000
261.467133	146.260000
261.560089	146.540000
261.653015	146.160000
261.745972	146.980000
261.838867	147.320000
261.931824	147.340000
262.024780	146.980000
262.117706	147.560000
262.210663	147.360000
262.303589	146.860000
262.396515	146.640000
262.489471	147.380000
262.582397	147.240000
262.675354	146.920000
262.768280	147.060000
262.861237	147.200000
262.954163	147.100000
263.047119	146.900000
263.140045	146.620000
263.233002	146.580000
263.325958	145.960000
263.418884	145.640000
263.511841	145.720000
263.604797	145.680000
263.697723	145.440000
263.790680	145.700000
263.883636	145.860000
263.976593	145.700000
264.069550	146.320000
264.162476	146.280000
264.255463	146.320000
264.348419	146.040000
264.441376	146.400000
264.534332	145.680000
264.627289	145.980000
264.720245	146.480000
264.813202	146.240000
264.906158	146.240000
264.999115	146.840000
265.092072	146.700000
265.185028	146.860000
265.277985	147.420000
265.370941	147.260000
265.463898	146.820000
265.556854	146.640000
265.649811	145.840000
265.742798	145.680000
265.835754	145.740000
265.928711	146.360000
266.021667	146.660000
266.114655	146.880000
266.207611	147.240000
266.300568	146.860000
266.393585	146.260000
266.486511	146.460000
266.579498	145.480000
266.672485	144.780000
266.765442	144.960000
266.858429	145.500000
266.951385	144.940000
267.044342	145.460000
267.137329	145.600000
267.230316	145.800000
267.323273	145.380000
267.416260	146.320000
267.509216	146.420000
267.602203	146.380000
267.695160	146.660000
267.788147	146.820000
267.881134	145.960000
267.974091	146.280000
268.067078	146.340000
268.160065	145.760000
268.253052	145.360000
268.346008	145.580000
268.438995	145.220000
268.531982	145.580000
268.624969	145.500000
268.717987	145.900000
268.810944	145.880000
268.903961	145.900000
268.996948	145.400000
269.089905	146.180000
269.182892	146.200000
269.275879	146.600000
269.368866	146.340000
269.461853	146.520000
269.554871	146.240000
269.647858	146.320000
269.740845	146.300000
269.833832	146.860000
269.926819	146.580000
270.019806	146.460000
270.112793	145.700000
270.205811	145.540000
270.298798	145.180000
270.391785	145.680000
270.484772	145.540000
270.577789	146.040000
270.670776	145.720000
270.763763	145.920000
270.856750	146.060000
270.949768	145.980000
271.042786	146.060000
271.135773	146.240000
271.228790	146.320000
271.321808	145.720000
271.414795	145.220000
271.507782	145.240000
271.600800	145.020000
271.693817	144.860000
271.786804	145.680000
271.879822	146.260000
271.972809	145.840000
272.065826	146.160000
272.158844	145.580000
272.251831	145.840000
272.344849	145.760000
272.437866	145.860000
272.530853	145.900000
272.623871	146.620000
272.716888	145.440000
272.809906	145.980000
272.902893	146.060000
272.995911	145.760000
273.088928	145.600000
273.181946	146.220000
273.274963	145.360000
273.367981	145.360000
273.460999	145.360000
273.554047	145.920000
273.647003	146.460000
273.740051	146.860000
273.833069	147.400000
273.926086	147.640000
274.019135	147.100000
274.112152	146.400000
274.205170	146.560000
274.298187	146.480000
274.391205	146.020000
274.484222	146.060000
274.577240	146.260000
274.670258	145.960000
274.763306	145.480000
274.856323	146.080000
274.949341	146.280000
275.042358	146.180000
275.135406	146.080000
275.228424	146.500000
275.321442	146.340000
275.414490	146.020000
275.507507	146.420000
275.600525	146.720000
275.693573	146.280000
275.786591	145.780000
275.879669	145.620000
275.972656	145.000000
276.065735	145.140000
276.158752	145.660000
276.251801	146.840000
276.344818	147.060000
276.437866	147.180000
276.530884	146.780000
276.623932	146.020000
276.716980	145.500000
276.809998	145.580000
276.903046	145.640000
276.996094	146.340000
277.089111	147.160000
277.182159	147.840000
277.275208	147.520000
277.368256	147.660000
277.461304	147.320000
277.554321	146.660000
277.647369	146.300000
277.740417	146.420000
277.833466	146.180000
277.926514	146.300000
278.019562	146.860000
278.112610	146.260000
278.205688	146.460000
278.298706	146.600000
278.391785	146.040000
278.484833	145.380000
278.577881	145.380000
278.670929	145.600000
278.763977	145.700000
278.857025	146.400000
278.950073	146.820000
279.043121	146.580000
279.136169	146.420000
279.229248	146.080000
279.322296	145.920000
279.415344	145.580000
279.508392	145.480000
279.601440	145.420000
279.694519	145.580000
279.787567	145.180000
279.880615	145.320000
279.973694	145.200000
280.066742	145.240000
280.159790	145.160000
280.252869	144.900000
280.345917	144.940000
280.438995	145.360000
280.532074	145.400000
280.625122	145.920000
280.718201	146.720000
280.811279	146.780000
280.904327	146.640000
280.997406	146.820000
281.090454	146.700000
281.183533	145.980000
281.276581	146.000000
281.369659	145.880000
281.462738	145.900000
281.555786	145.720000
281.648865	146.200000
281.741943	146.040000
281.835022	146.840000
281.928070	146.480000
282.021149	146.420000
282.114227	146.300000
282.207306	146.400000
282.300385	146.360000
282.393433	146.480000
282.486511	146.560000
282.579590	146.960000
282.672668	147.400000
282.765747	146.660000
282.858856	146.420000
282.951904	146.440000
283.045013	146.220000
283.138062	146.000000
283.231171	146.480000
283.324249	146.820000
283.417328	147.020000
283.510406	146.840000
283.603485	146.620000
283.696564	146.540000
283.789642	146.620000
283.882751	146.200000
283.975830	146.660000
284.068909	146.480000
284.161987	147.120000
284.255066	146.400000
284.348175	146.640000
284.441254	146.140000
284.534332	146.960000
284.627441	145.900000
284.720520	145.820000
284.813599	145.540000
284.906708	145.760000
284.999786	144.800000
285.092896	144.960000
285.185974	146.280000
285.279053	146.060000
285.372192	146.420000
285.465240	147.320000
285.558380	147.320000
285.651459	146.800000
285.744568	147.640000
285.837677	146.820000
285.930756	146.400000
286.023865	146.520000
286.116943	146.040000
286.210052	146.080000
286.303162	146.260000
286.396240	146.380000
286.489349	146.240000
286.582458	146.800000
286.675568	146.160000
286.768646	146.280000
286.861755	146.300000
286.954865	147.180000
287.047974	146.520000
287.141083	146.540000
287.234161	146.480000
287.327271	146.340000
287.420380	146.480000
287.513519	146.640000
287.606598	146.960000
287.699738	147.000000
287.792816	146.820000
287.885956	146.220000
287.979034	146.200000
288.072174	146.060000
288.165283	146.100000
288.258392	146.440000
288.351501	145.900000
288.444611	146.020000
288.537720	146.300000
288.630859	146.340000
288.723969	146.260000
288.817078	146.620000
288.910187	146.580000
289.003296	145.760000
289.096436	145.420000
289.189545	145.020000
289.282654	144.500000
289.375763	144.900000
289.468903	145.600000
289.562012	145.840000
289.655121	146.320000
289.748260	146.980000
289.841400	147.060000
289.934509	146.960000
290.027649	147.060000
290.120728	146.760000
290.213898	146.540000
290.306976	146.360000
290.400146	146.400000
290.493256	146.000000
290.586395	146.020000
290.679535	146.120000
290.772644	145.960000
290.865784	145.100000
290.958893	145.360000
291.052032	145.080000
291.145172	145.100000
291.238281	144.480000
291.331421	144.660000
291.424561	145.160000
291.517670	145.480000
291.610809	145.640000
291.703949	146.040000
291.797089	146.400000
291.890228	145.700000
291.983337	145.480000
292.076477	145.300000
292.169617	145.740000
292.262756	145.900000
292.355927	145.840000
292.449036	145.760000
292.542206	145.740000
292.635315	145.820000
292.728485	146.020000
292.821625	145.700000
292.914764	146.720000
293.007904	146.880000
293.101044	146.700000
293.194183	146.340000
293.287323	146.860000
293.380463	146.020000
293.473602	145.780000
293.566742	145.940000
293.659882	146.620000
293.753021	146.880000
293.846191	147.020000
293.939331	146.700000
294.032471	146.260000
294.125610	145.700000
294.218781	145.880000
294.311920	146.300000
294.405060	146.520000
294.498230	146.580000
294.591370	146.600000
294.684540	145.940000
294.777679	145.220000
294.870850	145.740000
294.963959	145.640000
295.057159	145.460000
295.150299	145.660000
295.243469	145.900000
295.336609	145.360000
295.429779	145.500000
295.522919	145.960000
295.616089	146.320000
295.709229	146.640000
295.802399	146.800000
295.895569	146.700000
295.988708	146.340000
296.081879	146.140000
296.175018	145.500000
296.268188	145.320000
296.361359	146.000000
296.454529	146.140000
296.547668	146.240000
296.640839	146.720000
296.734009	146.540000
296.827179	146.220000
296.920319	146.480000
297.013519	145.900000
297.106659	146.040000
297.199860	146.140000
297.292999	145.960000
297.386200	145.500000
297.479309	145.580000
297.572510	145.600000
297.665680	145.580000
297.758850	145.680000
297.852020	145.760000
297.945190	145.820000
298.038361	145.220000
298.131531	146.180000
298.224701	145.860000
298.317871	145.840000
298.411072	145.660000
298.504242	145.600000
298.597412	144.840000
298.690582	145.340000
298.783752	145.260000
298.876923	145.820000
298.970093	146.140000
299.063293	146.260000
299.156464	146.380000
299.249634	146.540000
299.342834	146.720000
299.436005	147.260000
299.529205	147.180000
299.622345	146.940000
299.715576	146.400000
299.808716	145.840000
299.901917	145.320000
299.995117	145.600000
300.088287	145.420000
300.181488	145.500000
300.274658	145.440000
300.367828	145.320000
300.461029	145.120000
300.554199	145.660000
300.647400	145.900000
300.740601	146.480000
300.833771	146.640000
300.926971	146.860000
301.020142	145.840000
301.113342	145.800000
301.206512	145.640000
301.299713	145.600000
301.392914	145.280000
301.486084	146.020000
301.579285	145.980000
301.672516	146.200000
301.765686	145.940000
301.858887	146.060000
301.952057	145.860000
302.045288	145.940000
302.138458	145.760000
302.231659	145.860000
302.324860	145.780000
302.418060	145.460000
302.511261	145.540000
302.604462	145.360000
302.697662	145.240000
302.790863	145.380000
302.884064	145.540000
302.977264	145.620000
303.070465	146.080000
303.163666	146.920000
303.256866	147.160000
303.350067	147.160000
303.443268	147.020000
303.536469	146.860000
303.629669	146.280000
303.722870	146.180000
303.816071	146.100000
303.909271	146.160000
304.002472	145.340000
304.095673	145.060000
304.188934	144.140000
304.282104	144.820000
304.375336	144.680000
304.468506	144.880000
304.561768	144.960000
304.654968	145.940000
304.748169	145.560000
304.841370	145.460000
304.934601	146.200000
305.027802	146.120000
305.121002	145.840000
305.214233	145.920000
305.307434	146.200000
305.400665	146.260000
305.493866	146.100000
