Model Number: SPM-002-B   
Serial Number: 70087108
Firmware Version: 004.15.4
Exposure Time: 100000.000000us
Data Taken on: 11-12-2020 18:50:00.640
Wavelength	Amplitude
221.570786	0.000000
221.663406	0.000000
221.756027	0.000000
221.848648	0.000000
221.941269	0.000000
222.033905	0.000000
222.126526	0.000000
222.219162	0.000000
222.311798	0.000000
222.404419	0.000000
222.497055	0.000000
222.589676	0.000000
222.682312	0.000000
222.774933	0.000000
222.867569	0.000000
222.960205	0.000000
223.052841	0.000000
223.145462	0.000000
223.238098	0.000000
223.330734	0.000000
223.423386	0.000000
223.516022	0.000000
223.608658	0.000000
223.701309	0.000000
223.793945	0.000000
223.886581	0.000000
223.979218	0.000000
224.071869	0.000000
224.164505	0.000000
224.257156	0.000000
224.349792	0.000000
224.442444	0.000000
224.535095	0.000000
224.627747	0.000000
224.720398	0.000000
224.813034	0.000000
224.905685	0.000000
224.998337	145.500000
225.090988	145.260000
225.183640	145.160000
225.276291	145.060000
225.368942	145.780000
225.461594	146.200000
225.554245	146.560000
225.646912	146.560000
225.739578	146.900000
225.832230	146.960000
225.924896	146.240000
226.017548	146.680000
226.110199	147.000000
226.202866	146.580000
226.295532	146.280000
226.388184	146.260000
226.480850	145.440000
226.573517	145.160000
226.666168	145.300000
226.758835	145.740000
226.851501	146.540000
226.944183	146.660000
227.036850	146.180000
227.129517	146.260000
227.222183	146.460000
227.314850	146.360000
227.407516	146.940000
227.500198	147.980000
227.592865	147.300000
227.685532	146.800000
227.778214	146.400000
227.870880	146.400000
227.963562	146.560000
228.056229	147.340000
228.148926	147.420000
228.241592	148.100000
228.334274	147.920000
228.426956	147.560000
228.519638	147.520000
228.612305	147.140000
228.704987	147.040000
228.797668	146.980000
228.890350	146.700000
228.983032	146.260000
229.075714	147.060000
229.168396	146.700000
229.261108	146.160000
229.353790	146.060000
229.446472	146.460000
229.539169	145.880000
229.631851	145.400000
229.724533	145.960000
229.817230	146.140000
229.909912	147.020000
230.002609	147.040000
230.095306	147.040000
230.187988	146.580000
230.280685	146.200000
230.373383	144.760000
230.466095	144.680000
230.558792	145.320000
230.651474	145.600000
230.744171	145.740000
230.836868	145.960000
230.929581	146.300000
231.022278	146.160000
231.114975	146.240000
231.207672	146.140000
231.300369	146.520000
231.393082	146.560000
231.485779	146.440000
231.578506	146.480000
231.671204	146.740000
231.763916	146.600000
231.856613	146.360000
231.949326	146.660000
232.042023	146.380000
232.134735	146.380000
232.227448	146.180000
232.320160	146.580000
232.412872	146.180000
232.505585	147.080000
232.598297	147.260000
232.691010	147.180000
232.783722	146.600000
232.876450	147.340000
232.969162	146.520000
233.061874	146.220000
233.154587	145.900000
233.247314	146.100000
233.340027	145.560000
233.432739	146.140000
233.525467	146.080000
233.618179	146.820000
233.710907	146.620000
233.803635	146.940000
233.896347	146.400000
233.989090	147.080000
234.081818	146.500000
234.174545	146.840000
234.267258	146.100000
234.359985	146.700000
234.452713	146.500000
234.545441	146.660000
234.638168	146.600000
234.730896	147.120000
234.823639	146.780000
234.916367	146.860000
235.009094	146.840000
235.101822	146.760000
235.194580	146.820000
235.287308	146.880000
235.380051	146.120000
235.472778	146.360000
235.565521	146.800000
235.658249	146.200000
235.750992	146.000000
235.843719	146.220000
235.936462	146.440000
236.029205	145.820000
236.121948	145.740000
236.214691	145.940000
236.307449	146.360000
236.400192	145.760000
236.492935	145.440000
236.585678	145.680000
236.678421	145.660000
236.771164	145.640000
236.863907	146.360000
236.956665	147.000000
237.049408	148.600000
237.142151	148.380000
237.234909	148.920000
237.327652	148.700000
237.420410	148.100000
237.513153	146.880000
237.605927	146.760000
237.698669	146.200000
237.791428	145.660000
237.884186	146.320000
237.976944	146.060000
238.069702	146.360000
238.162445	145.860000
238.255203	146.200000
238.347961	146.260000
238.440720	146.360000
238.533478	146.140000
238.626266	146.040000
238.719025	146.000000
238.811783	145.900000
238.904541	145.900000
238.997314	145.900000
239.090073	145.840000
239.182831	146.180000
239.275604	146.720000
239.368362	146.660000
239.461136	146.600000
239.553909	146.620000
239.646667	146.360000
239.739441	146.140000
239.832214	146.380000
239.925003	146.720000
240.017761	147.520000
240.110535	147.980000
240.203308	147.200000
240.296082	147.060000
240.388855	146.820000
240.481628	146.780000
240.574417	146.480000
240.667191	147.080000
240.759964	146.660000
240.852737	146.800000
240.945526	146.560000
241.038315	146.300000
241.131088	145.980000
241.223877	146.640000
241.316650	146.240000
241.409439	146.480000
241.502228	146.180000
241.595001	146.700000
241.687790	146.460000
241.780579	146.660000
241.873367	146.420000
241.966141	147.020000
242.058929	146.160000
242.151718	146.200000
242.244507	146.420000
242.337311	145.520000
242.430099	146.020000
242.522903	146.680000
242.615692	146.440000
242.708481	146.580000
242.801270	147.560000
242.894073	147.020000
242.986862	146.820000
243.079651	147.360000
243.172455	146.880000
243.265244	146.840000
243.358063	146.360000
243.450867	146.460000
243.543655	146.220000
243.636459	146.560000
243.729263	146.620000
243.822067	147.040000
243.914856	147.280000
244.007660	147.400000
244.100464	147.060000
244.193268	146.760000
244.286072	146.700000
244.378876	146.160000
244.471680	145.680000
244.564499	146.040000
244.657318	146.620000
244.750122	146.840000
244.842926	146.400000
244.935745	146.720000
245.028549	146.120000
245.121368	145.580000
245.214172	145.440000
245.306992	146.360000
245.399796	146.100000
245.492615	146.680000
245.585434	146.840000
245.678253	146.520000
245.771072	146.180000
245.863892	146.580000
245.956711	146.460000
246.049530	146.180000
246.142349	146.200000
246.235168	146.380000
246.327988	146.660000
246.420807	146.460000
246.513626	146.720000
246.606445	146.720000
246.699280	146.560000
246.792099	146.000000
246.884918	145.960000
246.977753	145.280000
247.070587	145.440000
247.163422	145.400000
247.256241	145.440000
247.349075	145.760000
247.441895	146.120000
247.534729	145.780000
247.627563	145.560000
247.720383	146.200000
247.813217	145.860000
247.906052	145.760000
247.998886	146.280000
248.091736	146.460000
248.184570	145.820000
248.277405	146.320000
248.370239	147.440000
248.463074	148.100000
248.555908	148.260000
248.648743	148.280000
248.741592	148.160000
248.834427	147.280000
248.927261	146.040000
249.020111	146.220000
249.112946	146.820000
249.205795	146.260000
249.298630	146.320000
249.391495	146.840000
249.484344	146.820000
249.577179	146.400000
249.670029	146.880000
249.762878	147.540000
249.855728	147.380000
249.948563	147.240000
250.041412	146.720000
250.134262	147.000000
250.227112	146.780000
250.319962	147.120000
250.412827	147.160000
250.505692	147.120000
250.598541	146.840000
250.691391	146.260000
250.784241	146.180000
250.877106	146.260000
250.969955	146.120000
251.062805	146.620000
251.155670	147.100000
251.248520	146.700000
251.341385	146.700000
251.434235	146.740000
251.527100	146.360000
251.619965	146.100000
251.712814	146.840000
251.805695	146.680000
251.898560	147.140000
251.991425	147.440000
252.084290	147.680000
252.177155	147.040000
252.270020	146.920000
252.362885	146.980000
252.455750	146.680000
252.548615	146.200000
252.641479	146.160000
252.734360	146.160000
252.827240	145.760000
252.920105	145.840000
253.012970	145.900000
253.105850	146.060000
253.198715	145.800000
253.291595	146.240000
253.384460	145.960000
253.477341	145.780000
253.570221	145.900000
253.663086	146.040000
253.755966	146.420000
253.848846	146.400000
253.941727	146.880000
254.034592	146.760000
254.127472	146.300000
254.220367	145.960000
254.313248	146.140000
254.406128	145.620000
254.499008	145.980000
254.591904	146.860000
254.684784	147.280000
254.777664	147.060000
254.870544	147.040000
254.963440	146.680000
255.056335	146.680000
255.149216	146.120000
255.242111	146.800000
255.334991	147.380000
255.427887	147.340000
255.520767	147.020000
255.613663	147.300000
255.706558	146.480000
255.799438	146.100000
255.892334	145.920000
255.985229	145.940000
256.078125	145.680000
256.171021	145.720000
256.263916	146.500000
256.356812	146.660000
256.449707	146.900000
256.542603	146.760000
256.635498	147.440000
256.728394	146.820000
256.821289	146.780000
256.914215	146.960000
257.007080	147.080000
257.100006	146.880000
257.192932	147.420000
257.285828	147.760000
257.378723	147.620000
257.471619	147.800000
257.564545	147.240000
257.657440	147.180000
257.750336	147.520000
257.843262	147.100000
257.936157	148.120000
258.029053	148.600000
258.121979	148.400000
258.214874	147.840000
258.307800	147.780000
258.400696	146.500000
258.493622	146.040000
258.586517	145.220000
258.679443	145.440000
258.772339	145.340000
258.865265	145.180000
258.958160	145.080000
259.051086	145.840000
259.144012	145.420000
259.236938	146.240000
259.329834	146.580000
259.422791	146.520000
259.515717	146.100000
259.608612	146.080000
259.701538	145.840000
259.794464	145.600000
259.887390	145.700000
259.980316	145.500000
260.073212	145.500000
260.166138	144.640000
260.259064	145.100000
260.351990	145.860000
260.444916	146.320000
260.537842	146.900000
260.630768	147.680000
260.723694	147.640000
260.816620	147.260000
260.909546	147.280000
261.002472	146.680000
261.095398	146.200000
261.188354	145.780000
261.281281	145.700000
261.374207	145.620000
261.467133	146.380000
261.560089	146.720000
261.653015	146.720000
261.745972	147.240000
261.838867	147.360000
261.931824	147.520000
262.024780	146.880000
262.117706	147.140000
262.210663	147.020000
262.303589	146.900000
262.396515	146.840000
262.489471	147.940000
262.582397	147.980000
262.675354	147.400000
262.768280	147.600000
262.861237	147.300000
262.954163	146.920000
263.047119	146.780000
263.140045	146.840000
263.233002	146.660000
263.325958	146.340000
263.418884	146.220000
263.511841	146.320000
263.604797	146.380000
263.697723	146.280000
263.790680	146.500000
263.883636	146.720000
263.976593	146.340000
264.069550	146.600000
264.162476	146.560000
264.255463	146.660000
264.348419	146.240000
264.441376	146.600000
264.534332	145.920000
264.627289	146.120000
264.720245	146.200000
264.813202	145.760000
264.906158	146.240000
264.999115	146.960000
265.092072	146.860000
265.185028	147.440000
265.277985	148.100000
265.370941	147.560000
265.463898	147.300000
265.556854	147.180000
265.649811	146.040000
265.742798	145.860000
265.835754	145.880000
265.928711	146.000000
266.021667	146.140000
266.114655	146.380000
266.207611	146.620000
266.300568	146.300000
266.393585	146.040000
266.486511	146.020000
266.579498	145.240000
266.672485	144.960000
266.765442	145.080000
266.858429	145.660000
266.951385	145.620000
267.044342	146.100000
267.137329	146.240000
267.230316	146.220000
267.323273	145.420000
267.416260	145.860000
267.509216	145.980000
267.602203	146.060000
267.695160	146.440000
267.788147	146.720000
267.881134	146.060000
267.974091	146.180000
268.067078	145.860000
268.160065	145.820000
268.253052	145.620000
268.346008	146.060000
268.438995	145.980000
268.531982	146.240000
268.624969	145.880000
268.717987	146.540000
268.810944	146.120000
268.903961	146.060000
268.996948	145.760000
269.089905	146.360000
269.182892	146.240000
269.275879	146.860000
269.368866	146.640000
269.461853	146.800000
269.554871	146.520000
269.647858	146.560000
269.740845	146.440000
269.833832	146.720000
269.926819	146.800000
270.019806	146.860000
270.112793	146.200000
270.205811	146.380000
270.298798	146.200000
270.391785	146.820000
270.484772	146.580000
270.577789	147.000000
270.670776	146.400000
270.763763	146.460000
270.856750	145.940000
270.949768	145.600000
271.042786	145.500000
271.135773	145.760000
271.228790	146.180000
271.321808	145.820000
271.414795	145.840000
271.507782	145.620000
271.600800	145.360000
271.693817	145.460000
271.786804	146.180000
271.879822	146.520000
271.972809	146.820000
272.065826	147.360000
272.158844	146.760000
272.251831	147.020000
272.344849	146.880000
272.437866	146.380000
272.530853	146.060000
272.623871	146.400000
272.716888	145.400000
272.809906	145.720000
272.902893	145.800000
272.995911	145.420000
273.088928	145.400000
273.181946	145.620000
273.274963	145.440000
273.367981	145.600000
273.460999	145.900000
273.554047	146.360000
273.647003	146.760000
273.740051	146.900000
273.833069	147.640000
273.926086	147.900000
274.019135	147.040000
274.112152	146.660000
274.205170	146.560000
274.298187	146.360000
274.391205	145.940000
274.484222	146.340000
274.577240	146.480000
274.670258	146.280000
274.763306	145.900000
274.856323	146.380000
274.949341	146.420000
275.042358	146.880000
275.135406	147.120000
275.228424	147.000000
275.321442	146.780000
275.414490	146.520000
275.507507	146.220000
275.600525	146.400000
275.693573	146.420000
275.786591	146.160000
275.879669	146.520000
275.972656	146.220000
276.065735	145.920000
276.158752	146.280000
276.251801	147.040000
276.344818	146.980000
276.437866	147.020000
276.530884	146.880000
276.623932	146.240000
276.716980	146.020000
276.809998	145.840000
276.903046	146.200000
276.996094	146.980000
277.089111	147.720000
277.182159	148.220000
277.275208	148.160000
277.368256	148.120000
277.461304	147.580000
277.554321	146.800000
277.647369	146.520000
277.740417	146.580000
277.833466	146.440000
277.926514	146.560000
278.019562	147.280000
278.112610	146.560000
278.205688	146.660000
278.298706	146.780000
278.391785	146.420000
278.484833	145.880000
278.577881	145.920000
278.670929	146.260000
278.763977	146.320000
278.857025	146.780000
278.950073	147.060000
279.043121	146.820000
279.136169	146.440000
279.229248	145.860000
279.322296	145.700000
279.415344	145.340000
279.508392	145.440000
279.601440	145.540000
279.694519	145.820000
279.787567	145.500000
279.880615	145.800000
279.973694	145.980000
280.066742	146.120000
280.159790	146.120000
280.252869	146.220000
280.345917	146.380000
280.438995	146.380000
280.532074	146.300000
280.625122	146.640000
280.718201	147.680000
280.811279	147.320000
280.904327	147.340000
280.997406	147.280000
281.090454	147.060000
281.183533	146.140000
281.276581	146.260000
281.369659	146.100000
281.462738	146.200000
281.555786	146.400000
281.648865	146.500000
281.741943	146.580000
281.835022	147.420000
281.928070	147.140000
282.021149	146.420000
282.114227	146.180000
282.207306	145.880000
282.300385	145.580000
282.393433	145.740000
282.486511	146.160000
282.579590	146.860000
282.672668	147.180000
282.765747	146.680000
282.858856	146.380000
282.951904	146.640000
283.045013	146.220000
283.138062	146.600000
283.231171	146.820000
283.324249	147.500000
283.417328	147.340000
283.510406	147.040000
283.603485	146.580000
283.696564	146.400000
283.789642	146.000000
283.882751	145.780000
283.975830	146.660000
284.068909	146.400000
284.161987	147.580000
284.255066	147.320000
284.348175	147.440000
284.441254	146.940000
284.534332	147.340000
284.627441	146.300000
284.720520	145.920000
284.813599	145.840000
284.906708	145.540000
284.999786	145.020000
285.092896	144.660000
285.185974	145.640000
285.279053	145.280000
285.372192	145.760000
285.465240	146.440000
285.558380	146.420000
285.651459	146.020000
285.744568	147.080000
285.837677	146.560000
285.930756	146.640000
286.023865	146.940000
286.116943	146.920000
286.210052	147.000000
286.303162	147.380000
286.396240	147.080000
286.489349	146.840000
286.582458	147.220000
286.675568	146.300000
286.768646	146.020000
286.861755	146.380000
286.954865	147.100000
287.047974	146.280000
287.141083	146.520000
287.234161	146.280000
287.327271	145.940000
287.420380	145.940000
287.513519	146.400000
287.606598	146.300000
287.699738	146.600000
287.792816	146.320000
287.885956	146.240000
287.979034	145.880000
288.072174	146.000000
288.165283	146.120000
288.258392	146.700000
288.351501	146.180000
288.444611	146.400000
288.537720	146.720000
288.630859	146.600000
288.723969	146.580000
288.817078	147.020000
288.910187	147.000000
289.003296	146.640000
289.096436	146.600000
289.189545	146.340000
289.282654	145.920000
289.375763	146.180000
289.468903	146.600000
289.562012	146.780000
289.655121	146.840000
289.748260	146.880000
289.841400	147.440000
289.934509	147.180000
290.027649	146.880000
290.120728	146.520000
290.213898	146.700000
290.306976	146.140000
290.400146	146.080000
290.493256	145.880000
290.586395	146.320000
290.679535	146.520000
290.772644	146.300000
290.865784	145.900000
290.958893	145.840000
291.052032	145.660000
291.145172	145.500000
291.238281	145.440000
291.331421	145.780000
291.424561	146.660000
291.517670	146.120000
291.610809	146.380000
291.703949	146.220000
291.797089	146.380000
291.890228	145.900000
291.983337	146.380000
292.076477	146.140000
292.169617	146.700000
292.262756	146.500000
292.355927	146.560000
292.449036	146.300000
292.542206	146.440000
292.635315	146.380000
292.728485	146.440000
292.821625	146.260000
292.914764	147.400000
293.007904	147.280000
293.101044	147.200000
293.194183	147.040000
293.287323	147.340000
293.380463	146.640000
293.473602	146.340000
293.566742	146.400000
293.659882	146.920000
293.753021	146.760000
293.846191	146.600000
293.939331	146.420000
294.032471	146.100000
294.125610	145.740000
294.218781	145.920000
294.311920	146.660000
294.405060	146.940000
294.498230	147.200000
294.591370	147.240000
294.684540	146.620000
294.777679	145.680000
294.870850	145.920000
294.963959	145.740000
295.057159	145.440000
295.150299	145.780000
295.243469	145.760000
295.336609	145.340000
295.429779	145.460000
295.522919	146.180000
295.616089	146.460000
295.709229	147.200000
295.802399	147.220000
295.895569	146.900000
295.988708	146.520000
296.081879	146.500000
296.175018	145.880000
296.268188	145.940000
296.361359	146.660000
296.454529	146.660000
296.547668	146.680000
296.640839	147.060000
296.734009	147.160000
296.827179	146.800000
296.920319	147.200000
297.013519	146.700000
297.106659	146.760000
297.199860	146.720000
297.292999	146.920000
297.386200	146.400000
297.479309	146.600000
297.572510	146.660000
297.665680	146.300000
297.758850	146.200000
297.852020	146.300000
297.945190	146.040000
298.038361	145.400000
298.131531	146.560000
298.224701	146.240000
298.317871	145.800000
298.411072	145.620000
298.504242	145.600000
298.597412	144.640000
298.690582	144.840000
298.783752	144.960000
298.876923	145.660000
298.970093	145.740000
299.063293	146.260000
299.156464	146.460000
299.249634	146.800000
299.342834	146.560000
299.436005	147.160000
299.529205	146.880000
299.622345	147.000000
299.715576	146.380000
299.808716	146.020000
299.901917	145.580000
299.995117	145.820000
300.088287	145.660000
300.181488	145.700000
300.274658	145.920000
300.367828	146.060000
300.461029	146.080000
300.554199	146.060000
300.647400	146.100000
300.740601	146.540000
300.833771	146.480000
300.926971	146.560000
301.020142	146.180000
301.113342	146.320000
301.206512	146.100000
301.299713	146.160000
301.392914	145.840000
301.486084	146.320000
301.579285	146.280000
301.672516	146.520000
301.765686	146.260000
301.858887	146.460000
301.952057	146.200000
302.045288	146.300000
302.138458	145.720000
302.231659	145.820000
302.324860	145.620000
302.418060	145.500000
302.511261	145.680000
302.604462	146.100000
302.697662	145.780000
302.790863	145.620000
302.884064	145.440000
302.977264	145.300000
303.070465	145.620000
303.163666	146.420000
303.256866	146.840000
303.350067	147.060000
303.443268	147.020000
303.536469	147.000000
303.629669	146.340000
303.722870	146.420000
303.816071	146.060000
303.909271	146.180000
304.002472	145.340000
304.095673	145.460000
304.188934	144.640000
304.282104	145.740000
304.375336	145.840000
304.468506	146.180000
304.561768	145.920000
304.654968	146.680000
304.748169	146.240000
304.841370	146.140000
304.934601	146.340000
305.027802	146.300000
305.121002	145.940000
305.214233	145.880000
305.307434	145.720000
305.400665	146.160000
305.493866	146.140000
