Model Number: SPM-002-B   
Serial Number: 70087108
Firmware Version: 004.15.4
Exposure Time: 100000.000000us
Data Taken on: 11-12-2020 18:50:15.521
Wavelength	Amplitude
221.570786	0.000000
221.663406	0.000000
221.756027	0.000000
221.848648	0.000000
221.941269	0.000000
222.033905	0.000000
222.126526	0.000000
222.219162	0.000000
222.311798	0.000000
222.404419	0.000000
222.497055	0.000000
222.589676	0.000000
222.682312	0.000000
222.774933	0.000000
222.867569	0.000000
222.960205	0.000000
223.052841	0.000000
223.145462	0.000000
223.238098	0.000000
223.330734	0.000000
223.423386	0.000000
223.516022	0.000000
223.608658	0.000000
223.701309	0.000000
223.793945	0.000000
223.886581	0.000000
223.979218	0.000000
224.071869	0.000000
224.164505	0.000000
224.257156	0.000000
224.349792	0.000000
224.442444	0.000000
224.535095	0.000000
224.627747	0.000000
224.720398	0.000000
224.813034	0.000000
224.905685	0.000000
224.998337	145.840000
225.090988	145.640000
225.183640	145.520000
225.276291	145.460000
225.368942	146.320000
225.461594	146.780000
225.554245	147.000000
225.646912	147.000000
225.739578	147.500000
225.832230	147.680000
225.924896	146.940000
226.017548	147.000000
226.110199	147.620000
226.202866	147.180000
226.295532	146.940000
226.388184	146.980000
226.480850	146.800000
226.573517	146.100000
226.666168	146.180000
226.758835	146.520000
226.851501	146.880000
226.944183	146.800000
227.036850	146.800000
227.129517	146.740000
227.222183	146.880000
227.314850	147.120000
227.407516	147.360000
227.500198	148.080000
227.592865	147.720000
227.685532	147.280000
227.778214	146.780000
227.870880	147.040000
227.963562	147.100000
228.056229	147.520000
228.148926	147.300000
228.241592	148.020000
228.334274	147.720000
228.426956	147.160000
228.519638	147.000000
228.612305	146.720000
228.704987	146.560000
228.797668	146.120000
228.890350	145.980000
228.983032	145.380000
229.075714	146.080000
229.168396	145.560000
229.261108	145.540000
229.353790	145.700000
229.446472	146.140000
229.539169	145.900000
229.631851	145.840000
229.724533	146.200000
229.817230	146.340000
229.909912	147.180000
230.002609	147.200000
230.095306	147.180000
230.187988	147.160000
230.280685	146.820000
230.373383	145.820000
230.466095	145.840000
230.558792	146.180000
230.651474	146.440000
230.744171	146.720000
230.836868	146.760000
230.929581	146.900000
231.022278	147.020000
231.114975	146.640000
231.207672	146.060000
231.300369	146.640000
231.393082	146.820000
231.485779	146.440000
231.578506	146.560000
231.671204	147.220000
231.763916	146.820000
231.856613	146.640000
231.949326	146.820000
232.042023	146.660000
232.134735	146.380000
232.227448	146.160000
232.320160	146.240000
232.412872	146.200000
232.505585	147.180000
232.598297	147.480000
232.691010	147.400000
232.783722	147.020000
232.876450	147.460000
232.969162	146.640000
233.061874	146.100000
233.154587	146.180000
233.247314	146.580000
233.340027	146.040000
233.432739	146.360000
233.525467	146.700000
233.618179	147.120000
233.710907	146.440000
233.803635	146.920000
233.896347	146.620000
233.989090	147.180000
234.081818	146.760000
234.174545	147.460000
234.267258	146.960000
234.359985	146.880000
234.452713	146.740000
234.545441	146.840000
234.638168	146.320000
234.730896	146.740000
234.823639	146.780000
234.916367	146.460000
235.009094	146.460000
235.101822	146.600000
235.194580	146.320000
235.287308	146.360000
235.380051	145.960000
235.472778	146.120000
235.565521	146.540000
235.658249	146.220000
235.750992	146.200000
235.843719	146.540000
235.936462	146.540000
236.029205	145.880000
236.121948	145.760000
236.214691	146.260000
236.307449	146.800000
236.400192	146.480000
236.492935	146.720000
236.585678	146.840000
236.678421	146.420000
236.771164	145.780000
236.863907	146.540000
236.956665	146.480000
237.049408	148.160000
237.142151	147.840000
237.234909	148.940000
237.327652	148.600000
237.420410	148.400000
237.513153	147.400000
237.605927	147.240000
237.698669	146.160000
237.791428	145.780000
237.884186	146.660000
237.976944	145.840000
238.069702	146.300000
238.162445	146.140000
238.255203	146.420000
238.347961	146.220000
238.440720	146.720000
238.533478	146.520000
238.626266	146.500000
238.719025	146.660000
238.811783	146.480000
238.904541	146.140000
238.997314	146.180000
239.090073	145.940000
239.182831	146.120000
239.275604	147.060000
239.368362	146.800000
239.461136	146.900000
239.553909	147.080000
239.646667	146.620000
239.739441	145.680000
239.832214	146.080000
239.925003	146.020000
240.017761	146.780000
240.110535	147.480000
240.203308	147.140000
240.296082	147.320000
240.388855	147.400000
240.481628	147.280000
240.574417	147.040000
240.667191	147.240000
240.759964	146.920000
240.852737	146.920000
240.945526	146.480000
241.038315	145.900000
241.131088	145.840000
241.223877	146.320000
241.316650	146.060000
241.409439	146.120000
241.502228	146.080000
241.595001	146.740000
241.687790	146.540000
241.780579	146.240000
241.873367	146.420000
241.966141	146.680000
242.058929	146.040000
242.151718	145.800000
242.244507	146.640000
242.337311	146.080000
242.430099	146.460000
242.522903	146.800000
242.615692	146.800000
242.708481	146.780000
242.801270	147.400000
242.894073	147.020000
242.986862	146.880000
243.079651	147.400000
243.172455	147.040000
243.265244	147.180000
243.358063	146.700000
243.450867	146.980000
243.543655	146.740000
243.636459	146.840000
243.729263	146.680000
243.822067	146.960000
243.914856	147.040000
244.007660	147.240000
244.100464	147.460000
244.193268	147.080000
244.286072	147.300000
244.378876	146.600000
244.471680	146.340000
244.564499	146.300000
244.657318	147.080000
244.750122	147.260000
244.842926	147.120000
244.935745	147.300000
245.028549	146.940000
245.121368	146.360000
245.214172	146.200000
245.306992	146.700000
245.399796	146.480000
245.492615	146.720000
245.585434	146.580000
245.678253	146.720000
245.771072	146.420000
245.863892	146.720000
245.956711	146.860000
246.049530	146.860000
246.142349	146.400000
246.235168	146.680000
246.327988	147.020000
246.420807	146.780000
246.513626	146.840000
246.606445	146.760000
246.699280	146.500000
246.792099	146.200000
246.884918	145.880000
246.977753	145.480000
247.070587	145.840000
247.163422	145.800000
247.256241	145.660000
247.349075	146.240000
247.441895	146.780000
247.534729	146.560000
247.627563	146.680000
247.720383	147.340000
247.813217	147.000000
247.906052	146.640000
247.998886	146.900000
248.091736	146.820000
248.184570	146.140000
248.277405	146.180000
248.370239	147.280000
248.463074	148.160000
248.555908	148.340000
248.648743	148.280000
248.741592	148.740000
248.834427	148.180000
248.927261	146.900000
249.020111	147.420000
249.112946	147.680000
249.205795	146.620000
249.298630	146.400000
249.391495	146.440000
249.484344	145.960000
249.577179	145.940000
249.670029	146.780000
249.762878	147.260000
249.855728	147.740000
249.948563	147.680000
250.041412	147.160000
250.134262	147.280000
250.227112	147.140000
250.319962	146.860000
250.412827	147.020000
250.505692	146.800000
250.598541	146.440000
250.691391	146.000000
250.784241	145.960000
250.877106	146.000000
250.969955	146.200000
251.062805	146.900000
251.155670	147.340000
251.248520	147.320000
251.341385	147.220000
251.434235	147.300000
251.527100	146.600000
251.619965	146.200000
251.712814	147.020000
251.805695	146.960000
251.898560	146.900000
251.991425	147.240000
252.084290	147.500000
252.177155	146.740000
252.270020	146.660000
252.362885	146.900000
252.455750	146.660000
252.548615	146.200000
252.641479	145.960000
252.734360	145.840000
252.827240	145.620000
252.920105	145.880000
253.012970	146.020000
253.105850	146.020000
253.198715	146.200000
253.291595	146.240000
253.384460	145.940000
253.477341	145.960000
253.570221	146.280000
253.663086	145.800000
253.755966	146.580000
253.848846	146.400000
253.941727	146.560000
254.034592	146.760000
254.127472	146.460000
254.220367	146.080000
254.313248	146.480000
254.406128	146.040000
254.499008	146.160000
254.591904	147.220000
254.684784	147.400000
254.777664	147.160000
254.870544	147.100000
254.963440	146.940000
255.056335	146.720000
255.149216	146.340000
255.242111	146.760000
255.334991	147.420000
255.427887	147.520000
255.520767	147.380000
255.613663	147.420000
255.706558	146.940000
255.799438	146.580000
255.892334	146.120000
255.985229	146.220000
256.078125	146.220000
256.171021	146.340000
256.263916	146.640000
256.356812	147.160000
256.449707	147.180000
256.542603	146.860000
256.635498	147.380000
256.728394	147.120000
256.821289	146.660000
256.914215	146.980000
257.007080	147.240000
257.100006	147.100000
257.192932	147.340000
257.285828	147.720000
257.378723	147.500000
257.471619	147.520000
257.564545	146.920000
257.657440	146.880000
257.750336	147.140000
257.843262	146.700000
257.936157	147.880000
258.029053	148.160000
258.121979	148.200000
258.214874	147.780000
258.307800	148.040000
258.400696	146.760000
258.493622	146.880000
258.586517	146.280000
258.679443	146.340000
258.772339	146.220000
258.865265	146.060000
258.958160	145.540000
259.051086	146.260000
259.144012	146.020000
259.236938	146.620000
259.329834	146.920000
259.422791	147.080000
259.515717	146.420000
259.608612	146.200000
259.701538	146.100000
259.794464	145.760000
259.887390	145.900000
259.980316	145.960000
260.073212	145.920000
260.166138	144.760000
260.259064	145.340000
260.351990	145.720000
260.444916	145.920000
260.537842	146.400000
260.630768	147.300000
260.723694	147.160000
260.816620	146.980000
260.909546	146.880000
261.002472	146.560000
261.095398	146.200000
261.188354	146.060000
261.281281	145.760000
261.374207	145.920000
261.467133	146.540000
261.560089	146.740000
261.653015	146.480000
261.745972	147.240000
261.838867	147.620000
261.931824	147.760000
262.024780	147.320000
262.117706	147.680000
262.210663	147.500000
262.303589	147.120000
262.396515	146.880000
262.489471	147.780000
262.582397	147.360000
262.675354	146.740000
262.768280	146.740000
262.861237	146.460000
262.954163	146.120000
263.047119	146.580000
263.140045	146.460000
263.233002	146.660000
263.325958	146.680000
263.418884	146.240000
263.511841	146.040000
263.604797	146.000000
263.697723	146.080000
263.790680	146.140000
263.883636	146.540000
263.976593	146.220000
264.069550	146.460000
264.162476	146.080000
264.255463	146.120000
264.348419	146.000000
264.441376	146.760000
264.534332	146.400000
264.627289	146.500000
264.720245	146.620000
264.813202	146.360000
264.906158	146.120000
264.999115	146.740000
265.092072	146.600000
265.185028	147.020000
265.277985	147.140000
265.370941	147.160000
265.463898	147.080000
265.556854	147.160000
265.649811	146.240000
265.742798	146.600000
265.835754	146.680000
265.928711	146.780000
266.021667	146.560000
266.114655	146.980000
266.207611	147.060000
266.300568	146.460000
266.393585	146.200000
266.486511	146.780000
266.579498	146.120000
266.672485	145.880000
266.765442	146.080000
266.858429	146.480000
266.951385	146.040000
267.044342	146.480000
267.137329	146.620000
267.230316	147.080000
267.323273	146.660000
267.416260	147.500000
267.509216	147.480000
267.602203	147.320000
267.695160	147.560000
267.788147	147.880000
267.881134	146.960000
267.974091	147.280000
268.067078	147.240000
268.160065	146.640000
268.253052	146.200000
268.346008	146.520000
268.438995	146.040000
268.531982	146.160000
268.624969	146.100000
268.717987	146.360000
268.810944	146.180000
268.903961	146.260000
268.996948	145.760000
269.089905	146.160000
269.182892	146.440000
269.275879	147.040000
269.368866	147.020000
269.461853	147.500000
269.554871	147.120000
269.647858	147.180000
269.740845	147.220000
269.833832	147.460000
269.926819	147.300000
270.019806	147.860000
270.112793	147.220000
270.205811	146.940000
270.298798	146.540000
270.391785	147.160000
270.484772	146.520000
270.577789	146.520000
270.670776	146.080000
270.763763	146.100000
270.856750	145.460000
270.949768	145.100000
271.042786	145.380000
271.135773	145.620000
271.228790	146.200000
271.321808	146.000000
271.414795	146.240000
271.507782	145.680000
271.600800	145.380000
271.693817	145.140000
271.786804	145.660000
271.879822	145.940000
271.972809	146.240000
272.065826	146.860000
272.158844	146.480000
272.251831	146.860000
272.344849	146.740000
272.437866	146.760000
272.530853	146.560000
272.623871	147.160000
272.716888	145.880000
272.809906	146.300000
272.902893	146.000000
272.995911	145.280000
273.088928	144.900000
273.181946	145.540000
273.274963	144.900000
273.367981	145.280000
273.460999	145.860000
273.554047	146.420000
273.647003	147.120000
273.740051	147.260000
273.833069	147.640000
273.926086	147.860000
274.019135	147.240000
274.112152	146.620000
274.205170	146.900000
274.298187	146.840000
274.391205	146.200000
274.484222	146.300000
274.577240	146.120000
274.670258	145.780000
274.763306	145.480000
274.856323	146.180000
274.949341	146.260000
275.042358	146.480000
275.135406	146.580000
275.228424	146.660000
275.321442	146.460000
275.414490	146.140000
275.507507	146.580000
275.600525	147.160000
275.693573	146.860000
275.786591	146.620000
275.879669	147.060000
275.972656	146.360000
276.065735	145.840000
276.158752	146.560000
276.251801	147.180000
276.344818	147.000000
276.437866	147.340000
276.530884	147.360000
276.623932	146.860000
276.716980	146.700000
276.809998	146.760000
276.903046	146.900000
276.996094	147.820000
277.089111	148.060000
277.182159	148.600000
277.275208	148.440000
277.368256	148.360000
277.461304	147.800000
277.554321	147.200000
277.647369	146.740000
277.740417	146.920000
277.833466	146.560000
277.926514	146.160000
278.019562	146.940000
278.112610	146.560000
278.205688	146.600000
278.298706	147.040000
278.391785	147.060000
278.484833	146.540000
278.577881	146.360000
278.670929	146.580000
278.763977	146.580000
278.857025	146.840000
278.950073	146.840000
279.043121	146.700000
279.136169	146.360000
279.229248	145.880000
279.322296	145.820000
279.415344	145.960000
279.508392	146.060000
279.601440	146.100000
279.694519	146.180000
279.787567	145.940000
279.880615	145.700000
279.973694	145.900000
280.066742	145.820000
280.159790	146.140000
280.252869	146.300000
280.345917	146.280000
280.438995	146.200000
280.532074	146.160000
280.625122	146.340000
280.718201	146.900000
280.811279	147.400000
280.904327	147.320000
280.997406	147.620000
281.090454	147.280000
281.183533	146.620000
281.276581	146.240000
281.369659	146.120000
281.462738	146.100000
281.555786	146.200000
281.648865	146.540000
281.741943	146.420000
281.835022	147.260000
281.928070	147.220000
282.021149	147.180000
282.114227	146.800000
282.207306	147.120000
282.300385	146.960000
282.393433	146.880000
282.486511	146.900000
282.579590	147.580000
282.672668	147.540000
282.765747	146.960000
282.858856	146.720000
282.951904	146.640000
283.045013	146.400000
283.138062	146.920000
283.231171	147.100000
283.324249	147.460000
283.417328	147.680000
283.510406	147.300000
283.603485	146.760000
283.696564	146.660000
283.789642	146.740000
283.882751	146.280000
283.975830	147.060000
284.068909	146.860000
284.161987	147.760000
284.255066	147.160000
284.348175	147.600000
284.441254	147.100000
284.534332	147.500000
284.627441	146.780000
284.720520	146.760000
284.813599	146.560000
284.906708	146.620000
284.999786	145.900000
285.092896	145.540000
285.185974	146.540000
285.279053	146.220000
285.372192	146.320000
285.465240	147.600000
285.558380	147.600000
285.651459	146.940000
285.744568	147.820000
285.837677	147.320000
285.930756	146.660000
286.023865	146.880000
286.116943	146.800000
286.210052	146.520000
286.303162	146.540000
286.396240	146.520000
286.489349	146.440000
286.582458	146.580000
286.675568	145.900000
286.768646	145.840000
286.861755	146.200000
286.954865	146.880000
287.047974	146.300000
287.141083	146.560000
287.234161	146.520000
287.327271	146.060000
287.420380	146.220000
287.513519	146.640000
287.606598	146.680000
287.699738	146.800000
287.792816	146.660000
287.885956	146.200000
287.979034	146.260000
288.072174	146.480000
288.165283	146.440000
288.258392	146.720000
288.351501	146.280000
288.444611	146.420000
288.537720	146.700000
288.630859	146.660000
288.723969	146.800000
288.817078	147.180000
288.910187	147.080000
289.003296	146.580000
289.096436	146.660000
289.189545	146.500000
289.282654	145.980000
289.375763	146.420000
289.468903	146.880000
289.562012	146.880000
289.655121	146.980000
289.748260	147.120000
289.841400	147.040000
289.934509	146.720000
290.027649	146.940000
290.120728	146.640000
290.213898	146.760000
290.306976	146.500000
290.400146	146.460000
290.493256	146.000000
290.586395	146.020000
290.679535	146.400000
290.772644	146.260000
290.865784	145.800000
290.958893	146.040000
291.052032	145.860000
291.145172	145.740000
291.238281	145.500000
291.331421	145.600000
291.424561	145.840000
291.517670	145.920000
291.610809	146.000000
291.703949	146.240000
291.797089	146.740000
291.890228	146.400000
291.983337	146.360000
292.076477	145.920000
292.169617	146.100000
292.262756	145.820000
292.355927	145.720000
292.449036	145.540000
292.542206	145.840000
292.635315	145.940000
292.728485	146.040000
292.821625	145.940000
292.914764	147.140000
293.007904	147.260000
293.101044	147.020000
293.194183	146.820000
293.287323	147.000000
293.380463	146.400000
293.473602	146.100000
293.566742	146.380000
293.659882	147.240000
293.753021	147.580000
293.846191	147.260000
293.939331	146.980000
294.032471	146.700000
294.125610	146.160000
294.218781	146.640000
294.311920	147.020000
294.405060	147.180000
294.498230	147.240000
294.591370	147.040000
294.684540	145.760000
294.777679	145.200000
294.870850	145.780000
294.963959	145.780000
295.057159	145.880000
295.150299	146.480000
295.243469	146.580000
295.336609	145.600000
295.429779	145.480000
295.522919	145.680000
295.616089	145.860000
295.709229	146.500000
295.802399	147.160000
295.895569	147.240000
295.988708	146.840000
296.081879	146.940000
296.175018	146.600000
296.268188	146.400000
296.361359	146.980000
296.454529	147.640000
296.547668	147.460000
296.640839	147.760000
296.734009	147.720000
296.827179	147.400000
296.920319	147.420000
297.013519	147.340000
297.106659	147.220000
297.199860	146.920000
297.292999	146.700000
297.386200	146.200000
297.479309	146.180000
297.572510	146.100000
297.665680	145.980000
297.758850	145.920000
297.852020	145.960000
297.945190	145.900000
298.038361	145.340000
298.131531	146.660000
298.224701	146.540000
298.317871	146.260000
298.411072	145.540000
298.504242	145.440000
298.597412	144.420000
298.690582	144.660000
298.783752	144.800000
298.876923	145.560000
298.970093	145.940000
299.063293	146.660000
299.156464	147.040000
299.249634	147.340000
299.342834	147.560000
299.436005	147.780000
299.529205	147.400000
299.622345	147.040000
299.715576	146.300000
299.808716	146.080000
299.901917	146.060000
299.995117	146.380000
300.088287	146.760000
300.181488	146.900000
300.274658	146.660000
300.367828	146.620000
300.461029	146.320000
300.554199	146.100000
300.647400	146.600000
300.740601	147.100000
300.833771	146.800000
300.926971	146.900000
301.020142	146.240000
301.113342	145.860000
301.206512	145.540000
301.299713	145.980000
301.392914	145.980000
301.486084	146.820000
301.579285	146.800000
301.672516	147.240000
301.765686	146.940000
301.858887	146.820000
301.952057	146.460000
302.045288	146.740000
302.138458	146.280000
302.231659	146.360000
302.324860	146.260000
302.418060	146.200000
302.511261	145.960000
302.604462	146.420000
302.697662	146.060000
302.790863	146.000000
302.884064	145.700000
302.977264	145.880000
303.070465	145.940000
303.163666	146.960000
303.256866	147.120000
303.350067	147.520000
303.443268	147.340000
303.536469	147.120000
303.629669	146.180000
303.722870	146.480000
303.816071	146.160000
303.909271	146.300000
304.002472	145.960000
304.095673	145.940000
304.188934	145.060000
304.282104	146.120000
304.375336	146.200000
304.468506	146.380000
304.561768	146.180000
304.654968	147.000000
304.748169	146.080000
304.841370	146.060000
304.934601	146.200000
305.027802	146.280000
305.121002	145.960000
305.214233	146.440000
305.307434	146.320000
305.400665	146.860000
305.493866	147.040000
