Model Number: SPM-002-B   
Serial Number: 70087108
Firmware Version: 004.15.4
Exposure Time: 100000.000000us
Data Taken on: 11-12-2020 18:50:26.647
Wavelength	Amplitude
221.570786	0.000000
221.663406	0.000000
221.756027	0.000000
221.848648	0.000000
221.941269	0.000000
222.033905	0.000000
222.126526	0.000000
222.219162	0.000000
222.311798	0.000000
222.404419	0.000000
222.497055	0.000000
222.589676	0.000000
222.682312	0.000000
222.774933	0.000000
222.867569	0.000000
222.960205	0.000000
223.052841	0.000000
223.145462	0.000000
223.238098	0.000000
223.330734	0.000000
223.423386	0.000000
223.516022	0.000000
223.608658	0.000000
223.701309	0.000000
223.793945	0.000000
223.886581	0.000000
223.979218	0.000000
224.071869	0.000000
224.164505	0.000000
224.257156	0.000000
224.349792	0.000000
224.442444	0.000000
224.535095	0.000000
224.627747	0.000000
224.720398	0.000000
224.813034	0.000000
224.905685	0.000000
224.998337	145.680000
225.090988	145.460000
225.183640	145.540000
225.276291	145.600000
225.368942	146.240000
225.461594	147.000000
225.554245	147.080000
225.646912	147.100000
225.739578	147.420000
225.832230	147.580000
225.924896	146.660000
226.017548	147.060000
226.110199	147.520000
226.202866	146.740000
226.295532	146.380000
226.388184	146.400000
226.480850	146.080000
226.573517	145.380000
226.666168	145.820000
226.758835	146.060000
226.851501	146.680000
226.944183	146.540000
227.036850	146.320000
227.129517	146.160000
227.222183	146.180000
227.314850	146.160000
227.407516	146.580000
227.500198	147.460000
227.592865	147.040000
227.685532	146.740000
227.778214	146.440000
227.870880	146.600000
227.963562	146.900000
228.056229	147.780000
228.148926	147.700000
228.241592	148.480000
228.334274	148.060000
228.426956	147.600000
228.519638	147.120000
228.612305	146.660000
228.704987	146.460000
228.797668	146.600000
228.890350	146.380000
228.983032	146.080000
229.075714	146.980000
229.168396	146.480000
229.261108	145.900000
229.353790	146.120000
229.446472	146.480000
229.539169	146.080000
229.631851	145.800000
229.724533	146.220000
229.817230	146.300000
229.909912	147.060000
230.002609	147.240000
230.095306	147.580000
230.187988	147.600000
230.280685	147.340000
230.373383	146.380000
230.466095	146.080000
230.558792	146.000000
230.651474	146.080000
230.744171	146.040000
230.836868	145.940000
230.929581	146.140000
231.022278	146.160000
231.114975	146.220000
231.207672	146.260000
231.300369	147.140000
231.393082	147.220000
231.485779	146.980000
231.578506	146.840000
231.671204	146.840000
231.763916	146.480000
231.856613	146.380000
231.949326	146.560000
232.042023	146.380000
232.134735	146.500000
232.227448	146.000000
232.320160	146.420000
232.412872	146.300000
232.505585	147.060000
232.598297	147.280000
232.691010	147.560000
232.783722	146.900000
232.876450	147.520000
232.969162	146.880000
233.061874	146.540000
233.154587	146.120000
233.247314	146.700000
233.340027	146.200000
233.432739	146.600000
233.525467	146.380000
233.618179	147.120000
233.710907	146.800000
233.803635	147.260000
233.896347	146.800000
233.989090	147.460000
234.081818	146.800000
234.174545	146.660000
234.267258	146.140000
234.359985	146.240000
234.452713	145.840000
234.545441	145.920000
234.638168	145.980000
234.730896	146.340000
234.823639	146.300000
234.916367	146.600000
235.009094	146.900000
235.101822	147.020000
235.194580	146.620000
235.287308	146.720000
235.380051	146.060000
235.472778	146.240000
235.565521	146.400000
235.658249	146.160000
235.750992	146.200000
235.843719	146.560000
235.936462	146.580000
236.029205	146.000000
236.121948	145.820000
236.214691	145.980000
236.307449	146.700000
236.400192	146.440000
236.492935	146.640000
236.585678	147.260000
236.678421	147.160000
236.771164	146.760000
236.863907	147.200000
236.956665	147.520000
237.049408	148.700000
237.142151	148.160000
237.234909	148.500000
237.327652	148.220000
237.420410	147.800000
237.513153	146.780000
237.605927	147.220000
237.698669	146.560000
237.791428	145.920000
237.884186	146.540000
237.976944	146.120000
238.069702	146.160000
238.162445	145.740000
238.255203	146.020000
238.347961	146.020000
238.440720	146.020000
238.533478	145.880000
238.626266	145.860000
238.719025	146.160000
238.811783	146.040000
238.904541	146.060000
238.997314	145.900000
239.090073	145.880000
239.182831	146.140000
239.275604	146.760000
239.368362	146.680000
239.461136	147.180000
239.553909	147.280000
239.646667	147.120000
239.739441	146.560000
239.832214	147.120000
239.925003	147.040000
240.017761	147.760000
240.110535	148.120000
240.203308	147.700000
240.296082	147.600000
240.388855	147.640000
240.481628	147.400000
240.574417	147.200000
240.667191	147.200000
240.759964	146.780000
240.852737	146.580000
240.945526	146.300000
241.038315	146.020000
241.131088	146.340000
241.223877	146.460000
241.316650	146.220000
241.409439	146.760000
241.502228	146.520000
241.595001	146.920000
241.687790	146.940000
241.780579	146.780000
241.873367	146.660000
241.966141	146.940000
242.058929	146.400000
242.151718	146.660000
242.244507	147.180000
242.337311	146.620000
242.430099	147.080000
242.522903	147.160000
242.615692	147.100000
242.708481	146.920000
242.801270	147.280000
242.894073	146.920000
242.986862	147.080000
243.079651	147.160000
243.172455	146.920000
243.265244	147.020000
243.358063	146.560000
243.450867	146.840000
243.543655	146.800000
243.636459	147.080000
243.729263	147.420000
243.822067	147.900000
243.914856	147.640000
244.007660	147.500000
244.100464	147.500000
244.193268	146.700000
244.286072	146.460000
244.378876	145.860000
244.471680	145.920000
244.564499	145.900000
244.657318	146.740000
244.750122	146.760000
244.842926	146.520000
244.935745	146.580000
245.028549	146.360000
245.121368	145.720000
245.214172	145.800000
245.306992	146.420000
245.399796	146.180000
245.492615	146.380000
245.585434	146.300000
245.678253	146.220000
245.771072	146.180000
245.863892	146.520000
245.956711	146.720000
246.049530	146.660000
246.142349	146.480000
246.235168	146.460000
246.327988	146.680000
246.420807	146.360000
246.513626	146.600000
246.606445	146.780000
246.699280	146.740000
246.792099	146.480000
246.884918	146.320000
246.977753	145.980000
247.070587	146.240000
247.163422	146.040000
247.256241	145.880000
247.349075	146.220000
247.441895	146.440000
247.534729	146.040000
247.627563	146.020000
247.720383	146.600000
247.813217	146.540000
247.906052	146.440000
247.998886	146.480000
248.091736	146.680000
248.184570	146.080000
248.277405	146.220000
248.370239	147.040000
248.463074	148.060000
248.555908	148.240000
248.648743	148.300000
248.741592	148.380000
248.834427	147.780000
248.927261	146.300000
249.020111	146.500000
249.112946	147.120000
249.205795	146.620000
249.298630	147.020000
249.391495	147.480000
249.484344	147.120000
249.577179	146.680000
249.670029	147.240000
249.762878	147.660000
249.855728	147.820000
249.948563	147.740000
250.041412	147.060000
250.134262	147.280000
250.227112	146.820000
250.319962	146.680000
250.412827	146.860000
250.505692	146.880000
250.598541	146.100000
250.691391	145.820000
250.784241	146.120000
250.877106	146.120000
250.969955	146.280000
251.062805	147.240000
251.155670	147.860000
251.248520	147.780000
251.341385	147.920000
251.434235	147.900000
251.527100	147.440000
251.619965	146.500000
251.712814	146.900000
251.805695	146.820000
251.898560	147.120000
251.991425	147.020000
252.084290	147.520000
252.177155	146.820000
252.270020	146.800000
252.362885	146.400000
252.455750	146.520000
252.548615	146.280000
252.641479	146.300000
252.734360	146.160000
252.827240	146.340000
252.920105	146.140000
253.012970	145.860000
253.105850	145.680000
253.198715	145.460000
253.291595	145.360000
253.384460	145.300000
253.477341	145.360000
253.570221	145.800000
253.663086	145.600000
253.755966	146.480000
253.848846	146.640000
253.941727	147.200000
254.034592	147.240000
254.127472	146.960000
254.220367	146.580000
254.313248	146.620000
254.406128	145.960000
254.499008	146.160000
254.591904	146.900000
254.684784	147.440000
254.777664	147.180000
254.870544	146.880000
254.963440	146.340000
255.056335	146.520000
255.149216	145.760000
255.242111	146.180000
255.334991	147.020000
255.427887	147.520000
255.520767	147.420000
255.613663	147.760000
255.706558	147.520000
255.799438	147.020000
255.892334	146.500000
255.985229	146.420000
256.078125	146.040000
256.171021	146.020000
256.263916	146.660000
256.356812	147.020000
256.449707	147.080000
256.542603	147.040000
256.635498	147.420000
256.728394	147.040000
256.821289	146.640000
256.914215	146.820000
257.007080	147.180000
257.100006	147.180000
257.192932	147.460000
257.285828	148.100000
257.378723	147.680000
257.471619	147.360000
257.564545	146.680000
257.657440	146.600000
257.750336	146.540000
257.843262	146.680000
257.936157	147.980000
258.029053	148.280000
258.121979	148.320000
258.214874	147.700000
258.307800	147.360000
258.400696	145.820000
258.493622	145.940000
258.586517	145.400000
258.679443	146.000000
258.772339	146.000000
258.865265	146.280000
258.958160	145.740000
259.051086	146.160000
259.144012	145.600000
259.236938	146.720000
259.329834	146.740000
259.422791	146.620000
259.515717	146.100000
259.608612	146.380000
259.701538	145.940000
259.794464	145.760000
259.887390	146.120000
259.980316	146.360000
260.073212	146.080000
260.166138	145.200000
260.259064	145.740000
260.351990	146.300000
260.444916	146.220000
260.537842	146.580000
260.630768	147.560000
260.723694	147.420000
260.816620	147.120000
260.909546	147.140000
261.002472	146.800000
261.095398	146.080000
261.188354	145.700000
261.281281	145.260000
261.374207	145.460000
261.467133	146.080000
261.560089	146.300000
261.653015	146.380000
261.745972	147.180000
261.838867	147.600000
261.931824	147.580000
262.024780	147.280000
262.117706	147.500000
262.210663	147.300000
262.303589	146.980000
262.396515	147.000000
262.489471	148.020000
262.582397	147.840000
262.675354	147.420000
262.768280	147.380000
262.861237	147.120000
262.954163	146.500000
263.047119	146.640000
263.140045	146.340000
263.233002	146.040000
263.325958	146.020000
263.418884	145.600000
263.511841	145.340000
263.604797	145.580000
263.697723	145.320000
263.790680	145.220000
263.883636	145.860000
263.976593	145.880000
264.069550	146.040000
264.162476	146.160000
264.255463	146.100000
264.348419	145.720000
264.441376	145.960000
264.534332	145.660000
264.627289	145.960000
264.720245	146.300000
264.813202	145.880000
264.906158	145.920000
264.999115	146.360000
265.092072	146.300000
265.185028	146.760000
265.277985	147.220000
265.370941	146.920000
265.463898	146.660000
265.556854	146.560000
265.649811	145.560000
265.742798	145.320000
265.835754	145.600000
265.928711	146.040000
266.021667	146.040000
266.114655	146.360000
266.207611	146.800000
266.300568	146.240000
266.393585	145.620000
266.486511	145.920000
266.579498	145.320000
266.672485	145.220000
266.765442	145.360000
266.858429	146.000000
266.951385	145.500000
267.044342	145.780000
267.137329	145.460000
267.230316	145.900000
267.323273	145.380000
267.416260	146.260000
267.509216	146.200000
267.602203	146.480000
267.695160	146.740000
267.788147	147.060000
267.881134	146.260000
267.974091	146.600000
268.067078	146.280000
268.160065	146.020000
268.253052	145.880000
268.346008	146.100000
268.438995	145.820000
268.531982	146.320000
268.624969	145.940000
268.717987	145.840000
268.810944	145.800000
268.903961	146.040000
268.996948	145.540000
269.089905	146.100000
269.182892	146.480000
269.275879	146.700000
269.368866	146.340000
269.461853	146.500000
269.554871	146.120000
269.647858	145.880000
269.740845	146.020000
269.833832	146.340000
269.926819	145.900000
270.019806	145.960000
270.112793	145.560000
270.205811	145.520000
270.298798	145.400000
270.391785	146.240000
270.484772	146.200000
270.577789	146.420000
270.670776	146.020000
270.763763	145.940000
270.856750	145.720000
270.949768	145.480000
271.042786	145.980000
271.135773	146.260000
271.228790	146.520000
271.321808	146.400000
271.414795	146.360000
271.507782	145.880000
271.600800	145.220000
271.693817	145.400000
271.786804	145.640000
271.879822	146.040000
271.972809	145.940000
272.065826	146.860000
272.158844	146.260000
272.251831	146.860000
272.344849	146.840000
272.437866	147.040000
272.530853	147.120000
272.623871	147.600000
272.716888	146.360000
272.809906	146.240000
272.902893	146.000000
272.995911	145.160000
273.088928	145.160000
273.181946	145.560000
273.274963	145.440000
273.367981	145.440000
273.460999	145.880000
273.554047	146.120000
273.647003	146.600000
273.740051	146.620000
273.833069	147.000000
273.926086	147.400000
274.019135	146.860000
274.112152	146.600000
274.205170	146.540000
274.298187	146.740000
274.391205	146.260000
274.484222	146.440000
274.577240	146.300000
274.670258	146.460000
274.763306	145.960000
274.856323	146.080000
274.949341	146.020000
275.042358	146.400000
275.135406	146.440000
275.228424	146.520000
275.321442	146.500000
275.414490	146.340000
275.507507	146.440000
275.600525	146.700000
275.693573	146.560000
275.786591	146.220000
275.879669	146.460000
275.972656	146.080000
276.065735	145.940000
276.158752	146.480000
276.251801	147.420000
276.344818	147.560000
276.437866	147.420000
276.530884	147.060000
276.623932	146.220000
276.716980	145.760000
276.809998	145.960000
276.903046	146.160000
276.996094	146.980000
277.089111	147.720000
277.182159	148.240000
277.275208	147.800000
277.368256	147.620000
277.461304	146.920000
277.554321	146.340000
277.647369	145.940000
277.740417	145.860000
277.833466	145.740000
277.926514	145.920000
278.019562	146.500000
278.112610	146.100000
278.205688	146.300000
278.298706	146.660000
278.391785	146.300000
278.484833	145.720000
278.577881	145.760000
278.670929	145.920000
278.763977	146.060000
278.857025	146.580000
278.950073	147.040000
279.043121	146.760000
279.136169	146.700000
279.229248	146.300000
279.322296	146.100000
279.415344	145.660000
279.508392	145.840000
279.601440	145.760000
279.694519	145.660000
279.787567	145.720000
279.880615	145.700000
279.973694	145.780000
280.066742	145.780000
280.159790	145.980000
280.252869	145.620000
280.345917	145.700000
280.438995	145.700000
280.532074	145.920000
280.625122	146.440000
280.718201	147.520000
280.811279	147.840000
280.904327	147.780000
280.997406	147.620000
281.090454	147.420000
281.183533	146.600000
281.276581	146.500000
281.369659	146.200000
281.462738	146.240000
281.555786	145.940000
281.648865	145.980000
281.741943	145.980000
281.835022	146.740000
281.928070	146.440000
282.021149	146.560000
282.114227	146.480000
282.207306	146.280000
282.300385	146.420000
282.393433	146.580000
282.486511	146.580000
282.579590	147.360000
282.672668	147.860000
282.765747	147.200000
282.858856	147.160000
282.951904	146.960000
283.045013	146.760000
283.138062	146.600000
283.231171	146.920000
283.324249	147.460000
283.417328	147.540000
283.510406	146.980000
283.603485	146.880000
283.696564	146.600000
283.789642	146.460000
283.882751	146.220000
283.975830	146.780000
284.068909	146.460000
284.161987	147.160000
284.255066	146.600000
284.348175	146.800000
284.441254	146.360000
284.534332	147.020000
284.627441	146.280000
284.720520	146.160000
284.813599	146.240000
284.906708	146.220000
284.999786	145.380000
285.092896	145.420000
285.185974	146.400000
285.279053	146.160000
285.372192	146.260000
285.465240	147.080000
285.558380	147.000000
285.651459	146.420000
285.744568	147.240000
285.837677	147.000000
285.930756	146.740000
286.023865	146.880000
286.116943	146.700000
286.210052	146.520000
286.303162	146.400000
286.396240	146.380000
286.489349	146.360000
286.582458	146.200000
286.675568	145.720000
286.768646	145.880000
286.861755	145.900000
286.954865	146.460000
287.047974	146.380000
287.141083	146.320000
287.234161	146.260000
287.327271	146.160000
287.420380	146.340000
287.513519	146.300000
287.606598	146.460000
287.699738	146.480000
287.792816	146.400000
287.885956	146.120000
287.979034	146.360000
288.072174	146.260000
288.165283	146.460000
288.258392	146.880000
288.351501	146.340000
288.444611	146.940000
288.537720	147.600000
288.630859	147.320000
288.723969	147.460000
288.817078	147.720000
288.910187	147.380000
289.003296	146.620000
289.096436	146.420000
289.189545	145.820000
289.282654	145.560000
289.375763	145.780000
289.468903	146.400000
289.562012	146.880000
289.655121	146.980000
289.748260	147.120000
289.841400	147.280000
289.934509	146.920000
290.027649	147.140000
290.120728	146.800000
290.213898	146.840000
290.306976	146.320000
290.400146	146.440000
290.493256	145.880000
290.586395	146.200000
290.679535	146.580000
290.772644	146.500000
290.865784	145.900000
290.958893	145.960000
291.052032	145.880000
291.145172	145.540000
291.238281	145.460000
291.331421	145.540000
291.424561	145.840000
291.517670	145.700000
291.610809	145.720000
291.703949	145.660000
291.797089	146.160000
291.890228	145.860000
291.983337	145.720000
292.076477	145.520000
292.169617	145.740000
292.262756	145.720000
292.355927	145.660000
292.449036	145.900000
292.542206	146.420000
292.635315	146.620000
292.728485	146.560000
292.821625	146.300000
292.914764	147.400000
293.007904	147.200000
293.101044	147.140000
293.194183	146.980000
293.287323	147.380000
293.380463	146.620000
293.473602	146.540000
293.566742	146.800000
293.659882	147.320000
293.753021	147.420000
293.846191	147.380000
293.939331	147.040000
294.032471	146.420000
294.125610	145.780000
294.218781	146.200000
294.311920	146.620000
294.405060	147.100000
294.498230	147.480000
294.591370	147.820000
294.684540	146.860000
294.777679	146.040000
294.870850	146.240000
294.963959	146.120000
295.057159	145.900000
295.150299	146.640000
295.243469	146.840000
295.336609	146.200000
295.429779	146.340000
295.522919	146.700000
295.616089	146.580000
295.709229	147.040000
295.802399	147.320000
295.895569	146.880000
295.988708	146.820000
296.081879	146.980000
296.175018	146.520000
296.268188	146.340000
296.361359	146.900000
296.454529	146.820000
296.547668	146.540000
296.640839	146.700000
296.734009	146.520000
296.827179	146.520000
296.920319	146.720000
297.013519	146.380000
297.106659	146.400000
297.199860	146.320000
297.292999	146.220000
297.386200	145.640000
297.479309	145.800000
297.572510	145.500000
297.665680	145.500000
297.758850	145.360000
297.852020	145.540000
297.945190	145.560000
298.038361	145.700000
298.131531	146.580000
298.224701	146.340000
298.317871	145.960000
298.411072	145.680000
298.504242	145.660000
298.597412	145.080000
298.690582	145.540000
298.783752	145.760000
298.876923	146.220000
298.970093	146.260000
299.063293	146.720000
299.156464	146.880000
299.249634	147.060000
299.342834	147.080000
299.436005	147.280000
299.529205	146.760000
299.622345	146.340000
299.715576	145.940000
299.808716	145.780000
299.901917	146.020000
299.995117	146.340000
300.088287	146.420000
300.181488	146.440000
300.274658	146.400000
300.367828	146.100000
300.461029	146.140000
300.554199	146.720000
300.647400	146.840000
300.740601	147.400000
300.833771	147.320000
300.926971	147.340000
301.020142	146.220000
301.113342	146.180000
301.206512	146.040000
301.299713	146.320000
301.392914	146.120000
301.486084	146.920000
301.579285	146.960000
301.672516	146.920000
301.765686	146.620000
301.858887	146.720000
301.952057	146.340000
302.045288	146.260000
302.138458	145.980000
302.231659	145.780000
302.324860	145.640000
302.418060	145.660000
302.511261	145.660000
302.604462	146.020000
302.697662	145.840000
302.790863	145.580000
302.884064	145.360000
302.977264	145.560000
303.070465	145.540000
303.163666	146.420000
303.256866	146.920000
303.350067	147.300000
303.443268	147.180000
303.536469	147.300000
303.629669	146.540000
303.722870	146.580000
303.816071	146.340000
303.909271	146.500000
304.002472	145.560000
304.095673	145.600000
304.188934	144.700000
304.282104	145.360000
304.375336	145.240000
304.468506	145.460000
304.561768	145.400000
304.654968	146.320000
304.748169	145.740000
304.841370	145.720000
304.934601	146.080000
305.027802	146.100000
305.121002	145.520000
305.214233	146.040000
305.307434	146.260000
305.400665	146.860000
305.493866	146.780000
