Model Number: SPM-002-B   
Serial Number: 70087108
Firmware Version: 004.15.4
Exposure Time: 100000.000000us
Data Taken on: 11-12-2020 18:50:36.930
Wavelength	Amplitude
221.570786	0.000000
221.663406	0.000000
221.756027	0.000000
221.848648	0.000000
221.941269	0.000000
222.033905	0.000000
222.126526	0.000000
222.219162	0.000000
222.311798	0.000000
222.404419	0.000000
222.497055	0.000000
222.589676	0.000000
222.682312	0.000000
222.774933	0.000000
222.867569	0.000000
222.960205	0.000000
223.052841	0.000000
223.145462	0.000000
223.238098	0.000000
223.330734	0.000000
223.423386	0.000000
223.516022	0.000000
223.608658	0.000000
223.701309	0.000000
223.793945	0.000000
223.886581	0.000000
223.979218	0.000000
224.071869	0.000000
224.164505	0.000000
224.257156	0.000000
224.349792	0.000000
224.442444	0.000000
224.535095	0.000000
224.627747	0.000000
224.720398	0.000000
224.813034	0.000000
224.905685	0.000000
224.998337	145.000000
225.090988	144.840000
225.183640	144.940000
225.276291	144.400000
225.368942	145.180000
225.461594	145.580000
225.554245	145.980000
225.646912	145.780000
225.739578	146.840000
225.832230	146.840000
225.924896	146.140000
226.017548	145.920000
226.110199	146.580000
226.202866	145.740000
226.295532	145.740000
226.388184	145.860000
226.480850	145.920000
226.573517	145.200000
226.666168	145.460000
226.758835	145.800000
226.851501	146.460000
226.944183	146.380000
227.036850	145.980000
227.129517	145.800000
227.222183	145.580000
227.314850	145.460000
227.407516	145.620000
227.500198	146.500000
227.592865	146.440000
227.685532	146.200000
227.778214	145.940000
227.870880	146.240000
227.963562	146.600000
228.056229	147.120000
228.148926	146.860000
228.241592	147.680000
228.334274	147.400000
228.426956	146.900000
228.519638	146.540000
228.612305	146.340000
228.704987	146.080000
228.797668	146.000000
228.890350	145.800000
228.983032	145.680000
229.075714	146.640000
229.168396	146.180000
229.261108	145.900000
229.353790	146.000000
229.446472	145.900000
229.539169	145.180000
229.631851	144.820000
229.724533	144.980000
229.817230	145.300000
229.909912	146.340000
230.002609	146.400000
230.095306	146.500000
230.187988	146.600000
230.280685	146.380000
230.373383	145.220000
230.466095	145.220000
230.558792	145.740000
230.651474	145.640000
230.744171	145.400000
230.836868	145.460000
230.929581	145.760000
231.022278	145.600000
231.114975	145.940000
231.207672	145.760000
231.300369	146.480000
231.393082	146.540000
231.485779	146.340000
231.578506	146.040000
231.671204	146.420000
231.763916	145.780000
231.856613	145.720000
231.949326	145.880000
232.042023	146.000000
232.134735	145.700000
232.227448	145.540000
232.320160	145.780000
232.412872	145.660000
232.505585	146.340000
232.598297	146.660000
232.691010	146.820000
232.783722	146.520000
232.876450	146.960000
232.969162	146.060000
233.061874	145.760000
233.154587	145.480000
233.247314	145.420000
233.340027	144.900000
233.432739	145.620000
233.525467	145.280000
233.618179	145.720000
233.710907	145.400000
233.803635	146.160000
233.896347	145.940000
233.989090	146.960000
234.081818	146.900000
234.174545	147.260000
234.267258	146.460000
234.359985	146.500000
234.452713	146.000000
234.545441	145.860000
234.638168	145.440000
234.730896	146.180000
234.823639	145.780000
234.916367	146.200000
235.009094	146.200000
235.101822	146.380000
235.194580	146.160000
235.287308	146.480000
235.380051	145.860000
235.472778	146.320000
235.565521	146.620000
235.658249	146.180000
235.750992	145.980000
235.843719	146.020000
235.936462	145.920000
236.029205	145.480000
236.121948	145.240000
236.214691	145.700000
236.307449	146.480000
236.400192	146.140000
236.492935	145.960000
236.585678	146.380000
236.678421	146.100000
236.771164	145.540000
236.863907	146.120000
236.956665	146.580000
237.049408	147.900000
237.142151	147.480000
237.234909	148.020000
237.327652	147.600000
237.420410	147.660000
237.513153	146.680000
237.605927	146.520000
237.698669	146.060000
237.791428	145.860000
237.884186	146.080000
237.976944	145.400000
238.069702	145.980000
238.162445	145.560000
238.255203	145.740000
238.347961	146.040000
238.440720	146.520000
238.533478	146.440000
238.626266	146.440000
238.719025	146.500000
238.811783	146.280000
238.904541	145.960000
238.997314	145.800000
239.090073	145.360000
239.182831	145.820000
239.275604	146.160000
239.368362	146.220000
239.461136	146.480000
239.553909	146.860000
239.646667	146.500000
239.739441	146.040000
239.832214	146.140000
239.925003	146.280000
240.017761	146.960000
240.110535	147.140000
240.203308	146.600000
240.296082	146.740000
240.388855	146.300000
240.481628	146.160000
240.574417	146.220000
240.667191	146.540000
240.759964	146.060000
240.852737	146.140000
240.945526	145.840000
241.038315	145.420000
241.131088	145.560000
241.223877	145.880000
241.316650	145.480000
241.409439	146.060000
241.502228	145.880000
241.595001	146.100000
241.687790	146.260000
241.780579	146.660000
241.873367	146.460000
241.966141	146.440000
242.058929	145.820000
242.151718	145.700000
242.244507	146.060000
242.337311	145.680000
242.430099	146.460000
242.522903	147.160000
242.615692	146.960000
242.708481	146.920000
242.801270	147.240000
242.894073	147.040000
242.986862	146.820000
243.079651	147.480000
243.172455	146.740000
243.265244	146.940000
243.358063	146.360000
243.450867	146.660000
243.543655	146.240000
243.636459	146.900000
243.729263	146.860000
243.822067	147.340000
243.914856	147.480000
244.007660	147.640000
244.100464	147.420000
244.193268	146.900000
244.286072	146.700000
244.378876	146.280000
244.471680	145.800000
244.564499	145.980000
244.657318	146.640000
244.750122	146.840000
244.842926	146.300000
244.935745	146.920000
245.028549	146.520000
245.121368	145.820000
245.214172	145.520000
245.306992	146.160000
245.399796	145.540000
245.492615	145.760000
245.585434	145.980000
245.678253	146.260000
245.771072	146.100000
245.863892	146.460000
245.956711	146.860000
246.049530	146.620000
246.142349	146.320000
246.235168	146.200000
246.327988	146.840000
246.420807	146.200000
246.513626	146.380000
246.606445	146.180000
246.699280	146.140000
246.792099	145.620000
246.884918	145.680000
246.977753	145.360000
247.070587	145.780000
247.163422	145.860000
247.256241	145.940000
247.349075	146.120000
247.441895	146.400000
247.534729	146.220000
247.627563	146.180000
247.720383	146.500000
247.813217	146.660000
247.906052	146.620000
247.998886	146.520000
248.091736	146.220000
248.184570	145.480000
248.277405	145.400000
248.370239	146.320000
248.463074	147.220000
248.555908	147.900000
248.648743	148.020000
248.741592	148.040000
248.834427	147.060000
248.927261	146.060000
249.020111	146.000000
249.112946	146.520000
249.205795	146.060000
249.298630	146.220000
249.391495	146.180000
249.484344	145.620000
249.577179	145.540000
249.670029	145.840000
249.762878	146.340000
249.855728	146.640000
249.948563	146.840000
250.041412	146.260000
250.134262	146.560000
250.227112	146.480000
250.319962	146.520000
250.412827	146.580000
250.505692	146.460000
250.598541	145.960000
250.691391	145.120000
250.784241	145.260000
250.877106	145.440000
250.969955	145.440000
251.062805	146.520000
251.155670	147.600000
251.248520	147.240000
251.341385	147.240000
251.434235	147.400000
251.527100	146.660000
251.619965	146.160000
251.712814	147.000000
251.805695	146.900000
251.898560	147.040000
251.991425	147.360000
252.084290	147.720000
252.177155	146.680000
252.270020	146.680000
252.362885	146.620000
252.455750	146.620000
252.548615	145.980000
252.641479	146.440000
252.734360	146.260000
252.827240	146.000000
252.920105	145.900000
253.012970	145.860000
253.105850	145.620000
253.198715	145.320000
253.291595	145.420000
253.384460	144.900000
253.477341	144.980000
253.570221	144.980000
253.663086	145.000000
253.755966	145.580000
253.848846	145.720000
253.941727	146.020000
254.034592	145.780000
254.127472	145.420000
254.220367	145.400000
254.313248	145.600000
254.406128	145.380000
254.499008	145.840000
254.591904	146.840000
254.684784	146.880000
254.777664	146.780000
254.870544	146.380000
254.963440	146.520000
255.056335	146.420000
255.149216	146.160000
255.242111	146.640000
255.334991	147.360000
255.427887	147.580000
255.520767	147.520000
255.613663	147.680000
255.706558	146.900000
255.799438	146.440000
255.892334	145.980000
255.985229	145.520000
256.078125	145.260000
256.171021	145.580000
256.263916	145.780000
256.356812	146.080000
256.449707	146.340000
256.542603	146.040000
256.635498	146.400000
256.728394	146.320000
256.821289	145.640000
256.914215	146.120000
257.007080	146.700000
257.100006	146.580000
257.192932	146.940000
257.285828	147.660000
257.378723	147.160000
257.471619	146.840000
257.564545	146.200000
257.657440	146.060000
257.750336	146.080000
257.843262	145.840000
257.936157	146.900000
258.029053	147.300000
258.121979	147.100000
258.214874	146.700000
258.307800	146.560000
258.400696	145.420000
258.493622	145.540000
258.586517	145.040000
258.679443	145.500000
258.772339	145.280000
258.865265	145.220000
258.958160	144.840000
259.051086	145.880000
259.144012	145.440000
259.236938	146.420000
259.329834	146.560000
259.422791	146.580000
259.515717	145.920000
259.608612	145.740000
259.701538	145.740000
259.794464	145.580000
259.887390	145.460000
259.980316	145.420000
260.073212	145.380000
260.166138	144.520000
260.259064	144.680000
260.351990	145.620000
260.444916	145.500000
260.537842	146.060000
260.630768	147.020000
260.723694	146.980000
260.816620	146.360000
260.909546	146.560000
261.002472	146.220000
261.095398	145.320000
261.188354	145.340000
261.281281	144.840000
261.374207	144.800000
261.467133	145.360000
261.560089	146.060000
261.653015	146.060000
261.745972	147.000000
261.838867	147.340000
261.931824	147.200000
262.024780	146.260000
262.117706	146.240000
262.210663	146.340000
262.303589	146.260000
262.396515	146.100000
262.489471	147.300000
262.582397	147.300000
262.675354	146.380000
262.768280	146.340000
262.861237	146.200000
262.954163	145.800000
263.047119	146.000000
263.140045	146.040000
263.233002	146.040000
263.325958	146.160000
263.418884	146.120000
263.511841	145.980000
263.604797	146.380000
263.697723	146.360000
263.790680	146.220000
263.883636	146.440000
263.976593	146.400000
264.069550	146.220000
264.162476	145.760000
264.255463	145.740000
264.348419	145.400000
264.441376	145.540000
264.534332	145.180000
264.627289	145.500000
264.720245	145.820000
264.813202	145.360000
264.906158	145.380000
264.999115	146.120000
265.092072	146.060000
265.185028	146.500000
265.277985	146.980000
265.370941	146.940000
265.463898	146.640000
265.556854	146.600000
265.649811	145.680000
265.742798	146.000000
265.835754	146.100000
265.928711	146.660000
266.021667	146.640000
266.114655	147.260000
266.207611	147.020000
266.300568	146.220000
266.393585	145.460000
266.486511	145.720000
266.579498	144.880000
266.672485	144.700000
266.765442	144.940000
266.858429	145.500000
266.951385	145.240000
267.044342	145.760000
267.137329	145.940000
267.230316	146.660000
267.323273	146.220000
267.416260	146.940000
267.509216	146.600000
267.602203	146.360000
267.695160	146.500000
267.788147	146.660000
267.881134	145.660000
267.974091	145.820000
268.067078	145.640000
268.160065	145.220000
268.253052	145.020000
268.346008	145.440000
268.438995	145.060000
268.531982	145.380000
268.624969	145.100000
268.717987	145.620000
268.810944	145.420000
268.903961	145.800000
268.996948	145.500000
269.089905	146.000000
269.182892	145.840000
269.275879	146.320000
269.368866	145.960000
269.461853	146.360000
269.554871	146.120000
269.647858	145.920000
269.740845	145.960000
269.833832	146.680000
269.926819	146.360000
270.019806	146.700000
270.112793	146.720000
270.205811	146.500000
270.298798	146.120000
270.391785	146.800000
270.484772	146.260000
270.577789	146.040000
270.670776	145.780000
270.763763	145.780000
270.856750	145.700000
270.949768	145.640000
271.042786	145.780000
271.135773	145.880000
271.228790	146.100000
271.321808	145.480000
271.414795	145.240000
271.507782	144.980000
271.600800	144.820000
271.693817	144.920000
271.786804	145.320000
271.879822	145.840000
271.972809	145.820000
272.065826	146.200000
272.158844	145.660000
272.251831	146.300000
272.344849	146.080000
272.437866	145.900000
272.530853	145.900000
272.623871	145.980000
272.716888	144.560000
272.809906	145.040000
272.902893	145.420000
272.995911	145.020000
273.088928	145.200000
273.181946	145.740000
273.274963	145.140000
273.367981	145.080000
273.460999	145.460000
273.554047	145.780000
273.647003	146.420000
273.740051	146.340000
273.833069	146.460000
273.926086	146.380000
274.019135	145.940000
274.112152	145.420000
274.205170	145.640000
274.298187	146.080000
274.391205	145.760000
274.484222	146.020000
274.577240	146.140000
274.670258	146.140000
274.763306	145.660000
274.856323	145.980000
274.949341	146.160000
275.042358	146.460000
275.135406	146.440000
275.228424	146.620000
275.321442	146.520000
275.414490	146.000000
275.507507	146.000000
275.600525	146.580000
275.693573	146.420000
275.786591	145.820000
275.879669	146.080000
275.972656	145.580000
276.065735	144.780000
276.158752	145.040000
276.251801	146.180000
276.344818	146.460000
276.437866	146.800000
276.530884	146.980000
276.623932	146.360000
276.716980	146.640000
276.809998	146.320000
276.903046	146.160000
276.996094	146.920000
277.089111	147.760000
277.182159	147.500000
277.275208	147.240000
277.368256	147.120000
277.461304	146.720000
277.554321	145.960000
277.647369	145.640000
277.740417	145.640000
277.833466	145.780000
277.926514	145.300000
278.019562	146.240000
278.112610	145.980000
278.205688	146.280000
278.298706	146.240000
278.391785	146.140000
278.484833	145.240000
278.577881	145.060000
278.670929	145.500000
278.763977	145.580000
278.857025	146.200000
278.950073	146.440000
279.043121	146.300000
279.136169	145.760000
279.229248	145.520000
279.322296	145.520000
279.415344	145.200000
279.508392	145.200000
279.601440	145.220000
279.694519	145.080000
279.787567	144.480000
279.880615	144.600000
279.973694	144.760000
280.066742	144.880000
280.159790	145.320000
280.252869	145.100000
280.345917	145.260000
280.438995	145.480000
280.532074	145.200000
280.625122	145.420000
280.718201	146.740000
280.811279	146.840000
280.904327	146.940000
280.997406	147.420000
281.090454	147.420000
281.183533	146.660000
281.276581	146.420000
281.369659	146.420000
281.462738	146.380000
281.555786	146.180000
281.648865	146.080000
281.741943	146.200000
281.835022	146.600000
281.928070	146.060000
282.021149	145.840000
282.114227	145.920000
282.207306	145.800000
282.300385	145.880000
282.393433	146.220000
282.486511	146.480000
282.579590	147.040000
282.672668	147.640000
282.765747	147.060000
282.858856	146.900000
282.951904	146.780000
283.045013	146.740000
283.138062	146.740000
283.231171	146.860000
283.324249	147.420000
283.417328	147.560000
283.510406	146.880000
283.603485	146.560000
283.696564	146.400000
283.789642	146.060000
283.882751	145.780000
283.975830	146.840000
284.068909	146.700000
284.161987	147.380000
284.255066	147.160000
284.348175	147.500000
284.441254	147.080000
284.534332	147.640000
284.627441	146.940000
284.720520	146.700000
284.813599	146.700000
284.906708	146.320000
284.999786	145.420000
285.092896	145.260000
285.185974	146.320000
285.279053	145.720000
285.372192	145.780000
285.465240	146.480000
285.558380	146.380000
285.651459	145.700000
285.744568	146.680000
285.837677	146.220000
285.930756	146.120000
286.023865	146.260000
286.116943	146.160000
286.210052	145.960000
286.303162	145.980000
286.396240	146.120000
286.489349	145.960000
286.582458	146.300000
286.675568	145.740000
286.768646	146.000000
286.861755	145.880000
286.954865	146.460000
287.047974	145.840000
287.141083	145.840000
287.234161	145.680000
287.327271	145.480000
287.420380	145.760000
287.513519	145.600000
287.606598	145.580000
287.699738	145.640000
287.792816	145.640000
287.885956	145.340000
287.979034	145.580000
288.072174	145.820000
288.165283	146.060000
288.258392	146.360000
288.351501	145.600000
288.444611	145.880000
288.537720	146.260000
288.630859	146.000000
288.723969	145.840000
288.817078	146.760000
288.910187	146.960000
289.003296	146.340000
289.096436	146.100000
289.189545	145.960000
289.282654	145.440000
289.375763	145.460000
289.468903	145.920000
289.562012	146.420000
289.655121	146.280000
289.748260	146.320000
289.841400	146.600000
289.934509	146.340000
290.027649	146.400000
290.120728	146.640000
290.213898	146.840000
290.306976	146.440000
290.400146	146.500000
290.493256	146.000000
290.586395	146.120000
290.679535	146.260000
290.772644	146.080000
290.865784	145.320000
290.958893	145.540000
291.052032	145.080000
291.145172	144.920000
291.238281	144.620000
291.331421	145.200000
291.424561	145.640000
291.517670	145.820000
291.610809	145.960000
291.703949	146.180000
291.797089	146.460000
291.890228	146.100000
291.983337	145.940000
292.076477	145.580000
292.169617	145.980000
292.262756	145.820000
292.355927	145.660000
292.449036	145.460000
292.542206	145.780000
292.635315	145.560000
292.728485	145.700000
292.821625	145.500000
292.914764	146.940000
293.007904	147.100000
293.101044	147.300000
293.194183	147.080000
293.287323	147.400000
293.380463	146.440000
293.473602	145.900000
293.566742	145.880000
293.659882	146.300000
293.753021	146.600000
293.846191	146.380000
293.939331	145.940000
294.032471	145.780000
294.125610	145.400000
294.218781	145.580000
294.311920	146.280000
294.405060	147.000000
294.498230	146.900000
294.591370	146.880000
294.684540	146.140000
294.777679	145.380000
294.870850	145.660000
294.963959	145.680000
295.057159	145.740000
295.150299	146.280000
295.243469	146.340000
295.336609	145.540000
295.429779	145.680000
295.522919	145.800000
295.616089	145.680000
295.709229	146.400000
295.802399	146.980000
295.895569	146.740000
295.988708	146.580000
296.081879	146.760000
296.175018	146.020000
296.268188	146.060000
296.361359	146.580000
296.454529	146.700000
296.547668	146.740000
296.640839	147.160000
296.734009	146.580000
296.827179	146.700000
296.920319	146.980000
297.013519	146.560000
297.106659	146.700000
297.199860	147.100000
297.292999	146.680000
297.386200	146.060000
297.479309	145.920000
297.572510	145.700000
297.665680	145.260000
297.758850	145.480000
297.852020	145.680000
297.945190	145.840000
298.038361	145.520000
298.131531	146.780000
298.224701	146.260000
298.317871	145.880000
298.411072	145.400000
298.504242	145.420000
298.597412	144.560000
298.690582	145.000000
298.783752	145.640000
298.876923	146.400000
298.970093	146.260000
299.063293	146.500000
299.156464	146.600000
299.249634	146.380000
299.342834	146.300000
299.436005	146.880000
299.529205	146.500000
299.622345	146.340000
299.715576	145.840000
299.808716	145.620000
299.901917	145.300000
299.995117	145.620000
300.088287	145.800000
300.181488	146.080000
300.274658	146.060000
300.367828	146.040000
300.461029	146.000000
300.554199	146.040000
300.647400	146.000000
300.740601	146.560000
300.833771	146.560000
300.926971	147.040000
301.020142	146.340000
301.113342	146.120000
301.206512	145.700000
301.299713	146.000000
301.392914	145.540000
301.486084	146.060000
301.579285	146.480000
301.672516	146.900000
301.765686	146.420000
301.858887	146.220000
301.952057	146.080000
302.045288	146.060000
302.138458	145.800000
302.231659	145.760000
302.324860	145.860000
302.418060	145.780000
302.511261	145.600000
302.604462	145.900000
302.697662	146.080000
302.790863	146.200000
302.884064	145.820000
302.977264	145.920000
303.070465	145.780000
303.163666	146.320000
303.256866	146.480000
303.350067	146.580000
303.443268	146.520000
303.536469	146.760000
303.629669	146.220000
303.722870	146.280000
303.816071	146.280000
303.909271	146.380000
304.002472	145.160000
304.095673	144.960000
304.188934	144.020000
304.282104	145.080000
304.375336	145.080000
304.468506	145.700000
304.561768	145.640000
304.654968	146.480000
304.748169	145.880000
304.841370	145.640000
304.934601	145.800000
305.027802	145.640000
305.121002	145.200000
305.214233	145.120000
305.307434	145.340000
305.400665	145.740000
305.493866	146.040000
