Model Number: SPM-002-B   
Serial Number: 70087108
Firmware Version: 004.15.4
Exposure Time: 100000.000000us
Data Taken on: 11-12-2020 18:50:42.203
Wavelength	Amplitude
221.570786	0.000000
221.663406	0.000000
221.756027	0.000000
221.848648	0.000000
221.941269	0.000000
222.033905	0.000000
222.126526	0.000000
222.219162	0.000000
222.311798	0.000000
222.404419	0.000000
222.497055	0.000000
222.589676	0.000000
222.682312	0.000000
222.774933	0.000000
222.867569	0.000000
222.960205	0.000000
223.052841	0.000000
223.145462	0.000000
223.238098	0.000000
223.330734	0.000000
223.423386	0.000000
223.516022	0.000000
223.608658	0.000000
223.701309	0.000000
223.793945	0.000000
223.886581	0.000000
223.979218	0.000000
224.071869	0.000000
224.164505	0.000000
224.257156	0.000000
224.349792	0.000000
224.442444	0.000000
224.535095	0.000000
224.627747	0.000000
224.720398	0.000000
224.813034	0.000000
224.905685	0.000000
224.998337	145.600000
225.090988	145.540000
225.183640	145.560000
225.276291	145.300000
225.368942	145.560000
225.461594	145.960000
225.554245	146.060000
225.646912	146.280000
225.739578	147.180000
225.832230	147.460000
225.924896	146.560000
226.017548	146.680000
226.110199	147.060000
226.202866	146.520000
226.295532	146.040000
226.388184	146.240000
226.480850	145.740000
226.573517	145.120000
226.666168	145.160000
226.758835	145.600000
226.851501	146.300000
226.944183	146.620000
227.036850	146.380000
227.129517	146.400000
227.222183	146.200000
227.314850	145.760000
227.407516	146.180000
227.500198	147.080000
227.592865	146.620000
227.685532	146.540000
227.778214	146.440000
227.870880	146.220000
227.963562	146.240000
228.056229	146.500000
228.148926	146.360000
228.241592	147.040000
228.334274	146.660000
228.426956	146.200000
228.519638	146.360000
228.612305	146.200000
228.704987	146.080000
228.797668	146.240000
228.890350	145.800000
228.983032	145.280000
229.075714	146.040000
229.168396	145.480000
229.261108	145.280000
229.353790	145.360000
229.446472	145.760000
229.539169	145.380000
229.631851	145.160000
229.724533	145.520000
229.817230	145.920000
229.909912	147.080000
230.002609	147.000000
230.095306	147.080000
230.187988	146.820000
230.280685	146.700000
230.373383	145.380000
230.466095	145.200000
230.558792	145.500000
230.651474	145.780000
230.744171	145.700000
230.836868	145.440000
230.929581	145.720000
231.022278	145.720000
231.114975	145.600000
231.207672	145.440000
231.300369	146.180000
231.393082	146.220000
231.485779	145.700000
231.578506	145.760000
231.671204	146.160000
231.763916	146.020000
231.856613	145.880000
231.949326	146.360000
232.042023	146.100000
232.134735	145.700000
232.227448	145.440000
232.320160	145.620000
232.412872	145.660000
232.505585	146.560000
232.598297	147.000000
232.691010	146.880000
232.783722	146.480000
232.876450	147.280000
232.969162	146.560000
233.061874	146.140000
233.154587	145.860000
233.247314	146.140000
233.340027	145.060000
233.432739	145.420000
233.525467	145.200000
233.618179	145.660000
233.710907	145.500000
233.803635	146.220000
233.896347	145.980000
233.989090	146.760000
234.081818	146.660000
234.174545	147.060000
234.267258	146.260000
234.359985	146.300000
234.452713	146.060000
234.545441	145.800000
234.638168	145.100000
234.730896	145.760000
234.823639	145.660000
234.916367	145.940000
235.009094	146.560000
235.101822	146.900000
235.194580	146.760000
235.287308	146.540000
235.380051	145.900000
235.472778	146.040000
235.565521	146.140000
235.658249	146.000000
235.750992	146.400000
235.843719	146.520000
235.936462	146.160000
236.029205	145.840000
236.121948	145.160000
236.214691	145.280000
236.307449	145.840000
236.400192	145.600000
236.492935	145.620000
236.585678	146.160000
236.678421	146.000000
236.771164	145.680000
236.863907	146.340000
236.956665	146.620000
237.049408	148.280000
237.142151	148.020000
237.234909	148.480000
237.327652	147.900000
237.420410	147.640000
237.513153	146.380000
237.605927	146.280000
237.698669	145.800000
237.791428	145.680000
237.884186	145.900000
237.976944	145.400000
238.069702	145.880000
238.162445	145.340000
238.255203	145.460000
238.347961	145.660000
238.440720	146.120000
238.533478	145.800000
238.626266	145.960000
238.719025	146.120000
238.811783	146.300000
238.904541	145.920000
238.997314	145.580000
239.090073	145.520000
239.182831	146.120000
239.275604	146.520000
239.368362	146.400000
239.461136	146.780000
239.553909	146.700000
239.646667	146.140000
239.739441	145.460000
239.832214	145.820000
239.925003	145.800000
240.017761	146.580000
240.110535	146.920000
240.203308	146.520000
240.296082	146.560000
240.388855	146.580000
240.481628	146.420000
240.574417	146.480000
240.667191	146.600000
240.759964	146.020000
240.852737	146.000000
240.945526	145.620000
241.038315	145.220000
241.131088	145.720000
241.223877	146.300000
241.316650	145.920000
241.409439	146.300000
241.502228	145.820000
241.595001	146.260000
241.687790	146.120000
241.780579	146.300000
241.873367	146.180000
241.966141	146.620000
242.058929	145.780000
242.151718	145.980000
242.244507	146.680000
242.337311	146.180000
242.430099	146.600000
242.522903	146.740000
242.615692	146.000000
242.708481	145.560000
242.801270	145.960000
242.894073	145.460000
242.986862	145.700000
243.079651	146.560000
243.172455	146.560000
243.265244	146.800000
243.358063	146.380000
243.450867	146.780000
243.543655	146.500000
243.636459	146.380000
243.729263	146.120000
243.822067	146.580000
243.914856	146.580000
244.007660	146.740000
244.100464	146.900000
244.193268	147.020000
244.286072	146.960000
244.378876	146.420000
244.471680	146.100000
244.564499	146.100000
244.657318	146.500000
244.750122	146.760000
244.842926	146.040000
244.935745	146.420000
245.028549	146.000000
245.121368	145.400000
245.214172	145.420000
245.306992	146.220000
245.399796	145.860000
245.492615	146.140000
245.585434	145.880000
245.678253	145.660000
245.771072	145.320000
245.863892	145.440000
245.956711	145.640000
246.049530	145.880000
246.142349	145.560000
246.235168	145.900000
246.327988	146.380000
246.420807	145.960000
246.513626	145.820000
246.606445	145.920000
246.699280	145.580000
246.792099	145.180000
246.884918	144.960000
246.977753	144.860000
247.070587	145.060000
247.163422	145.120000
247.256241	145.120000
247.349075	145.640000
247.441895	145.740000
247.534729	145.600000
247.627563	145.420000
247.720383	145.960000
247.813217	146.000000
247.906052	145.840000
247.998886	145.680000
248.091736	145.900000
248.184570	145.520000
248.277405	145.620000
248.370239	146.660000
248.463074	147.940000
248.555908	148.100000
248.648743	147.800000
248.741592	147.620000
248.834427	146.640000
248.927261	145.240000
249.020111	145.560000
249.112946	146.340000
249.205795	145.940000
249.298630	146.220000
249.391495	146.520000
249.484344	146.140000
249.577179	145.800000
249.670029	146.380000
249.762878	146.980000
249.855728	147.320000
249.948563	147.300000
250.041412	146.660000
250.134262	146.640000
250.227112	146.540000
250.319962	146.500000
250.412827	146.580000
250.505692	146.380000
250.598541	146.300000
250.691391	145.760000
250.784241	145.840000
250.877106	145.900000
250.969955	145.800000
251.062805	146.400000
251.155670	146.960000
251.248520	146.560000
251.341385	146.640000
251.434235	147.020000
251.527100	146.480000
251.619965	145.980000
251.712814	146.920000
251.805695	146.760000
251.898560	147.040000
251.991425	147.220000
252.084290	147.440000
252.177155	146.540000
252.270020	146.240000
252.362885	145.920000
252.455750	145.880000
252.548615	145.440000
252.641479	145.500000
252.734360	145.420000
252.827240	145.300000
252.920105	145.420000
253.012970	145.480000
253.105850	145.180000
253.198715	145.060000
253.291595	145.420000
253.384460	144.760000
253.477341	144.500000
253.570221	144.860000
253.663086	144.940000
253.755966	145.620000
253.848846	145.860000
253.941727	146.600000
254.034592	146.360000
254.127472	146.080000
254.220367	145.580000
254.313248	145.460000
254.406128	144.940000
254.499008	145.400000
254.591904	146.260000
254.684784	146.660000
254.777664	146.800000
254.870544	146.620000
254.963440	146.540000
255.056335	146.240000
255.149216	145.840000
255.242111	146.340000
255.334991	146.860000
255.427887	146.860000
255.520767	146.960000
255.613663	146.900000
255.706558	146.060000
255.799438	145.760000
255.892334	145.580000
255.985229	145.360000
256.078125	145.180000
256.171021	145.620000
256.263916	146.140000
256.356812	146.540000
256.449707	146.660000
256.542603	146.440000
256.635498	146.680000
256.728394	146.280000
256.821289	145.520000
256.914215	145.820000
257.007080	146.460000
257.100006	146.400000
257.192932	146.960000
257.285828	147.660000
257.378723	147.420000
257.471619	147.140000
257.564545	146.640000
257.657440	146.540000
257.750336	146.860000
257.843262	146.660000
257.936157	147.400000
258.029053	148.160000
258.121979	148.000000
258.214874	147.400000
258.307800	147.340000
258.400696	146.360000
258.493622	146.060000
258.586517	145.140000
258.679443	145.500000
258.772339	145.180000
258.865265	145.020000
258.958160	144.560000
259.051086	145.660000
259.144012	145.260000
259.236938	146.260000
259.329834	146.760000
259.422791	146.560000
259.515717	145.860000
259.608612	145.760000
259.701538	145.420000
259.794464	145.240000
259.887390	145.320000
259.980316	145.420000
260.073212	145.140000
260.166138	144.460000
260.259064	144.680000
260.351990	145.520000
260.444916	145.540000
260.537842	146.320000
260.630768	147.100000
260.723694	147.060000
260.816620	146.620000
260.909546	146.580000
261.002472	145.900000
261.095398	145.420000
261.188354	145.220000
261.281281	145.080000
261.374207	145.500000
261.467133	146.320000
261.560089	146.480000
261.653015	146.220000
261.745972	147.060000
261.838867	147.320000
261.931824	147.240000
262.024780	146.600000
262.117706	147.080000
262.210663	146.520000
262.303589	145.840000
262.396515	145.440000
262.489471	146.660000
262.582397	146.340000
262.675354	145.920000
262.768280	146.480000
262.861237	146.760000
262.954163	146.280000
263.047119	146.520000
263.140045	146.540000
263.233002	146.000000
263.325958	145.660000
263.418884	145.060000
263.511841	144.980000
263.604797	145.240000
263.697723	145.300000
263.790680	145.400000
263.883636	146.340000
263.976593	145.960000
264.069550	145.780000
264.162476	145.760000
264.255463	145.700000
264.348419	145.320000
264.441376	145.700000
264.534332	145.440000
264.627289	145.360000
264.720245	145.600000
264.813202	145.180000
264.906158	145.320000
264.999115	146.000000
265.092072	145.940000
265.185028	146.400000
265.277985	146.920000
265.370941	146.800000
265.463898	146.360000
265.556854	146.600000
265.649811	145.540000
265.742798	145.420000
265.835754	145.260000
265.928711	146.080000
266.021667	145.980000
266.114655	146.500000
266.207611	146.940000
266.300568	146.480000
266.393585	145.860000
266.486511	146.100000
266.579498	145.400000
266.672485	144.920000
266.765442	145.320000
266.858429	145.740000
266.951385	145.300000
267.044342	145.780000
267.137329	145.720000
267.230316	145.900000
267.323273	145.180000
267.416260	145.720000
267.509216	145.680000
267.602203	145.700000
267.695160	146.100000
267.788147	146.600000
267.881134	146.220000
267.974091	146.360000
268.067078	146.500000
268.160065	145.960000
268.253052	145.420000
268.346008	145.740000
268.438995	145.540000
268.531982	145.340000
268.624969	145.360000
268.717987	145.500000
268.810944	145.240000
268.903961	145.300000
268.996948	144.960000
269.089905	145.580000
269.182892	146.040000
269.275879	146.340000
269.368866	146.260000
269.461853	146.920000
269.554871	146.340000
269.647858	146.280000
269.740845	146.480000
269.833832	146.700000
269.926819	146.380000
270.019806	146.460000
270.112793	145.640000
270.205811	145.340000
270.298798	145.320000
270.391785	146.020000
270.484772	145.720000
270.577789	146.160000
270.670776	145.680000
270.763763	145.400000
270.856750	145.040000
270.949768	144.980000
271.042786	145.160000
271.135773	145.480000
271.228790	145.800000
271.321808	145.540000
271.414795	145.460000
271.507782	144.960000
271.600800	144.820000
271.693817	144.940000
271.786804	145.180000
271.879822	145.520000
271.972809	145.660000
272.065826	146.120000
272.158844	145.600000
272.251831	145.840000
272.344849	145.860000
272.437866	145.600000
272.530853	145.400000
272.623871	145.720000
272.716888	144.820000
272.809906	145.160000
272.902893	145.580000
272.995911	145.040000
273.088928	144.800000
273.181946	145.160000
273.274963	144.580000
273.367981	144.540000
273.460999	145.220000
273.554047	145.640000
273.647003	146.180000
273.740051	146.440000
273.833069	146.960000
273.926086	146.860000
274.019135	146.400000
274.112152	145.960000
274.205170	145.820000
274.298187	145.860000
274.391205	145.420000
274.484222	145.540000
274.577240	145.380000
274.670258	145.320000
274.763306	144.720000
274.856323	144.920000
274.949341	145.060000
275.042358	145.680000
275.135406	145.340000
275.228424	145.500000
275.321442	145.860000
275.414490	145.580000
275.507507	145.720000
275.600525	146.680000
275.693573	146.540000
275.786591	145.940000
275.879669	146.380000
275.972656	145.780000
276.065735	145.240000
276.158752	145.760000
276.251801	146.660000
276.344818	146.700000
276.437866	146.860000
276.530884	146.600000
276.623932	145.860000
276.716980	145.640000
276.809998	145.540000
276.903046	145.660000
276.996094	146.760000
277.089111	147.600000
277.182159	148.020000
277.275208	147.740000
277.368256	147.380000
277.461304	146.620000
277.554321	145.940000
277.647369	145.560000
277.740417	145.760000
277.833466	145.860000
277.926514	145.780000
278.019562	146.400000
278.112610	145.700000
278.205688	145.820000
278.298706	145.920000
278.391785	145.820000
278.484833	145.120000
278.577881	145.440000
278.670929	145.820000
278.763977	145.980000
278.857025	146.620000
278.950073	146.860000
279.043121	146.940000
279.136169	146.860000
279.229248	146.500000
279.322296	146.200000
279.415344	146.200000
279.508392	146.020000
279.601440	145.600000
279.694519	145.460000
279.787567	145.280000
279.880615	144.980000
279.973694	144.940000
280.066742	145.100000
280.159790	145.620000
280.252869	145.320000
280.345917	145.720000
280.438995	145.780000
280.532074	145.580000
280.625122	145.760000
280.718201	146.580000
280.811279	146.540000
280.904327	146.420000
280.997406	146.560000
281.090454	146.420000
281.183533	146.020000
281.276581	146.120000
281.369659	145.700000
281.462738	145.720000
281.555786	145.560000
281.648865	145.580000
281.741943	145.320000
281.835022	146.440000
281.928070	146.140000
282.021149	146.120000
282.114227	145.680000
282.207306	145.600000
282.300385	145.280000
282.393433	145.760000
282.486511	145.840000
282.579590	146.780000
282.672668	147.200000
282.765747	146.660000
282.858856	146.140000
282.951904	146.320000
283.045013	146.120000
283.138062	146.240000
283.231171	146.600000
283.324249	146.800000
283.417328	146.720000
283.510406	146.160000
283.603485	145.840000
283.696564	146.120000
283.789642	146.360000
283.882751	145.920000
283.975830	146.640000
284.068909	146.420000
284.161987	146.600000
284.255066	146.020000
284.348175	146.160000
284.441254	145.840000
284.534332	146.520000
284.627441	146.040000
284.720520	146.180000
284.813599	146.580000
284.906708	146.600000
284.999786	145.740000
285.092896	145.480000
285.185974	146.420000
285.279053	145.800000
285.372192	145.840000
285.465240	146.780000
285.558380	147.060000
285.651459	146.360000
285.744568	147.160000
285.837677	146.700000
285.930756	146.260000
286.023865	146.220000
286.116943	146.120000
286.210052	145.920000
286.303162	146.100000
286.396240	146.240000
286.489349	145.940000
286.582458	146.280000
286.675568	145.820000
286.768646	145.740000
286.861755	145.780000
286.954865	146.500000
287.047974	146.040000
287.141083	146.100000
287.234161	145.940000
287.327271	145.900000
287.420380	146.080000
287.513519	146.000000
287.606598	146.120000
287.699738	146.780000
287.792816	146.660000
287.885956	146.140000
287.979034	146.060000
288.072174	146.040000
288.165283	145.520000
288.258392	145.300000
288.351501	144.920000
288.444611	145.280000
288.537720	145.740000
288.630859	145.800000
288.723969	146.220000
288.817078	146.860000
288.910187	146.520000
289.003296	145.860000
289.096436	145.620000
289.189545	145.320000
289.282654	144.740000
289.375763	145.380000
289.468903	145.880000
289.562012	146.140000
289.655121	146.220000
289.748260	146.640000
289.841400	146.600000
289.934509	146.080000
290.027649	146.420000
290.120728	146.460000
290.213898	146.380000
290.306976	146.320000
290.400146	146.680000
290.493256	146.080000
290.586395	146.020000
290.679535	146.160000
290.772644	145.700000
290.865784	145.280000
290.958893	145.540000
291.052032	145.340000
291.145172	145.340000
291.238281	145.340000
291.331421	145.440000
291.424561	145.980000
291.517670	146.180000
291.610809	146.480000
291.703949	146.620000
291.797089	146.980000
291.890228	146.360000
291.983337	146.220000
292.076477	145.580000
292.169617	145.880000
292.262756	145.860000
292.355927	145.900000
292.449036	145.760000
292.542206	146.240000
292.635315	146.340000
292.728485	146.300000
292.821625	146.020000
292.914764	147.240000
293.007904	146.880000
293.101044	146.380000
293.194183	146.500000
293.287323	146.600000
293.380463	145.700000
293.473602	145.680000
293.566742	146.020000
293.659882	146.400000
293.753021	146.620000
293.846191	146.440000
293.939331	146.120000
294.032471	145.960000
294.125610	145.460000
294.218781	145.940000
294.311920	146.680000
294.405060	147.080000
294.498230	147.160000
294.591370	147.120000
294.684540	146.380000
294.777679	145.300000
294.870850	145.780000
294.963959	145.580000
295.057159	145.340000
295.150299	145.680000
295.243469	145.780000
295.336609	144.740000
295.429779	144.820000
295.522919	145.320000
295.616089	145.260000
295.709229	146.080000
295.802399	146.520000
295.895569	146.240000
295.988708	145.820000
296.081879	145.680000
296.175018	145.080000
296.268188	145.260000
296.361359	146.020000
296.454529	146.220000
296.547668	146.540000
296.640839	146.880000
296.734009	146.600000
296.827179	146.620000
296.920319	146.860000
297.013519	146.440000
297.106659	146.400000
297.199860	146.620000
297.292999	146.360000
297.386200	145.960000
297.479309	146.040000
297.572510	145.840000
297.665680	145.680000
297.758850	145.600000
297.852020	145.740000
297.945190	145.700000
298.038361	145.320000
298.131531	146.140000
298.224701	145.800000
298.317871	145.480000
298.411072	145.120000
298.504242	145.160000
298.597412	144.600000
298.690582	145.160000
298.783752	145.160000
298.876923	146.000000
298.970093	146.180000
299.063293	146.660000
299.156464	146.900000
299.249634	147.340000
299.342834	147.200000
299.436005	147.680000
299.529205	146.840000
299.622345	146.640000
299.715576	145.860000
299.808716	145.420000
299.901917	145.200000
299.995117	145.840000
300.088287	145.760000
300.181488	145.880000
300.274658	146.180000
300.367828	146.200000
300.461029	146.160000
300.554199	146.500000
300.647400	146.760000
300.740601	147.080000
300.833771	146.580000
300.926971	146.600000
301.020142	146.060000
301.113342	145.940000
301.206512	145.780000
301.299713	146.480000
301.392914	146.060000
301.486084	146.140000
301.579285	146.440000
301.672516	146.780000
301.765686	146.340000
301.858887	146.600000
301.952057	146.360000
302.045288	146.420000
302.138458	145.800000
302.231659	145.540000
302.324860	145.400000
302.418060	145.500000
302.511261	145.120000
302.604462	145.600000
302.697662	145.820000
302.790863	145.720000
302.884064	145.420000
302.977264	145.700000
303.070465	145.580000
303.163666	146.140000
303.256866	146.520000
303.350067	146.760000
303.443268	146.500000
303.536469	146.920000
303.629669	146.260000
303.722870	146.360000
303.816071	146.320000
303.909271	146.600000
304.002472	145.520000
304.095673	145.680000
304.188934	144.800000
304.282104	145.500000
304.375336	145.240000
304.468506	145.460000
304.561768	145.300000
304.654968	145.860000
304.748169	145.020000
304.841370	144.980000
304.934601	145.260000
305.027802	145.140000
305.121002	144.900000
305.214233	145.100000
305.307434	145.140000
305.400665	145.520000
305.493866	145.500000
