Model Number: SPM-002-B   
Serial Number: 70087108
Firmware Version: 004.15.4
Exposure Time: 100000.000000us
Data Taken on: 11-12-2020 18:50:47.798
Wavelength	Amplitude
221.570786	0.000000
221.663406	0.000000
221.756027	0.000000
221.848648	0.000000
221.941269	0.000000
222.033905	0.000000
222.126526	0.000000
222.219162	0.000000
222.311798	0.000000
222.404419	0.000000
222.497055	0.000000
222.589676	0.000000
222.682312	0.000000
222.774933	0.000000
222.867569	0.000000
222.960205	0.000000
223.052841	0.000000
223.145462	0.000000
223.238098	0.000000
223.330734	0.000000
223.423386	0.000000
223.516022	0.000000
223.608658	0.000000
223.701309	0.000000
223.793945	0.000000
223.886581	0.000000
223.979218	0.000000
224.071869	0.000000
224.164505	0.000000
224.257156	0.000000
224.349792	0.000000
224.442444	0.000000
224.535095	0.000000
224.627747	0.000000
224.720398	0.000000
224.813034	0.000000
224.905685	0.000000
224.998337	145.240000
225.090988	144.980000
225.183640	145.000000
225.276291	145.020000
225.368942	145.580000
225.461594	146.380000
225.554245	146.400000
225.646912	146.180000
225.739578	146.800000
225.832230	147.380000
225.924896	146.400000
226.017548	146.860000
226.110199	147.560000
226.202866	146.560000
226.295532	146.160000
226.388184	146.340000
226.480850	145.900000
226.573517	145.280000
226.666168	145.800000
226.758835	145.960000
226.851501	146.500000
226.944183	146.660000
227.036850	146.180000
227.129517	145.920000
227.222183	145.900000
227.314850	145.700000
227.407516	145.760000
227.500198	146.760000
227.592865	146.560000
227.685532	146.160000
227.778214	145.820000
227.870880	145.780000
227.963562	145.980000
228.056229	146.760000
228.148926	146.600000
228.241592	147.440000
228.334274	147.300000
228.426956	146.680000
228.519638	146.440000
228.612305	146.480000
228.704987	146.240000
228.797668	146.460000
228.890350	146.560000
228.983032	145.800000
229.075714	146.460000
229.168396	146.080000
229.261108	145.620000
229.353790	145.720000
229.446472	146.360000
229.539169	145.800000
229.631851	145.640000
229.724533	146.160000
229.817230	146.220000
229.909912	147.040000
230.002609	147.380000
230.095306	147.500000
230.187988	147.140000
230.280685	147.080000
230.373383	145.940000
230.466095	145.780000
230.558792	146.200000
230.651474	146.500000
230.744171	146.560000
230.836868	146.660000
230.929581	147.020000
231.022278	146.980000
231.114975	147.100000
231.207672	146.780000
231.300369	146.900000
231.393082	146.600000
231.485779	146.280000
231.578506	145.820000
231.671204	146.220000
231.763916	146.400000
231.856613	146.420000
231.949326	146.600000
232.042023	146.620000
232.134735	146.160000
232.227448	146.020000
232.320160	146.560000
232.412872	146.500000
232.505585	147.380000
232.598297	147.960000
232.691010	147.620000
232.783722	146.880000
232.876450	147.140000
232.969162	146.580000
233.061874	146.160000
233.154587	146.100000
233.247314	146.420000
233.340027	146.080000
233.432739	146.280000
233.525467	146.120000
233.618179	146.520000
233.710907	146.000000
233.803635	146.480000
233.896347	146.280000
233.989090	147.120000
234.081818	146.740000
234.174545	147.080000
234.267258	146.440000
234.359985	146.340000
234.452713	145.860000
234.545441	146.000000
234.638168	145.800000
234.730896	146.540000
234.823639	146.560000
234.916367	147.140000
235.009094	147.220000
235.101822	147.660000
235.194580	147.120000
235.287308	147.220000
235.380051	146.320000
235.472778	146.620000
235.565521	146.840000
235.658249	146.380000
235.750992	146.340000
235.843719	146.620000
235.936462	146.780000
236.029205	146.020000
236.121948	146.200000
236.214691	146.440000
236.307449	147.020000
236.400192	146.520000
236.492935	146.300000
236.585678	146.420000
236.678421	146.260000
236.771164	145.840000
236.863907	146.380000
236.956665	147.200000
237.049408	148.640000
237.142151	148.340000
237.234909	148.860000
237.327652	148.580000
237.420410	147.800000
237.513153	146.940000
237.605927	146.960000
237.698669	146.580000
237.791428	146.300000
237.884186	146.900000
237.976944	146.420000
238.069702	146.440000
238.162445	145.680000
238.255203	145.800000
238.347961	145.980000
238.440720	145.920000
238.533478	145.960000
238.626266	146.260000
238.719025	146.340000
238.811783	146.340000
238.904541	146.440000
238.997314	146.460000
239.090073	146.080000
239.182831	146.380000
239.275604	146.600000
239.368362	146.460000
239.461136	146.660000
239.553909	146.820000
239.646667	146.340000
239.739441	146.320000
239.832214	146.560000
239.925003	146.480000
240.017761	147.180000
240.110535	147.900000
240.203308	147.220000
240.296082	147.340000
240.388855	147.400000
240.481628	147.480000
240.574417	147.340000
240.667191	147.720000
240.759964	147.480000
240.852737	147.280000
240.945526	146.660000
241.038315	146.720000
241.131088	146.540000
241.223877	146.760000
241.316650	146.560000
241.409439	147.040000
241.502228	146.080000
241.595001	146.500000
241.687790	146.400000
241.780579	146.420000
241.873367	146.360000
241.966141	147.200000
242.058929	146.680000
242.151718	146.680000
242.244507	147.240000
242.337311	146.660000
242.430099	146.840000
242.522903	146.900000
242.615692	146.580000
242.708481	146.560000
242.801270	147.260000
242.894073	147.000000
242.986862	147.160000
243.079651	147.620000
243.172455	147.100000
243.265244	146.900000
243.358063	146.400000
243.450867	146.500000
243.543655	146.180000
243.636459	146.460000
243.729263	146.300000
243.822067	146.480000
243.914856	146.760000
244.007660	147.200000
244.100464	147.380000
244.193268	147.380000
244.286072	147.280000
244.378876	146.840000
244.471680	146.560000
244.564499	146.760000
244.657318	147.420000
244.750122	147.880000
244.842926	147.520000
244.935745	147.880000
245.028549	147.520000
245.121368	146.860000
245.214172	146.820000
245.306992	147.620000
245.399796	147.020000
245.492615	146.800000
245.585434	147.100000
245.678253	146.480000
245.771072	145.880000
245.863892	146.260000
245.956711	146.440000
246.049530	145.980000
246.142349	146.260000
246.235168	146.480000
246.327988	146.880000
246.420807	146.660000
246.513626	147.100000
246.606445	147.060000
246.699280	147.060000
246.792099	146.240000
246.884918	146.040000
246.977753	145.480000
247.070587	145.500000
247.163422	145.660000
247.256241	146.240000
247.349075	146.460000
247.441895	146.500000
247.534729	146.680000
247.627563	146.480000
247.720383	147.000000
247.813217	147.020000
247.906052	147.240000
247.998886	147.200000
248.091736	147.020000
248.184570	146.340000
248.277405	146.500000
248.370239	147.060000
248.463074	147.960000
248.555908	148.200000
248.648743	148.120000
248.741592	148.220000
248.834427	147.800000
248.927261	146.660000
249.020111	146.940000
249.112946	147.420000
249.205795	147.040000
249.298630	146.760000
249.391495	146.580000
249.484344	146.060000
249.577179	145.660000
249.670029	146.100000
249.762878	146.960000
249.855728	147.240000
249.948563	147.460000
250.041412	147.100000
250.134262	147.260000
250.227112	147.040000
250.319962	147.280000
250.412827	147.320000
250.505692	147.080000
250.598541	146.700000
250.691391	146.040000
250.784241	145.840000
250.877106	145.860000
250.969955	145.740000
251.062805	146.260000
251.155670	146.880000
251.248520	146.760000
251.341385	147.080000
251.434235	147.560000
251.527100	146.920000
251.619965	146.420000
251.712814	147.220000
251.805695	146.780000
251.898560	146.800000
251.991425	147.640000
252.084290	148.060000
252.177155	147.380000
252.270020	147.420000
252.362885	147.300000
252.455750	146.800000
252.548615	146.260000
252.641479	146.440000
252.734360	146.340000
252.827240	146.240000
252.920105	146.120000
253.012970	145.940000
253.105850	145.680000
253.198715	145.360000
253.291595	145.700000
253.384460	145.560000
253.477341	145.700000
253.570221	145.640000
253.663086	145.280000
253.755966	145.680000
253.848846	145.880000
253.941727	146.140000
254.034592	146.280000
254.127472	146.540000
254.220367	146.160000
254.313248	146.420000
254.406128	146.120000
254.499008	146.340000
254.591904	147.200000
254.684784	147.660000
254.777664	147.100000
254.870544	146.820000
254.963440	146.620000
255.056335	146.240000
255.149216	145.700000
255.242111	146.380000
255.334991	146.720000
255.427887	146.780000
255.520767	146.720000
255.613663	146.980000
255.706558	146.380000
255.799438	146.380000
255.892334	146.120000
255.985229	146.280000
256.078125	146.340000
256.171021	146.540000
256.263916	146.840000
256.356812	147.140000
256.449707	147.040000
256.542603	146.720000
256.635498	147.240000
256.728394	146.840000
256.821289	146.760000
256.914215	146.940000
257.007080	147.100000
257.100006	146.780000
257.192932	147.540000
257.285828	147.460000
257.378723	147.160000
257.471619	147.260000
257.564545	146.940000
257.657440	146.620000
257.750336	147.160000
257.843262	147.080000
257.936157	147.920000
258.029053	148.200000
258.121979	148.440000
258.214874	147.920000
258.307800	147.900000
258.400696	146.880000
258.493622	146.960000
258.586517	146.320000
258.679443	146.500000
258.772339	146.100000
258.865265	146.080000
258.958160	145.760000
259.051086	146.560000
259.144012	146.260000
259.236938	147.220000
259.329834	147.080000
259.422791	147.060000
259.515717	146.280000
259.608612	146.060000
259.701538	145.800000
259.794464	146.000000
259.887390	146.160000
259.980316	146.140000
260.073212	146.340000
260.166138	145.620000
260.259064	145.780000
260.351990	146.200000
260.444916	146.380000
260.537842	146.840000
260.630768	147.880000
260.723694	147.620000
260.816620	147.080000
260.909546	146.940000
261.002472	146.320000
261.095398	145.640000
261.188354	145.500000
261.281281	145.060000
261.374207	145.340000
261.467133	146.360000
261.560089	146.620000
261.653015	146.700000
261.745972	147.640000
261.838867	147.760000
261.931824	147.600000
262.024780	147.020000
262.117706	147.180000
262.210663	147.220000
262.303589	147.120000
262.396515	146.940000
262.489471	148.200000
262.582397	148.020000
262.675354	147.100000
262.768280	147.160000
262.861237	147.360000
262.954163	146.820000
263.047119	147.040000
263.140045	147.140000
263.233002	147.000000
263.325958	146.660000
263.418884	146.060000
263.511841	146.160000
263.604797	146.600000
263.697723	146.620000
263.790680	146.460000
263.883636	147.020000
263.976593	146.720000
264.069550	146.440000
264.162476	146.160000
264.255463	146.440000
264.348419	146.120000
264.441376	146.280000
264.534332	146.040000
264.627289	146.120000
264.720245	146.600000
264.813202	146.360000
264.906158	146.520000
264.999115	147.220000
265.092072	147.420000
265.185028	147.620000
265.277985	148.100000
265.370941	148.060000
265.463898	147.640000
265.556854	147.400000
265.649811	146.160000
265.742798	145.980000
265.835754	145.880000
265.928711	146.400000
266.021667	146.340000
266.114655	146.660000
266.207611	147.180000
266.300568	146.560000
266.393585	145.700000
266.486511	146.320000
266.579498	145.760000
266.672485	145.180000
266.765442	145.480000
266.858429	146.500000
266.951385	145.960000
267.044342	146.440000
267.137329	146.420000
267.230316	146.800000
267.323273	146.260000
267.416260	146.880000
267.509216	146.520000
267.602203	146.660000
267.695160	146.860000
267.788147	146.860000
267.881134	146.180000
267.974091	146.600000
268.067078	146.100000
268.160065	145.760000
268.253052	145.320000
268.346008	145.500000
268.438995	145.460000
268.531982	146.060000
268.624969	146.180000
268.717987	146.640000
268.810944	146.540000
268.903961	146.580000
268.996948	145.860000
269.089905	146.080000
269.182892	146.200000
269.275879	146.420000
269.368866	146.100000
269.461853	146.780000
269.554871	146.340000
269.647858	146.040000
269.740845	146.660000
269.833832	147.100000
269.926819	146.920000
270.019806	147.280000
270.112793	147.060000
270.205811	146.800000
270.298798	146.560000
270.391785	147.220000
270.484772	146.800000
270.577789	147.280000
270.670776	146.700000
270.763763	146.580000
270.856750	146.340000
270.949768	146.180000
271.042786	145.900000
271.135773	146.120000
271.228790	146.360000
271.321808	145.640000
271.414795	145.580000
271.507782	145.440000
271.600800	145.060000
271.693817	145.180000
271.786804	145.780000
271.879822	146.220000
271.972809	146.400000
272.065826	147.020000
272.158844	146.520000
272.251831	146.760000
272.344849	146.600000
272.437866	146.120000
272.530853	146.120000
272.623871	146.240000
272.716888	145.280000
272.809906	145.400000
272.902893	145.960000
272.995911	145.200000
273.088928	145.380000
273.181946	145.700000
273.274963	145.500000
273.367981	145.400000
273.460999	145.940000
273.554047	146.400000
273.647003	147.080000
273.740051	147.320000
273.833069	147.420000
273.926086	147.800000
274.019135	147.360000
274.112152	146.840000
274.205170	146.560000
274.298187	146.740000
274.391205	145.880000
274.484222	146.020000
274.577240	146.240000
274.670258	146.180000
274.763306	145.900000
274.856323	146.280000
274.949341	146.280000
275.042358	146.580000
275.135406	146.980000
275.228424	146.980000
275.321442	147.100000
275.414490	146.880000
275.507507	146.780000
275.600525	147.000000
275.693573	146.880000
275.786591	146.560000
275.879669	147.060000
275.972656	146.860000
276.065735	146.400000
276.158752	146.960000
276.251801	147.880000
276.344818	147.620000
276.437866	147.600000
276.530884	147.480000
276.623932	146.660000
276.716980	146.460000
276.809998	146.460000
276.903046	146.580000
276.996094	147.640000
277.089111	148.420000
277.182159	148.640000
277.275208	148.440000
277.368256	148.400000
277.461304	147.780000
277.554321	146.860000
277.647369	146.580000
277.740417	146.520000
277.833466	146.480000
277.926514	146.380000
278.019562	147.100000
278.112610	146.400000
278.205688	146.720000
278.298706	146.740000
278.391785	146.480000
278.484833	146.260000
278.577881	146.480000
278.670929	146.340000
278.763977	146.300000
278.857025	146.680000
278.950073	146.640000
279.043121	146.420000
279.136169	146.220000
279.229248	146.280000
279.322296	145.960000
279.415344	145.580000
279.508392	145.560000
279.601440	145.620000
279.694519	145.140000
279.787567	145.160000
279.880615	145.520000
279.973694	145.640000
280.066742	145.640000
280.159790	145.900000
280.252869	145.480000
280.345917	145.660000
280.438995	145.780000
280.532074	145.780000
280.625122	146.200000
280.718201	147.580000
280.811279	147.280000
280.904327	147.240000
280.997406	147.680000
281.090454	147.280000
281.183533	146.300000
281.276581	146.460000
281.369659	146.140000
281.462738	146.040000
281.555786	146.480000
281.648865	146.540000
281.741943	146.380000
281.835022	147.280000
281.928070	146.840000
282.021149	146.320000
282.114227	146.500000
282.207306	146.520000
282.300385	146.500000
282.393433	147.060000
282.486511	147.140000
282.579590	147.360000
282.672668	147.840000
282.765747	147.200000
282.858856	146.480000
282.951904	147.060000
283.045013	147.320000
283.138062	147.360000
283.231171	147.700000
283.324249	148.340000
283.417328	148.120000
283.510406	147.660000
283.603485	147.360000
283.696564	147.240000
283.789642	147.160000
283.882751	146.700000
283.975830	147.120000
284.068909	146.860000
284.161987	147.380000
284.255066	146.980000
284.348175	147.380000
284.441254	146.780000
284.534332	147.220000
284.627441	146.720000
284.720520	146.560000
284.813599	146.400000
284.906708	146.660000
284.999786	146.040000
285.092896	145.600000
285.185974	146.700000
285.279053	146.380000
285.372192	146.460000
285.465240	147.440000
285.558380	147.480000
285.651459	146.760000
285.744568	147.880000
285.837677	147.440000
285.930756	147.260000
286.023865	147.440000
286.116943	147.120000
286.210052	146.580000
286.303162	146.820000
286.396240	146.520000
286.489349	146.340000
286.582458	146.880000
286.675568	146.480000
286.768646	146.260000
286.861755	146.680000
286.954865	147.480000
287.047974	146.640000
287.141083	146.740000
287.234161	146.840000
287.327271	146.240000
287.420380	146.280000
287.513519	146.320000
287.606598	146.380000
287.699738	146.340000
287.792816	146.380000
287.885956	146.340000
287.979034	146.940000
288.072174	146.680000
288.165283	146.600000
288.258392	146.780000
288.351501	145.700000
288.444611	145.700000
288.537720	146.320000
288.630859	146.280000
288.723969	146.300000
288.817078	147.120000
288.910187	147.160000
289.003296	146.600000
289.096436	146.500000
289.189545	146.340000
289.282654	145.880000
289.375763	146.000000
289.468903	146.420000
289.562012	146.600000
289.655121	146.780000
289.748260	147.200000
289.841400	147.480000
289.934509	147.260000
290.027649	147.540000
290.120728	147.280000
290.213898	147.100000
290.306976	146.740000
290.400146	146.920000
290.493256	146.440000
290.586395	146.700000
290.679535	147.060000
290.772644	146.600000
290.865784	145.740000
290.958893	145.900000
291.052032	145.920000
291.145172	145.540000
291.238281	145.740000
291.331421	146.360000
291.424561	146.700000
291.517670	146.160000
291.610809	146.720000
291.703949	146.400000
291.797089	146.440000
291.890228	146.000000
291.983337	146.260000
292.076477	145.660000
292.169617	146.420000
292.262756	146.640000
292.355927	146.840000
292.449036	146.640000
292.542206	146.920000
292.635315	146.880000
292.728485	146.840000
292.821625	146.520000
292.914764	148.000000
293.007904	147.900000
293.101044	147.540000
293.194183	147.620000
293.287323	147.740000
293.380463	146.600000
293.473602	146.300000
293.566742	146.680000
293.659882	146.720000
293.753021	147.100000
293.846191	147.060000
293.939331	146.900000
294.032471	146.460000
294.125610	146.280000
294.218781	146.600000
294.311920	147.100000
294.405060	147.600000
294.498230	147.600000
294.591370	147.600000
294.684540	146.820000
294.777679	146.320000
294.870850	146.800000
294.963959	146.880000
295.057159	146.520000
295.150299	146.820000
295.243469	146.840000
295.336609	145.740000
295.429779	146.120000
295.522919	146.600000
295.616089	146.440000
295.709229	146.920000
295.802399	147.620000
295.895569	147.040000
295.988708	146.420000
296.081879	146.680000
296.175018	145.980000
296.268188	145.640000
296.361359	146.160000
296.454529	146.540000
296.547668	146.240000
296.640839	146.780000
296.734009	146.580000
296.827179	146.600000
296.920319	146.800000
297.013519	146.780000
297.106659	146.780000
297.199860	146.920000
297.292999	146.520000
297.386200	146.340000
297.479309	146.240000
297.572510	146.020000
297.665680	145.720000
297.758850	145.820000
297.852020	145.540000
297.945190	145.460000
298.038361	145.180000
298.131531	146.340000
298.224701	146.360000
298.317871	146.340000
298.411072	146.120000
298.504242	145.980000
298.597412	145.060000
298.690582	145.180000
298.783752	145.160000
298.876923	145.840000
298.970093	146.240000
299.063293	146.660000
299.156464	147.140000
299.249634	147.620000
299.342834	147.680000
299.436005	147.880000
299.529205	147.760000
299.622345	147.420000
299.715576	146.660000
299.808716	146.240000
299.901917	145.940000
299.995117	145.900000
300.088287	145.980000
300.181488	146.100000
300.274658	146.120000
300.367828	146.340000
300.461029	146.260000
300.554199	146.220000
300.647400	146.440000
300.740601	146.920000
300.833771	146.720000
300.926971	147.040000
301.020142	146.680000
301.113342	146.740000
301.206512	146.120000
301.299713	146.320000
301.392914	146.200000
301.486084	146.680000
301.579285	146.840000
301.672516	147.720000
301.765686	147.840000
301.858887	147.780000
301.952057	147.580000
302.045288	147.320000
302.138458	146.800000
302.231659	146.480000
302.324860	146.200000
302.418060	145.560000
302.511261	145.600000
302.604462	146.040000
302.697662	145.660000
302.790863	145.740000
302.884064	145.880000
302.977264	145.940000
303.070465	146.020000
303.163666	146.860000
303.256866	146.940000
303.350067	147.220000
303.443268	147.120000
303.536469	146.920000
303.629669	146.340000
303.722870	146.420000
303.816071	146.260000
303.909271	146.460000
304.002472	145.760000
304.095673	145.600000
304.188934	145.040000
304.282104	146.000000
304.375336	145.900000
304.468506	146.000000
304.561768	145.720000
304.654968	146.520000
304.748169	145.660000
304.841370	145.460000
304.934601	146.040000
305.027802	146.160000
305.121002	145.740000
305.214233	146.040000
305.307434	146.100000
305.400665	146.460000
305.493866	146.560000
