Model Number: SPM-002-B   
Serial Number: 70087108
Firmware Version: 004.15.4
Exposure Time: 100000.000000us
Data Taken on: 11-12-2020 18:50:53.299
Wavelength	Amplitude
221.570786	0.000000
221.663406	0.000000
221.756027	0.000000
221.848648	0.000000
221.941269	0.000000
222.033905	0.000000
222.126526	0.000000
222.219162	0.000000
222.311798	0.000000
222.404419	0.000000
222.497055	0.000000
222.589676	0.000000
222.682312	0.000000
222.774933	0.000000
222.867569	0.000000
222.960205	0.000000
223.052841	0.000000
223.145462	0.000000
223.238098	0.000000
223.330734	0.000000
223.423386	0.000000
223.516022	0.000000
223.608658	0.000000
223.701309	0.000000
223.793945	0.000000
223.886581	0.000000
223.979218	0.000000
224.071869	0.000000
224.164505	0.000000
224.257156	0.000000
224.349792	0.000000
224.442444	0.000000
224.535095	0.000000
224.627747	0.000000
224.720398	0.000000
224.813034	0.000000
224.905685	0.000000
224.998337	145.000000
225.090988	144.700000
225.183640	144.680000
225.276291	144.420000
225.368942	144.620000
225.461594	145.300000
225.554245	145.620000
225.646912	145.720000
225.739578	146.120000
225.832230	146.380000
225.924896	145.400000
226.017548	145.720000
226.110199	146.100000
226.202866	145.280000
226.295532	145.060000
226.388184	145.180000
226.480850	144.460000
226.573517	144.120000
226.666168	144.720000
226.758835	144.900000
226.851501	145.660000
226.944183	146.260000
227.036850	145.820000
227.129517	145.560000
227.222183	145.620000
227.314850	145.220000
227.407516	145.300000
227.500198	146.220000
227.592865	146.040000
227.685532	145.680000
227.778214	145.760000
227.870880	145.880000
227.963562	146.460000
228.056229	146.720000
228.148926	146.740000
228.241592	147.180000
228.334274	146.720000
228.426956	145.960000
228.519638	146.220000
228.612305	145.740000
228.704987	145.500000
228.797668	145.680000
228.890350	145.500000
228.983032	144.600000
229.075714	145.600000
229.168396	145.240000
229.261108	144.680000
229.353790	144.500000
229.446472	145.220000
229.539169	144.720000
229.631851	144.280000
229.724533	144.780000
229.817230	145.160000
229.909912	145.860000
230.002609	145.920000
230.095306	146.140000
230.187988	146.100000
230.280685	145.860000
230.373383	144.800000
230.466095	144.800000
230.558792	145.160000
230.651474	145.200000
230.744171	144.980000
230.836868	145.040000
230.929581	145.400000
231.022278	145.480000
231.114975	145.560000
231.207672	145.460000
231.300369	146.000000
231.393082	145.940000
231.485779	145.740000
231.578506	145.640000
231.671204	146.060000
231.763916	145.900000
231.856613	145.800000
231.949326	146.000000
232.042023	146.040000
232.134735	145.920000
232.227448	145.560000
232.320160	145.500000
232.412872	145.420000
232.505585	146.340000
232.598297	146.640000
232.691010	146.620000
232.783722	146.300000
232.876450	146.500000
232.969162	145.600000
233.061874	144.940000
233.154587	144.800000
233.247314	145.400000
233.340027	144.880000
233.432739	145.320000
233.525467	145.260000
233.618179	145.860000
233.710907	145.240000
233.803635	145.840000
233.896347	145.460000
233.989090	146.540000
234.081818	146.360000
234.174545	146.660000
234.267258	145.920000
234.359985	146.080000
234.452713	145.740000
234.545441	145.300000
234.638168	145.200000
234.730896	145.720000
234.823639	145.620000
234.916367	145.560000
235.009094	145.960000
235.101822	146.160000
235.194580	145.920000
235.287308	145.820000
235.380051	145.320000
235.472778	145.460000
235.565521	145.360000
235.658249	145.260000
235.750992	145.320000
235.843719	145.300000
235.936462	145.240000
236.029205	144.980000
236.121948	145.000000
236.214691	145.200000
236.307449	145.920000
236.400192	145.620000
236.492935	145.820000
236.585678	146.020000
236.678421	145.880000
236.771164	145.700000
236.863907	146.440000
236.956665	146.500000
237.049408	147.920000
237.142151	147.580000
237.234909	147.960000
237.327652	147.480000
237.420410	147.420000
237.513153	146.180000
237.605927	146.340000
237.698669	145.820000
237.791428	145.380000
237.884186	145.520000
237.976944	145.120000
238.069702	145.300000
238.162445	145.060000
238.255203	145.440000
238.347961	145.760000
238.440720	145.860000
238.533478	145.840000
238.626266	145.500000
238.719025	145.640000
238.811783	145.140000
238.904541	145.140000
238.997314	145.080000
239.090073	145.300000
239.182831	145.580000
239.275604	146.360000
239.368362	146.280000
239.461136	145.880000
239.553909	145.980000
239.646667	145.540000
239.739441	145.080000
239.832214	145.460000
239.925003	145.920000
240.017761	146.460000
240.110535	147.000000
240.203308	146.620000
240.296082	146.460000
240.388855	146.440000
240.481628	146.260000
240.574417	145.900000
240.667191	146.160000
240.759964	145.860000
240.852737	145.540000
240.945526	145.220000
241.038315	145.040000
241.131088	145.200000
241.223877	145.500000
241.316650	145.320000
241.409439	145.700000
241.502228	145.620000
241.595001	145.860000
241.687790	145.760000
241.780579	146.120000
241.873367	145.960000
241.966141	146.420000
242.058929	145.960000
242.151718	146.300000
242.244507	146.300000
242.337311	145.600000
242.430099	146.000000
242.522903	146.040000
242.615692	145.380000
242.708481	145.740000
242.801270	146.760000
242.894073	146.220000
242.986862	146.480000
243.079651	147.160000
243.172455	146.700000
243.265244	146.920000
243.358063	146.460000
243.450867	146.640000
243.543655	146.680000
243.636459	146.900000
243.729263	146.360000
243.822067	146.740000
243.914856	146.700000
244.007660	146.640000
244.100464	146.460000
244.193268	146.060000
244.286072	145.840000
244.378876	145.220000
244.471680	144.780000
244.564499	144.980000
244.657318	145.900000
244.750122	146.280000
244.842926	145.820000
244.935745	146.420000
245.028549	146.080000
245.121368	145.320000
245.214172	145.160000
245.306992	146.100000
245.399796	145.640000
245.492615	145.900000
245.585434	146.120000
245.678253	146.140000
245.771072	145.740000
245.863892	146.060000
245.956711	146.240000
246.049530	145.980000
246.142349	145.480000
246.235168	145.580000
246.327988	146.040000
246.420807	145.820000
246.513626	145.960000
246.606445	146.260000
246.699280	146.280000
246.792099	145.700000
246.884918	145.480000
246.977753	145.200000
247.070587	145.260000
247.163422	145.560000
247.256241	145.320000
247.349075	145.580000
247.441895	145.580000
247.534729	145.540000
247.627563	144.820000
247.720383	145.500000
247.813217	145.540000
247.906052	145.680000
247.998886	145.540000
248.091736	145.680000
248.184570	145.140000
248.277405	145.220000
248.370239	145.900000
248.463074	146.800000
248.555908	147.160000
248.648743	146.940000
248.741592	146.940000
248.834427	146.360000
248.927261	145.260000
249.020111	145.500000
249.112946	146.280000
249.205795	145.740000
249.298630	145.780000
249.391495	146.080000
249.484344	145.820000
249.577179	145.420000
249.670029	145.960000
249.762878	146.600000
249.855728	146.740000
249.948563	146.780000
250.041412	146.280000
250.134262	146.320000
250.227112	146.320000
250.319962	146.380000
250.412827	146.340000
250.505692	146.220000
250.598541	146.120000
250.691391	145.240000
250.784241	145.080000
250.877106	145.060000
250.969955	145.080000
251.062805	145.520000
251.155670	146.220000
251.248520	146.180000
251.341385	146.480000
251.434235	146.580000
251.527100	146.080000
251.619965	145.600000
251.712814	146.360000
251.805695	146.180000
251.898560	146.640000
251.991425	146.800000
252.084290	147.020000
252.177155	146.240000
252.270020	146.100000
252.362885	145.680000
252.455750	145.620000
252.548615	145.260000
252.641479	145.220000
252.734360	144.980000
252.827240	145.040000
252.920105	145.360000
253.012970	145.400000
253.105850	145.380000
253.198715	145.180000
253.291595	145.340000
253.384460	144.660000
253.477341	144.800000
253.570221	144.980000
253.663086	144.880000
253.755966	145.360000
253.848846	145.540000
253.941727	145.600000
254.034592	145.380000
254.127472	145.060000
254.220367	144.780000
254.313248	144.980000
254.406128	144.700000
254.499008	145.020000
254.591904	146.340000
254.684784	146.860000
254.777664	146.660000
254.870544	146.180000
254.963440	146.200000
255.056335	146.020000
255.149216	145.460000
255.242111	146.080000
255.334991	147.040000
255.427887	146.840000
255.520767	146.740000
255.613663	146.940000
255.706558	146.300000
255.799438	146.100000
255.892334	145.880000
255.985229	145.480000
256.078125	145.460000
256.171021	145.820000
256.263916	146.120000
256.356812	146.460000
256.449707	146.580000
256.542603	146.300000
256.635498	146.720000
256.728394	146.420000
256.821289	146.280000
256.914215	146.460000
257.007080	146.840000
257.100006	146.460000
257.192932	146.720000
257.285828	147.000000
257.378723	146.760000
257.471619	146.280000
257.564545	146.000000
257.657440	146.180000
257.750336	146.620000
257.843262	146.560000
257.936157	147.760000
258.029053	148.180000
258.121979	147.860000
258.214874	147.140000
258.307800	146.860000
258.400696	145.480000
258.493622	145.100000
258.586517	144.620000
258.679443	144.900000
258.772339	145.020000
258.865265	145.360000
258.958160	145.140000
259.051086	145.780000
259.144012	145.640000
259.236938	146.560000
259.329834	146.520000
259.422791	146.500000
259.515717	145.820000
259.608612	145.400000
259.701538	145.140000
259.794464	145.100000
259.887390	144.860000
259.980316	145.140000
260.073212	145.280000
260.166138	144.400000
260.259064	144.860000
260.351990	145.440000
260.444916	145.340000
260.537842	145.620000
260.630768	146.300000
260.723694	145.840000
260.816620	145.840000
260.909546	146.240000
261.002472	146.020000
261.095398	145.640000
261.188354	145.620000
261.281281	145.260000
261.374207	144.900000
261.467133	145.700000
261.560089	146.240000
261.653015	146.100000
261.745972	147.060000
261.838867	147.680000
261.931824	147.580000
262.024780	147.000000
262.117706	147.460000
262.210663	146.920000
262.303589	146.420000
262.396515	146.140000
262.489471	146.740000
262.582397	146.540000
262.675354	146.460000
262.768280	146.680000
262.861237	146.420000
262.954163	146.480000
263.047119	146.480000
263.140045	146.040000
263.233002	145.860000
263.325958	146.040000
263.418884	145.240000
263.511841	145.120000
263.604797	145.280000
263.697723	145.120000
263.790680	145.060000
263.883636	145.960000
263.976593	145.920000
264.069550	146.320000
264.162476	146.280000
264.255463	146.560000
264.348419	145.780000
264.441376	146.140000
264.534332	145.300000
264.627289	145.380000
264.720245	145.700000
264.813202	145.820000
264.906158	145.760000
264.999115	146.420000
265.092072	146.380000
265.185028	146.600000
265.277985	146.780000
265.370941	146.640000
265.463898	146.680000
265.556854	146.580000
265.649811	145.600000
265.742798	145.240000
265.835754	145.280000
265.928711	145.400000
266.021667	145.520000
266.114655	145.760000
266.207611	146.360000
266.300568	145.960000
266.393585	145.520000
266.486511	146.020000
266.579498	145.160000
266.672485	144.720000
266.765442	144.680000
266.858429	145.180000
266.951385	144.260000
267.044342	144.740000
267.137329	145.080000
267.230316	145.420000
267.323273	144.980000
267.416260	146.160000
267.509216	145.980000
267.602203	145.580000
267.695160	146.160000
267.788147	146.240000
267.881134	145.400000
267.974091	145.900000
268.067078	145.940000
268.160065	145.520000
268.253052	145.300000
268.346008	145.420000
268.438995	144.900000
268.531982	145.040000
268.624969	144.780000
268.717987	145.600000
268.810944	145.600000
268.903961	145.800000
268.996948	145.740000
269.089905	146.100000
269.182892	145.760000
269.275879	146.200000
269.368866	145.960000
269.461853	145.900000
269.554871	145.580000
269.647858	145.320000
269.740845	145.420000
269.833832	145.820000
269.926819	145.760000
270.019806	145.960000
270.112793	145.760000
270.205811	145.560000
270.298798	145.440000
270.391785	146.080000
270.484772	145.720000
270.577789	145.960000
270.670776	145.480000
270.763763	145.520000
270.856750	144.980000
270.949768	145.040000
271.042786	145.020000
271.135773	145.320000
271.228790	145.740000
271.321808	145.600000
271.414795	145.400000
271.507782	145.060000
271.600800	144.660000
271.693817	144.360000
271.786804	144.900000
271.879822	145.400000
271.972809	145.440000
272.065826	146.180000
272.158844	145.840000
272.251831	146.200000
272.344849	146.040000
272.437866	145.920000
272.530853	145.760000
272.623871	146.120000
272.716888	145.180000
272.809906	145.420000
272.902893	145.380000
272.995911	144.620000
273.088928	144.580000
273.181946	144.840000
273.274963	144.380000
273.367981	144.640000
273.460999	145.180000
273.554047	145.500000
273.647003	146.080000
273.740051	146.080000
273.833069	146.560000
273.926086	146.720000
274.019135	146.220000
274.112152	145.800000
274.205170	146.020000
274.298187	146.020000
274.391205	145.580000
274.484222	145.660000
274.577240	145.660000
274.670258	145.440000
274.763306	145.340000
274.856323	145.820000
274.949341	146.200000
275.042358	146.520000
275.135406	146.620000
275.228424	146.320000
275.321442	146.160000
275.414490	145.440000
275.507507	145.600000
275.600525	146.160000
275.693573	146.140000
275.786591	145.800000
275.879669	146.460000
275.972656	146.020000
276.065735	145.960000
276.158752	146.420000
276.251801	147.500000
276.344818	147.580000
276.437866	147.520000
276.530884	147.240000
276.623932	146.420000
276.716980	145.800000
276.809998	145.640000
276.903046	145.700000
276.996094	146.280000
277.089111	147.300000
277.182159	147.540000
277.275208	147.320000
277.368256	147.320000
277.461304	146.820000
277.554321	145.920000
277.647369	145.920000
277.740417	146.060000
277.833466	145.880000
277.926514	145.820000
278.019562	146.440000
278.112610	145.980000
278.205688	146.180000
278.298706	146.440000
278.391785	146.500000
278.484833	145.940000
278.577881	145.720000
278.670929	145.620000
278.763977	145.360000
278.857025	145.820000
278.950073	145.900000
279.043121	145.700000
279.136169	145.520000
279.229248	145.220000
279.322296	144.720000
279.415344	144.440000
279.508392	144.600000
279.601440	144.460000
279.694519	144.900000
279.787567	144.880000
279.880615	145.240000
279.973694	145.300000
280.066742	145.600000
280.159790	145.880000
280.252869	145.440000
280.345917	145.500000
280.438995	145.360000
280.532074	145.000000
280.625122	144.980000
280.718201	146.020000
280.811279	146.080000
280.904327	146.020000
280.997406	146.420000
281.090454	146.220000
281.183533	145.240000
281.276581	145.080000
281.369659	145.420000
281.462738	145.640000
281.555786	145.720000
281.648865	146.160000
281.741943	146.080000
281.835022	146.560000
281.928070	146.160000
282.021149	145.940000
282.114227	145.400000
282.207306	145.600000
282.300385	145.440000
282.393433	145.640000
282.486511	145.700000
282.579590	146.480000
282.672668	146.580000
282.765747	146.120000
282.858856	145.540000
282.951904	145.620000
283.045013	145.420000
283.138062	145.520000
283.231171	145.940000
283.324249	146.440000
283.417328	146.100000
283.510406	145.820000
283.603485	145.640000
283.696564	145.520000
283.789642	145.640000
283.882751	145.620000
283.975830	146.260000
284.068909	145.860000
284.161987	146.320000
284.255066	145.900000
284.348175	146.220000
284.441254	145.880000
284.534332	146.860000
284.627441	146.340000
284.720520	146.040000
284.813599	146.000000
284.906708	146.040000
284.999786	145.060000
285.092896	144.800000
285.185974	146.020000
285.279053	145.460000
285.372192	145.380000
285.465240	145.960000
285.558380	146.200000
285.651459	145.560000
285.744568	146.600000
285.837677	146.300000
285.930756	146.120000
286.023865	145.980000
286.116943	145.620000
286.210052	145.540000
286.303162	145.520000
286.396240	145.540000
286.489349	145.480000
286.582458	145.880000
286.675568	145.640000
286.768646	145.660000
286.861755	145.820000
286.954865	146.280000
287.047974	145.640000
287.141083	145.320000
287.234161	145.080000
287.327271	145.280000
287.420380	145.500000
287.513519	145.760000
287.606598	146.120000
287.699738	146.560000
287.792816	146.400000
287.885956	146.040000
287.979034	146.160000
288.072174	145.920000
288.165283	145.660000
288.258392	145.620000
288.351501	145.080000
288.444611	145.020000
288.537720	145.400000
288.630859	145.520000
288.723969	145.500000
288.817078	146.120000
288.910187	146.340000
289.003296	145.860000
289.096436	145.520000
289.189545	145.580000
289.282654	145.280000
289.375763	145.500000
289.468903	145.900000
289.562012	146.520000
289.655121	146.240000
289.748260	146.420000
289.841400	146.560000
289.934509	146.400000
290.027649	146.340000
290.120728	146.360000
290.213898	146.460000
290.306976	146.000000
290.400146	146.100000
290.493256	145.720000
290.586395	145.900000
290.679535	146.060000
290.772644	145.960000
290.865784	145.280000
290.958893	145.520000
291.052032	145.300000
291.145172	144.960000
291.238281	144.940000
291.331421	145.180000
291.424561	145.420000
291.517670	145.340000
291.610809	145.560000
291.703949	145.460000
291.797089	145.980000
291.890228	145.700000
291.983337	146.040000
292.076477	145.800000
292.169617	146.320000
292.262756	145.980000
292.355927	145.980000
292.449036	145.660000
292.542206	145.840000
292.635315	145.840000
292.728485	146.240000
292.821625	145.580000
292.914764	146.360000
293.007904	146.380000
293.101044	146.300000
293.194183	145.860000
293.287323	146.520000
293.380463	145.760000
293.473602	145.200000
293.566742	145.620000
293.659882	146.120000
293.753021	146.280000
293.846191	146.440000
293.939331	146.520000
294.032471	145.720000
294.125610	145.200000
294.218781	145.420000
294.311920	145.920000
294.405060	146.100000
294.498230	146.240000
294.591370	146.440000
294.684540	145.740000
294.777679	145.100000
294.870850	145.500000
294.963959	145.500000
295.057159	145.080000
295.150299	145.580000
295.243469	145.540000
295.336609	145.160000
295.429779	145.280000
295.522919	145.660000
295.616089	145.360000
295.709229	145.860000
295.802399	145.740000
295.895569	145.220000
295.988708	145.040000
296.081879	145.280000
296.175018	144.600000
296.268188	144.660000
296.361359	145.320000
296.454529	145.500000
296.547668	145.260000
296.640839	145.740000
296.734009	145.540000
296.827179	145.620000
296.920319	145.840000
297.013519	145.780000
297.106659	146.000000
297.199860	146.260000
297.292999	146.080000
297.386200	145.660000
297.479309	145.680000
297.572510	145.480000
297.665680	145.400000
297.758850	145.160000
297.852020	145.180000
297.945190	145.120000
298.038361	144.920000
298.131531	145.800000
298.224701	145.700000
298.317871	145.560000
298.411072	145.220000
298.504242	144.980000
298.597412	144.220000
298.690582	144.660000
298.783752	144.600000
298.876923	145.160000
298.970093	145.260000
299.063293	145.720000
299.156464	145.940000
299.249634	146.460000
299.342834	146.420000
299.436005	147.020000
299.529205	146.620000
299.622345	146.620000
299.715576	145.960000
299.808716	145.940000
299.901917	145.760000
299.995117	146.020000
300.088287	145.900000
300.181488	145.900000
300.274658	145.800000
300.367828	145.860000
300.461029	145.640000
300.554199	145.900000
300.647400	146.220000
300.740601	146.760000
300.833771	146.540000
300.926971	146.940000
301.020142	146.240000
301.113342	146.220000
301.206512	146.020000
301.299713	145.960000
301.392914	145.760000
301.486084	146.180000
301.579285	146.120000
301.672516	146.360000
301.765686	146.340000
301.858887	146.100000
301.952057	145.900000
302.045288	146.000000
302.138458	145.680000
302.231659	145.380000
302.324860	145.460000
302.418060	145.440000
302.511261	145.220000
302.604462	145.620000
302.697662	145.880000
302.790863	145.840000
302.884064	145.320000
302.977264	145.220000
303.070465	145.200000
303.163666	145.800000
303.256866	146.040000
303.350067	146.380000
303.443268	146.800000
303.536469	146.840000
303.629669	146.340000
303.722870	146.440000
303.816071	146.180000
303.909271	146.160000
304.002472	145.040000
304.095673	144.900000
304.188934	144.200000
304.282104	145.500000
304.375336	145.300000
304.468506	145.620000
304.561768	145.280000
304.654968	145.860000
304.748169	145.140000
304.841370	145.180000
304.934601	145.640000
305.027802	145.920000
305.121002	145.500000
305.214233	145.320000
305.307434	145.360000
305.400665	146.080000
305.493866	146.000000
