Model Number: SPM-002-B   
Serial Number: 70087108
Firmware Version: 004.15.4
Exposure Time: 100000.000000us
Data Taken on: 11-12-2020 18:50:58.482
Wavelength	Amplitude
221.570786	0.000000
221.663406	0.000000
221.756027	0.000000
221.848648	0.000000
221.941269	0.000000
222.033905	0.000000
222.126526	0.000000
222.219162	0.000000
222.311798	0.000000
222.404419	0.000000
222.497055	0.000000
222.589676	0.000000
222.682312	0.000000
222.774933	0.000000
222.867569	0.000000
222.960205	0.000000
223.052841	0.000000
223.145462	0.000000
223.238098	0.000000
223.330734	0.000000
223.423386	0.000000
223.516022	0.000000
223.608658	0.000000
223.701309	0.000000
223.793945	0.000000
223.886581	0.000000
223.979218	0.000000
224.071869	0.000000
224.164505	0.000000
224.257156	0.000000
224.349792	0.000000
224.442444	0.000000
224.535095	0.000000
224.627747	0.000000
224.720398	0.000000
224.813034	0.000000
224.905685	0.000000
224.998337	145.000000
225.090988	144.640000
225.183640	144.440000
225.276291	144.460000
225.368942	144.560000
225.461594	145.140000
225.554245	145.620000
225.646912	145.720000
225.739578	145.980000
225.832230	146.400000
225.924896	145.760000
226.017548	145.880000
226.110199	146.140000
226.202866	145.620000
226.295532	145.460000
226.388184	145.480000
226.480850	144.900000
226.573517	144.420000
226.666168	144.780000
226.758835	145.120000
226.851501	145.380000
226.944183	145.660000
227.036850	145.740000
227.129517	145.680000
227.222183	145.680000
227.314850	145.700000
227.407516	145.720000
227.500198	146.300000
227.592865	145.820000
227.685532	145.320000
227.778214	145.300000
227.870880	145.760000
227.963562	146.180000
228.056229	146.820000
228.148926	146.800000
228.241592	147.580000
228.334274	147.000000
228.426956	146.200000
228.519638	146.020000
228.612305	145.760000
228.704987	145.140000
228.797668	145.400000
228.890350	145.300000
228.983032	144.740000
229.075714	145.600000
229.168396	145.420000
229.261108	145.000000
229.353790	145.240000
229.446472	145.760000
229.539169	145.220000
229.631851	144.940000
229.724533	145.240000
229.817230	145.400000
229.909912	146.500000
230.002609	146.400000
230.095306	146.340000
230.187988	146.100000
230.280685	145.800000
230.373383	144.380000
230.466095	144.580000
230.558792	144.920000
230.651474	145.060000
230.744171	145.100000
230.836868	145.260000
230.929581	145.320000
231.022278	145.320000
231.114975	145.440000
231.207672	145.020000
231.300369	145.480000
231.393082	145.460000
231.485779	145.220000
231.578506	145.280000
231.671204	146.040000
231.763916	145.740000
231.856613	145.860000
231.949326	146.340000
232.042023	146.040000
232.134735	145.360000
232.227448	145.140000
232.320160	145.500000
232.412872	145.280000
232.505585	145.920000
232.598297	146.520000
232.691010	146.460000
232.783722	145.780000
232.876450	146.220000
232.969162	145.640000
233.061874	145.200000
233.154587	144.780000
233.247314	144.920000
233.340027	144.140000
233.432739	144.520000
233.525467	144.380000
233.618179	145.020000
233.710907	144.660000
233.803635	145.560000
233.896347	145.440000
233.989090	146.140000
234.081818	146.200000
234.174545	146.580000
234.267258	145.800000
234.359985	145.940000
234.452713	145.740000
234.545441	145.680000
234.638168	145.640000
234.730896	146.220000
234.823639	145.940000
234.916367	146.160000
235.009094	146.020000
235.101822	145.940000
235.194580	145.680000
235.287308	145.660000
235.380051	144.880000
235.472778	145.060000
235.565521	145.280000
235.658249	144.980000
235.750992	145.060000
235.843719	145.400000
235.936462	145.600000
236.029205	145.340000
236.121948	145.120000
236.214691	145.340000
236.307449	146.040000
236.400192	145.740000
236.492935	145.820000
236.585678	146.100000
236.678421	145.840000
236.771164	145.260000
236.863907	145.780000
236.956665	145.860000
237.049408	147.440000
237.142151	147.340000
237.234909	148.100000
237.327652	147.680000
237.420410	147.460000
237.513153	146.380000
237.605927	146.600000
237.698669	145.860000
237.791428	145.540000
237.884186	145.840000
237.976944	145.280000
238.069702	145.440000
238.162445	144.980000
238.255203	145.060000
238.347961	145.420000
238.440720	145.400000
238.533478	145.280000
238.626266	145.400000
238.719025	145.720000
238.811783	145.380000
238.904541	145.420000
238.997314	145.060000
239.090073	145.080000
239.182831	145.500000
239.275604	146.200000
239.368362	146.140000
239.461136	146.420000
239.553909	146.240000
239.646667	145.500000
239.739441	144.740000
239.832214	145.020000
239.925003	144.900000
240.017761	145.700000
240.110535	146.320000
240.203308	146.020000
240.296082	146.060000
240.388855	145.960000
240.481628	145.780000
240.574417	145.600000
240.667191	145.760000
240.759964	145.380000
240.852737	145.640000
240.945526	145.320000
241.038315	145.140000
241.131088	145.380000
241.223877	145.900000
241.316650	145.260000
241.409439	145.560000
241.502228	145.100000
241.595001	145.600000
241.687790	145.260000
241.780579	145.740000
241.873367	145.840000
241.966141	146.340000
242.058929	145.420000
242.151718	145.360000
242.244507	145.640000
242.337311	144.880000
242.430099	145.360000
242.522903	146.080000
242.615692	145.760000
242.708481	145.860000
242.801270	146.800000
242.894073	146.140000
242.986862	145.860000
243.079651	146.760000
243.172455	146.140000
243.265244	146.040000
243.358063	145.800000
243.450867	146.100000
243.543655	145.600000
243.636459	145.940000
243.729263	146.060000
243.822067	146.520000
243.914856	146.620000
244.007660	147.100000
244.100464	147.020000
244.193268	146.440000
244.286072	146.320000
244.378876	145.720000
244.471680	145.180000
244.564499	145.440000
244.657318	146.240000
244.750122	146.520000
244.842926	146.160000
244.935745	146.760000
245.028549	146.240000
245.121368	145.620000
245.214172	145.360000
245.306992	146.020000
245.399796	145.360000
245.492615	145.460000
245.585434	145.220000
245.678253	145.000000
245.771072	144.700000
245.863892	145.200000
245.956711	145.620000
246.049530	145.780000
246.142349	145.940000
246.235168	145.980000
246.327988	146.220000
246.420807	145.900000
246.513626	145.800000
246.606445	145.620000
246.699280	145.780000
246.792099	145.220000
246.884918	144.640000
246.977753	144.600000
247.070587	144.720000
247.163422	144.800000
247.256241	144.860000
247.349075	145.740000
247.441895	145.660000
247.534729	145.740000
247.627563	145.280000
247.720383	145.860000
247.813217	145.420000
247.906052	145.300000
247.998886	145.440000
248.091736	145.660000
248.184570	144.980000
248.277405	145.040000
248.370239	146.320000
248.463074	146.900000
248.555908	147.020000
248.648743	147.120000
248.741592	147.100000
248.834427	146.000000
248.927261	144.800000
249.020111	144.980000
249.112946	145.580000
249.205795	145.440000
249.298630	145.600000
249.391495	146.040000
249.484344	145.680000
249.577179	145.300000
249.670029	145.620000
249.762878	146.120000
249.855728	146.040000
249.948563	146.040000
250.041412	145.440000
250.134262	145.600000
250.227112	145.400000
250.319962	145.520000
250.412827	145.580000
250.505692	145.520000
250.598541	145.300000
250.691391	144.940000
250.784241	144.980000
250.877106	145.260000
250.969955	145.360000
251.062805	146.100000
251.155670	146.660000
251.248520	146.400000
251.341385	146.640000
251.434235	146.480000
251.527100	145.560000
251.619965	145.040000
251.712814	145.880000
251.805695	145.620000
251.898560	145.880000
251.991425	146.200000
252.084290	146.380000
252.177155	145.420000
252.270020	145.180000
252.362885	145.120000
252.455750	145.220000
252.548615	144.980000
252.641479	144.880000
252.734360	144.740000
252.827240	144.820000
252.920105	144.940000
253.012970	144.880000
253.105850	145.320000
253.198715	145.280000
253.291595	145.380000
253.384460	145.020000
253.477341	144.800000
253.570221	145.040000
253.663086	144.740000
253.755966	145.380000
253.848846	145.300000
253.941727	145.620000
254.034592	145.300000
254.127472	144.960000
254.220367	144.600000
254.313248	144.720000
254.406128	144.340000
254.499008	144.460000
254.591904	145.620000
254.684784	145.880000
254.777664	146.040000
254.870544	146.080000
254.963440	145.980000
255.056335	146.000000
255.149216	145.280000
255.242111	145.480000
255.334991	145.860000
255.427887	146.000000
255.520767	145.960000
255.613663	146.320000
255.706558	145.460000
255.799438	145.260000
255.892334	144.800000
255.985229	144.500000
256.078125	144.440000
256.171021	144.980000
256.263916	145.360000
256.356812	145.880000
256.449707	146.120000
256.542603	146.080000
256.635498	146.440000
256.728394	146.320000
256.821289	146.260000
256.914215	146.260000
257.007080	146.520000
257.100006	146.460000
257.192932	146.900000
257.285828	146.980000
257.378723	146.600000
257.471619	146.320000
257.564545	145.560000
257.657440	145.320000
257.750336	145.520000
257.843262	145.260000
257.936157	146.180000
258.029053	146.840000
258.121979	146.600000
258.214874	145.940000
258.307800	146.020000
258.400696	145.300000
258.493622	144.740000
258.586517	144.240000
258.679443	145.000000
258.772339	144.760000
258.865265	144.400000
258.958160	144.280000
259.051086	145.200000
259.144012	144.700000
259.236938	145.760000
259.329834	146.000000
259.422791	146.180000
259.515717	145.560000
259.608612	145.220000
259.701538	145.140000
259.794464	144.720000
259.887390	144.740000
259.980316	145.020000
260.073212	145.120000
260.166138	144.140000
260.259064	144.580000
260.351990	145.200000
260.444916	145.040000
260.537842	145.520000
260.630768	146.280000
260.723694	146.140000
260.816620	145.680000
260.909546	145.760000
261.002472	145.140000
261.095398	144.620000
261.188354	144.700000
261.281281	144.460000
261.374207	144.340000
261.467133	145.640000
261.560089	146.000000
261.653015	145.900000
261.745972	146.680000
261.838867	147.060000
261.931824	146.740000
262.024780	146.100000
262.117706	146.340000
262.210663	146.280000
262.303589	146.140000
262.396515	145.940000
262.489471	146.800000
262.582397	146.700000
262.675354	146.260000
262.768280	146.360000
262.861237	146.200000
262.954163	146.100000
263.047119	146.280000
263.140045	146.260000
263.233002	146.000000
263.325958	145.900000
263.418884	145.360000
263.511841	145.160000
263.604797	145.300000
263.697723	145.280000
263.790680	145.100000
263.883636	145.720000
263.976593	145.500000
264.069550	145.360000
264.162476	145.060000
264.255463	145.280000
264.348419	144.820000
264.441376	145.260000
264.534332	144.840000
264.627289	145.160000
264.720245	145.560000
264.813202	145.140000
264.906158	144.960000
264.999115	145.660000
265.092072	145.640000
265.185028	145.660000
265.277985	146.200000
265.370941	146.040000
265.463898	145.720000
265.556854	145.460000
265.649811	144.560000
265.742798	144.820000
265.835754	145.000000
265.928711	145.180000
266.021667	145.420000
266.114655	145.840000
266.207611	145.960000
266.300568	145.380000
266.393585	145.300000
266.486511	145.720000
266.579498	145.220000
266.672485	144.660000
266.765442	145.080000
266.858429	145.420000
266.951385	144.740000
267.044342	145.320000
267.137329	145.480000
267.230316	145.820000
267.323273	145.340000
267.416260	146.140000
267.509216	145.800000
267.602203	145.780000
267.695160	146.020000
267.788147	146.160000
267.881134	145.240000
267.974091	145.520000
268.067078	145.480000
268.160065	144.980000
268.253052	144.860000
268.346008	145.100000
268.438995	144.740000
268.531982	144.560000
268.624969	144.340000
268.717987	144.560000
268.810944	144.600000
268.903961	144.720000
268.996948	144.700000
269.089905	145.200000
269.182892	145.200000
269.275879	145.620000
269.368866	145.440000
269.461853	145.540000
269.554871	145.180000
269.647858	145.180000
269.740845	145.140000
269.833832	145.500000
269.926819	145.520000
270.019806	145.700000
270.112793	145.360000
270.205811	145.260000
270.298798	145.200000
270.391785	145.900000
270.484772	145.280000
270.577789	145.500000
270.670776	145.040000
270.763763	144.960000
270.856750	144.680000
270.949768	144.780000
271.042786	144.760000
271.135773	144.980000
271.228790	145.160000
271.321808	144.600000
271.414795	144.780000
271.507782	144.580000
271.600800	144.220000
271.693817	144.220000
271.786804	144.380000
271.879822	144.360000
271.972809	144.300000
272.065826	144.900000
272.158844	144.420000
272.251831	144.820000
272.344849	145.060000
272.437866	144.900000
272.530853	145.000000
272.623871	145.360000
272.716888	144.580000
272.809906	144.780000
272.902893	144.640000
272.995911	144.140000
273.088928	144.260000
273.181946	144.700000
273.274963	144.000000
273.367981	144.340000
273.460999	144.560000
273.554047	144.800000
273.647003	145.240000
273.740051	145.680000
273.833069	145.780000
273.926086	146.100000
274.019135	145.860000
274.112152	145.640000
274.205170	145.360000
274.298187	145.620000
274.391205	145.060000
274.484222	144.980000
274.577240	144.840000
274.670258	145.140000
274.763306	144.800000
274.856323	145.320000
274.949341	145.480000
275.042358	146.000000
275.135406	145.740000
275.228424	146.080000
275.321442	145.820000
275.414490	145.540000
275.507507	145.660000
275.600525	146.160000
275.693573	145.960000
275.786591	145.820000
275.879669	146.080000
275.972656	145.560000
276.065735	145.340000
276.158752	146.020000
276.251801	147.040000
276.344818	146.960000
276.437866	147.000000
276.530884	146.700000
276.623932	145.500000
276.716980	144.960000
276.809998	144.840000
276.903046	144.860000
276.996094	146.060000
277.089111	146.780000
277.182159	146.940000
277.275208	146.700000
277.368256	146.580000
277.461304	145.720000
277.554321	145.100000
277.647369	145.060000
277.740417	145.220000
277.833466	145.240000
277.926514	145.000000
278.019562	145.740000
278.112610	144.980000
278.205688	145.120000
278.298706	145.020000
278.391785	145.000000
278.484833	144.540000
278.577881	144.580000
278.670929	144.660000
278.763977	144.720000
278.857025	145.260000
278.950073	145.200000
279.043121	145.100000
279.136169	144.920000
279.229248	144.360000
279.322296	143.960000
279.415344	143.720000
279.508392	143.900000
279.601440	143.900000
279.694519	144.160000
279.787567	144.180000
279.880615	144.280000
279.973694	144.320000
280.066742	144.320000
280.159790	144.520000
280.252869	144.040000
280.345917	144.540000
280.438995	144.580000
280.532074	144.620000
280.625122	144.980000
280.718201	146.420000
280.811279	146.300000
280.904327	146.020000
280.997406	146.380000
281.090454	146.360000
281.183533	145.440000
281.276581	145.280000
281.369659	145.440000
281.462738	145.240000
281.555786	145.240000
281.648865	145.140000
281.741943	145.400000
281.835022	146.120000
281.928070	146.180000
282.021149	145.820000
282.114227	145.800000
282.207306	145.560000
282.300385	145.340000
282.393433	145.400000
282.486511	145.420000
282.579590	145.740000
282.672668	145.880000
282.765747	145.140000
282.858856	145.000000
282.951904	145.260000
283.045013	145.540000
283.138062	146.080000
283.231171	146.780000
283.324249	146.920000
283.417328	147.100000
283.510406	146.540000
283.603485	145.960000
283.696564	145.400000
283.789642	145.200000
283.882751	144.820000
283.975830	145.560000
284.068909	145.400000
284.161987	146.360000
284.255066	146.040000
284.348175	146.540000
284.441254	146.080000
284.534332	146.700000
284.627441	146.080000
284.720520	145.840000
284.813599	145.720000
284.906708	145.920000
284.999786	144.820000
285.092896	144.300000
285.185974	145.640000
285.279053	145.180000
285.372192	145.080000
285.465240	146.000000
285.558380	146.340000
285.651459	145.380000
285.744568	145.960000
285.837677	145.460000
285.930756	145.180000
286.023865	145.340000
286.116943	145.400000
286.210052	145.520000
286.303162	145.500000
286.396240	145.480000
286.489349	145.140000
286.582458	145.440000
286.675568	144.840000
286.768646	145.020000
286.861755	145.280000
286.954865	146.040000
287.047974	145.380000
287.141083	145.340000
287.234161	145.200000
287.327271	145.000000
287.420380	145.360000
287.513519	145.660000
287.606598	145.700000
287.699738	145.840000
287.792816	145.720000
287.885956	144.840000
287.979034	144.880000
288.072174	145.000000
288.165283	145.100000
288.258392	145.460000
288.351501	145.200000
288.444611	145.420000
288.537720	145.740000
288.630859	145.360000
288.723969	145.400000
288.817078	146.100000
288.910187	145.760000
289.003296	145.240000
289.096436	145.300000
289.189545	145.040000
289.282654	144.380000
289.375763	145.000000
289.468903	145.620000
289.562012	146.000000
289.655121	145.880000
289.748260	146.200000
289.841400	146.160000
289.934509	145.860000
290.027649	146.040000
290.120728	146.180000
290.213898	146.220000
290.306976	146.040000
290.400146	146.140000
290.493256	145.620000
290.586395	145.580000
290.679535	145.800000
290.772644	145.440000
290.865784	144.500000
290.958893	144.820000
291.052032	144.520000
291.145172	144.360000
291.238281	144.280000
291.331421	144.860000
291.424561	145.160000
291.517670	145.340000
291.610809	145.540000
291.703949	145.520000
291.797089	145.620000
291.890228	145.080000
291.983337	144.880000
292.076477	144.500000
292.169617	144.720000
292.262756	144.580000
292.355927	144.540000
292.449036	144.400000
292.542206	144.560000
292.635315	144.820000
292.728485	145.320000
292.821625	145.000000
292.914764	146.200000
293.007904	146.260000
293.101044	146.280000
293.194183	145.840000
293.287323	146.360000
293.380463	145.500000
293.473602	145.100000
293.566742	145.180000
293.659882	145.520000
293.753021	145.640000
293.846191	145.680000
293.939331	145.460000
294.032471	145.180000
294.125610	144.720000
294.218781	144.920000
294.311920	145.480000
294.405060	146.120000
294.498230	146.040000
294.591370	146.400000
294.684540	145.800000
294.777679	145.180000
294.870850	145.060000
294.963959	145.080000
295.057159	144.780000
295.150299	145.220000
295.243469	145.140000
295.336609	144.560000
295.429779	144.660000
295.522919	145.220000
295.616089	144.980000
295.709229	145.940000
295.802399	146.660000
295.895569	146.260000
295.988708	145.720000
296.081879	146.080000
296.175018	145.100000
296.268188	144.720000
296.361359	145.540000
296.454529	145.720000
296.547668	145.380000
296.640839	145.760000
296.734009	145.600000
296.827179	145.580000
296.920319	145.900000
297.013519	145.700000
297.106659	145.620000
297.199860	145.940000
297.292999	145.760000
297.386200	145.360000
297.479309	145.420000
297.572510	145.320000
297.665680	144.960000
297.758850	144.900000
297.852020	144.940000
297.945190	144.960000
298.038361	144.700000
298.131531	145.620000
298.224701	145.160000
298.317871	144.900000
298.411072	144.580000
298.504242	144.560000
298.597412	143.940000
298.690582	144.320000
298.783752	144.300000
298.876923	144.720000
298.970093	144.880000
299.063293	145.160000
299.156464	145.560000
299.249634	146.040000
299.342834	146.220000
299.436005	146.660000
299.529205	146.600000
299.622345	146.400000
299.715576	145.740000
299.808716	145.680000
299.901917	145.400000
299.995117	145.700000
300.088287	145.740000
300.181488	145.600000
300.274658	145.440000
300.367828	145.420000
300.461029	145.260000
300.554199	145.500000
300.647400	145.820000
300.740601	146.280000
300.833771	146.420000
300.926971	146.600000
301.020142	145.920000
301.113342	145.820000
301.206512	145.580000
301.299713	145.720000
301.392914	145.460000
301.486084	145.700000
301.579285	145.720000
301.672516	146.040000
301.765686	145.740000
301.858887	145.580000
301.952057	145.760000
302.045288	145.720000
302.138458	145.120000
302.231659	144.980000
302.324860	145.040000
302.418060	144.660000
302.511261	144.820000
302.604462	145.360000
302.697662	145.460000
302.790863	145.460000
302.884064	145.200000
302.977264	145.240000
303.070465	145.460000
303.163666	145.980000
303.256866	146.240000
303.350067	146.440000
303.443268	146.680000
303.536469	146.300000
303.629669	145.820000
303.722870	145.980000
303.816071	146.040000
303.909271	146.100000
304.002472	145.580000
304.095673	145.200000
304.188934	144.340000
304.282104	145.380000
304.375336	145.020000
304.468506	145.260000
304.561768	145.380000
304.654968	146.160000
304.748169	145.100000
304.841370	145.240000
304.934601	145.560000
305.027802	145.420000
305.121002	144.760000
305.214233	144.980000
305.307434	144.860000
305.400665	145.040000
305.493866	145.100000
