Model Number: SPM-002-B   
Serial Number: 70087108
Firmware Version: 004.15.4
Exposure Time: 100000.000000us
Data Taken on: 11-12-2020 18:51:14.808
Wavelength	Amplitude
221.570786	0.000000
221.663406	0.000000
221.756027	0.000000
221.848648	0.000000
221.941269	0.000000
222.033905	0.000000
222.126526	0.000000
222.219162	0.000000
222.311798	0.000000
222.404419	0.000000
222.497055	0.000000
222.589676	0.000000
222.682312	0.000000
222.774933	0.000000
222.867569	0.000000
222.960205	0.000000
223.052841	0.000000
223.145462	0.000000
223.238098	0.000000
223.330734	0.000000
223.423386	0.000000
223.516022	0.000000
223.608658	0.000000
223.701309	0.000000
223.793945	0.000000
223.886581	0.000000
223.979218	0.000000
224.071869	0.000000
224.164505	0.000000
224.257156	0.000000
224.349792	0.000000
224.442444	0.000000
224.535095	0.000000
224.627747	0.000000
224.720398	0.000000
224.813034	0.000000
224.905685	0.000000
224.998337	145.680000
225.090988	145.440000
225.183640	145.500000
225.276291	145.120000
225.368942	145.280000
225.461594	145.640000
225.554245	145.940000
225.646912	145.860000
225.739578	146.360000
225.832230	146.660000
225.924896	145.720000
226.017548	145.800000
226.110199	146.240000
226.202866	145.680000
226.295532	145.520000
226.388184	145.480000
226.480850	145.000000
226.573517	144.380000
226.666168	144.840000
226.758835	145.180000
226.851501	145.720000
226.944183	145.960000
227.036850	145.740000
227.129517	145.820000
227.222183	145.460000
227.314850	145.540000
227.407516	145.700000
227.500198	146.680000
227.592865	146.220000
227.685532	146.100000
227.778214	145.560000
227.870880	145.860000
227.963562	145.840000
228.056229	146.400000
228.148926	146.420000
228.241592	147.420000
228.334274	146.960000
228.426956	146.680000
228.519638	146.420000
228.612305	146.280000
228.704987	146.000000
228.797668	146.180000
228.890350	146.060000
228.983032	145.340000
229.075714	145.860000
229.168396	145.280000
229.261108	144.800000
229.353790	144.980000
229.446472	145.420000
229.539169	145.300000
229.631851	145.340000
229.724533	145.620000
229.817230	145.760000
229.909912	147.100000
230.002609	146.920000
230.095306	147.100000
230.187988	147.120000
230.280685	146.740000
230.373383	145.160000
230.466095	145.320000
230.558792	145.380000
230.651474	145.520000
230.744171	145.620000
230.836868	145.780000
230.929581	145.800000
231.022278	145.760000
231.114975	145.500000
231.207672	145.340000
231.300369	145.940000
231.393082	145.900000
231.485779	145.640000
231.578506	145.840000
231.671204	145.960000
231.763916	145.560000
231.856613	145.560000
231.949326	145.860000
232.042023	145.860000
232.134735	145.740000
232.227448	145.500000
232.320160	145.720000
232.412872	145.640000
232.505585	146.160000
232.598297	146.660000
232.691010	146.460000
232.783722	145.880000
232.876450	146.460000
232.969162	145.480000
233.061874	144.620000
233.154587	144.660000
233.247314	145.020000
233.340027	144.260000
233.432739	144.900000
233.525467	145.180000
233.618179	145.640000
233.710907	145.280000
233.803635	145.700000
233.896347	145.560000
233.989090	146.000000
234.081818	145.940000
234.174545	146.080000
234.267258	145.740000
234.359985	146.120000
234.452713	146.020000
234.545441	145.700000
234.638168	145.860000
234.730896	146.280000
234.823639	145.740000
234.916367	146.240000
235.009094	146.760000
235.101822	146.720000
235.194580	146.520000
235.287308	146.780000
235.380051	145.840000
235.472778	145.820000
235.565521	145.840000
235.658249	145.520000
235.750992	145.460000
235.843719	145.700000
235.936462	145.900000
236.029205	145.460000
236.121948	145.180000
236.214691	145.640000
236.307449	146.420000
236.400192	146.000000
236.492935	146.280000
236.585678	147.020000
236.678421	146.820000
236.771164	146.380000
236.863907	146.580000
236.956665	146.860000
237.049408	148.060000
237.142151	147.300000
237.234909	147.780000
237.327652	147.640000
237.420410	147.380000
237.513153	146.300000
237.605927	146.320000
237.698669	145.600000
237.791428	145.080000
237.884186	145.520000
237.976944	145.160000
238.069702	145.800000
238.162445	145.480000
238.255203	145.660000
238.347961	145.620000
238.440720	145.540000
238.533478	145.200000
238.626266	145.160000
238.719025	145.740000
238.811783	145.300000
238.904541	145.340000
238.997314	145.440000
239.090073	145.420000
239.182831	145.600000
239.275604	146.420000
239.368362	146.100000
239.461136	146.300000
239.553909	146.440000
239.646667	146.080000
239.739441	145.520000
239.832214	146.100000
239.925003	146.420000
240.017761	147.100000
240.110535	147.440000
240.203308	147.420000
240.296082	147.220000
240.388855	146.680000
240.481628	146.260000
240.574417	146.240000
240.667191	146.300000
240.759964	146.320000
240.852737	146.320000
240.945526	146.340000
241.038315	146.100000
241.131088	146.280000
241.223877	146.520000
241.316650	146.060000
241.409439	146.160000
241.502228	145.660000
241.595001	145.840000
241.687790	145.480000
241.780579	145.740000
241.873367	145.960000
241.966141	146.460000
242.058929	145.860000
242.151718	146.040000
242.244507	146.540000
242.337311	145.800000
242.430099	146.040000
242.522903	146.120000
242.615692	145.700000
242.708481	145.400000
242.801270	145.860000
242.894073	145.720000
242.986862	146.080000
243.079651	146.680000
243.172455	146.480000
243.265244	146.300000
243.358063	145.840000
243.450867	145.960000
243.543655	145.740000
243.636459	145.860000
243.729263	146.220000
243.822067	146.720000
243.914856	146.920000
244.007660	147.020000
244.100464	147.000000
244.193268	146.600000
244.286072	146.380000
244.378876	145.440000
244.471680	145.120000
244.564499	145.620000
244.657318	146.400000
244.750122	146.460000
244.842926	146.420000
244.935745	146.920000
245.028549	146.080000
245.121368	145.640000
245.214172	145.720000
245.306992	146.400000
245.399796	146.100000
245.492615	146.740000
245.585434	146.160000
245.678253	146.200000
245.771072	145.640000
245.863892	145.860000
245.956711	145.760000
246.049530	146.180000
246.142349	145.780000
246.235168	146.040000
246.327988	145.840000
246.420807	145.820000
246.513626	145.600000
246.606445	145.600000
246.699280	145.620000
246.792099	145.860000
246.884918	145.360000
246.977753	144.920000
247.070587	144.740000
247.163422	144.640000
247.256241	144.380000
247.349075	144.860000
247.441895	145.240000
247.534729	145.620000
247.627563	145.620000
247.720383	146.260000
247.813217	146.000000
247.906052	145.900000
247.998886	145.820000
248.091736	145.880000
248.184570	145.460000
248.277405	145.700000
248.370239	146.500000
248.463074	147.260000
248.555908	147.340000
248.648743	146.840000
248.741592	146.940000
248.834427	146.140000
248.927261	144.900000
249.020111	145.260000
249.112946	145.920000
249.205795	145.500000
249.298630	145.680000
249.391495	145.920000
249.484344	145.480000
249.577179	145.380000
249.670029	145.780000
249.762878	146.400000
249.855728	146.820000
249.948563	146.800000
250.041412	146.080000
250.134262	146.120000
250.227112	145.880000
250.319962	145.740000
250.412827	145.620000
250.505692	145.660000
250.598541	145.500000
250.691391	145.160000
250.784241	145.100000
250.877106	145.440000
250.969955	145.480000
251.062805	145.900000
251.155670	146.360000
251.248520	146.080000
251.341385	146.060000
251.434235	145.780000
251.527100	145.200000
251.619965	144.940000
251.712814	145.940000
251.805695	145.980000
251.898560	146.660000
251.991425	147.120000
252.084290	147.280000
252.177155	146.240000
252.270020	145.740000
252.362885	145.480000
252.455750	145.200000
252.548615	144.940000
252.641479	145.200000
252.734360	145.420000
252.827240	145.340000
252.920105	145.220000
253.012970	144.880000
253.105850	144.840000
253.198715	144.380000
253.291595	144.580000
253.384460	144.340000
253.477341	144.400000
253.570221	144.700000
253.663086	144.880000
253.755966	145.360000
253.848846	145.540000
253.941727	145.980000
254.034592	145.720000
254.127472	145.520000
254.220367	145.140000
254.313248	145.420000
254.406128	144.700000
254.499008	145.060000
254.591904	145.980000
254.684784	146.700000
254.777664	146.680000
254.870544	146.720000
254.963440	146.360000
255.056335	146.080000
255.149216	145.380000
255.242111	145.800000
255.334991	146.400000
255.427887	146.540000
255.520767	146.380000
255.613663	146.480000
255.706558	145.560000
255.799438	145.240000
255.892334	144.980000
255.985229	144.940000
256.078125	144.660000
256.171021	144.980000
256.263916	145.740000
256.356812	146.320000
256.449707	146.500000
256.542603	146.200000
256.635498	146.760000
256.728394	146.240000
256.821289	145.640000
256.914215	145.820000
257.007080	146.400000
257.100006	146.280000
257.192932	146.660000
257.285828	146.900000
257.378723	146.720000
257.471619	146.580000
257.564545	146.040000
257.657440	145.900000
257.750336	146.540000
257.843262	146.400000
257.936157	147.440000
258.029053	147.860000
258.121979	147.640000
258.214874	146.940000
258.307800	146.660000
258.400696	145.220000
258.493622	144.920000
258.586517	144.240000
258.679443	144.420000
258.772339	144.280000
258.865265	144.720000
258.958160	144.300000
259.051086	145.280000
259.144012	145.160000
259.236938	146.040000
259.329834	146.080000
259.422791	146.280000
259.515717	145.540000
259.608612	145.340000
259.701538	144.760000
259.794464	144.560000
259.887390	144.560000
259.980316	144.540000
260.073212	144.300000
260.166138	143.520000
260.259064	143.740000
260.351990	144.340000
260.444916	144.980000
260.537842	145.760000
260.630768	147.040000
260.723694	146.980000
260.816620	146.700000
260.909546	146.420000
261.002472	145.920000
261.095398	145.260000
261.188354	145.280000
261.281281	145.160000
261.374207	145.540000
261.467133	146.220000
261.560089	146.400000
261.653015	146.240000
261.745972	146.800000
261.838867	146.580000
261.931824	146.520000
262.024780	146.060000
262.117706	146.320000
262.210663	146.260000
262.303589	146.280000
262.396515	146.300000
262.489471	147.440000
262.582397	147.120000
262.675354	146.380000
262.768280	146.320000
262.861237	146.140000
262.954163	145.640000
263.047119	145.920000
263.140045	146.060000
263.233002	146.040000
263.325958	145.760000
263.418884	145.300000
263.511841	145.360000
263.604797	145.060000
263.697723	144.940000
263.790680	144.920000
263.883636	145.540000
263.976593	145.320000
264.069550	146.020000
264.162476	146.080000
264.255463	146.340000
264.348419	146.060000
264.441376	146.360000
264.534332	145.820000
264.627289	145.920000
264.720245	146.240000
264.813202	145.840000
264.906158	145.860000
264.999115	146.340000
265.092072	146.140000
265.185028	146.400000
265.277985	146.940000
265.370941	146.640000
265.463898	146.580000
265.556854	146.660000
265.649811	145.440000
265.742798	145.500000
265.835754	145.600000
265.928711	145.880000
266.021667	145.920000
266.114655	146.500000
266.207611	146.700000
266.300568	145.980000
266.393585	145.240000
266.486511	145.540000
266.579498	144.920000
266.672485	144.600000
266.765442	145.080000
266.858429	145.920000
266.951385	145.680000
267.044342	146.100000
267.137329	145.860000
267.230316	146.060000
267.323273	145.300000
267.416260	145.920000
267.509216	145.900000
267.602203	146.380000
267.695160	146.940000
267.788147	147.320000
267.881134	146.360000
267.974091	146.500000
268.067078	146.340000
268.160065	145.940000
268.253052	145.700000
268.346008	145.580000
268.438995	145.220000
268.531982	145.160000
268.624969	145.080000
268.717987	145.500000
268.810944	146.020000
268.903961	146.460000
268.996948	146.060000
269.089905	146.500000
269.182892	146.460000
269.275879	146.560000
269.368866	146.000000
269.461853	146.780000
269.554871	146.120000
269.647858	146.180000
269.740845	146.360000
269.833832	146.840000
269.926819	146.160000
270.019806	146.660000
270.112793	146.120000
270.205811	146.060000
270.298798	145.960000
270.391785	146.460000
270.484772	145.900000
270.577789	146.100000
270.670776	145.780000
270.763763	145.700000
270.856750	145.460000
270.949768	145.500000
271.042786	145.480000
271.135773	145.640000
271.228790	146.180000
271.321808	145.860000
271.414795	145.800000
271.507782	145.440000
271.600800	145.000000
271.693817	144.780000
271.786804	145.240000
271.879822	145.540000
271.972809	146.000000
272.065826	146.420000
272.158844	145.800000
272.251831	146.180000
272.344849	145.760000
272.437866	145.480000
272.530853	145.360000
272.623871	145.580000
272.716888	144.660000
272.809906	145.040000
272.902893	145.020000
272.995911	144.600000
273.088928	144.880000
273.181946	145.280000
273.274963	144.860000
273.367981	144.980000
273.460999	145.460000
273.554047	145.540000
273.647003	145.760000
273.740051	146.020000
273.833069	146.360000
273.926086	146.380000
274.019135	146.320000
274.112152	146.180000
274.205170	146.220000
274.298187	146.400000
274.391205	145.820000
274.484222	145.800000
274.577240	145.640000
274.670258	145.340000
274.763306	144.860000
274.856323	145.440000
274.949341	145.420000
275.042358	145.900000
275.135406	145.960000
275.228424	145.900000
275.321442	145.840000
275.414490	145.700000
275.507507	145.820000
275.600525	146.600000
275.693573	146.660000
275.786591	146.340000
275.879669	146.560000
275.972656	146.360000
276.065735	146.000000
276.158752	146.560000
276.251801	147.160000
276.344818	147.260000
276.437866	147.160000
276.530884	147.320000
276.623932	146.600000
276.716980	146.520000
276.809998	146.700000
276.903046	146.900000
276.996094	147.160000
277.089111	147.720000
277.182159	148.060000
277.275208	147.520000
277.368256	147.220000
277.461304	146.940000
277.554321	146.300000
277.647369	146.080000
277.740417	146.000000
277.833466	145.700000
277.926514	145.460000
278.019562	146.280000
278.112610	145.900000
278.205688	146.360000
278.298706	146.620000
278.391785	146.780000
278.484833	145.920000
278.577881	145.560000
278.670929	145.620000
278.763977	145.740000
278.857025	145.900000
278.950073	146.160000
279.043121	146.300000
279.136169	146.040000
279.229248	145.580000
279.322296	145.320000
279.415344	144.940000
279.508392	144.900000
279.601440	144.780000
279.694519	145.040000
279.787567	144.840000
279.880615	144.960000
279.973694	144.920000
280.066742	145.220000
280.159790	145.240000
280.252869	145.060000
280.345917	145.260000
280.438995	145.200000
280.532074	144.820000
280.625122	145.320000
280.718201	146.280000
280.811279	146.360000
280.904327	146.660000
280.997406	146.860000
281.090454	146.920000
281.183533	146.140000
281.276581	146.100000
281.369659	145.720000
281.462738	145.960000
281.555786	145.640000
281.648865	145.720000
281.741943	145.560000
281.835022	146.480000
281.928070	146.100000
282.021149	145.840000
282.114227	145.680000
282.207306	145.940000
282.300385	145.920000
282.393433	146.240000
282.486511	146.240000
282.579590	146.820000
282.672668	147.200000
282.765747	146.540000
282.858856	146.280000
282.951904	146.240000
283.045013	146.520000
283.138062	146.480000
283.231171	146.840000
283.324249	146.960000
283.417328	147.120000
283.510406	146.300000
283.603485	145.840000
283.696564	145.680000
283.789642	145.800000
283.882751	145.780000
283.975830	146.060000
284.068909	145.820000
284.161987	146.500000
284.255066	145.960000
284.348175	145.940000
284.441254	146.000000
284.534332	146.360000
284.627441	145.780000
284.720520	145.820000
284.813599	145.880000
284.906708	146.040000
284.999786	145.580000
285.092896	145.260000
285.185974	146.220000
285.279053	145.820000
285.372192	145.480000
285.465240	146.360000
285.558380	146.560000
285.651459	146.280000
285.744568	146.980000
285.837677	147.120000
285.930756	146.680000
286.023865	146.320000
286.116943	145.540000
286.210052	145.520000
286.303162	145.440000
286.396240	145.660000
286.489349	145.960000
286.582458	146.400000
286.675568	146.080000
286.768646	146.080000
286.861755	146.220000
286.954865	146.640000
287.047974	146.300000
287.141083	146.120000
287.234161	146.000000
287.327271	145.700000
287.420380	146.080000
287.513519	146.000000
287.606598	146.200000
287.699738	146.480000
287.792816	146.400000
287.885956	145.760000
287.979034	146.080000
288.072174	146.340000
288.165283	146.060000
288.258392	146.160000
288.351501	145.800000
288.444611	146.080000
288.537720	146.360000
288.630859	146.340000
288.723969	146.400000
288.817078	146.860000
288.910187	146.520000
289.003296	145.860000
289.096436	145.460000
289.189545	145.340000
289.282654	144.660000
289.375763	144.940000
289.468903	145.480000
289.562012	146.080000
289.655121	146.020000
289.748260	146.620000
289.841400	146.840000
289.934509	146.100000
290.027649	146.240000
290.120728	146.040000
290.213898	145.800000
290.306976	145.300000
290.400146	145.940000
290.493256	145.500000
290.586395	145.680000
290.679535	145.940000
290.772644	145.720000
290.865784	144.720000
290.958893	144.620000
291.052032	144.420000
291.145172	144.480000
291.238281	144.300000
291.331421	144.760000
291.424561	145.500000
291.517670	145.380000
291.610809	145.300000
291.703949	145.480000
291.797089	145.700000
291.890228	145.100000
291.983337	145.160000
292.076477	144.980000
292.169617	145.340000
292.262756	145.280000
292.355927	145.140000
292.449036	145.000000
292.542206	145.260000
292.635315	145.540000
292.728485	145.920000
292.821625	145.900000
292.914764	147.320000
293.007904	147.220000
293.101044	146.960000
293.194183	146.440000
293.287323	146.820000
293.380463	145.900000
293.473602	145.820000
293.566742	145.980000
293.659882	146.760000
293.753021	147.000000
293.846191	147.020000
293.939331	147.020000
294.032471	146.800000
294.125610	145.920000
294.218781	146.040000
294.311920	146.300000
294.405060	146.460000
294.498230	146.300000
294.591370	146.540000
294.684540	145.460000
294.777679	144.860000
294.870850	144.920000
294.963959	144.900000
295.057159	144.820000
295.150299	145.680000
295.243469	145.720000
295.336609	145.140000
295.429779	145.340000
295.522919	145.460000
295.616089	145.080000
295.709229	145.880000
295.802399	146.120000
295.895569	145.660000
295.988708	145.660000
296.081879	145.740000
296.175018	144.960000
296.268188	144.860000
296.361359	145.860000
296.454529	146.020000
296.547668	146.060000
296.640839	146.400000
296.734009	146.420000
296.827179	146.080000
296.920319	146.120000
297.013519	146.140000
297.106659	146.280000
297.199860	146.360000
297.292999	146.280000
297.386200	145.940000
297.479309	145.640000
297.572510	145.260000
297.665680	144.980000
297.758850	144.960000
297.852020	145.140000
297.945190	145.220000
298.038361	145.220000
298.131531	146.280000
298.224701	146.020000
298.317871	145.840000
298.411072	145.740000
298.504242	145.960000
298.597412	145.080000
298.690582	145.340000
298.783752	145.480000
298.876923	145.940000
298.970093	145.440000
299.063293	146.060000
299.156464	146.480000
299.249634	146.380000
299.342834	146.280000
299.436005	146.740000
299.529205	146.400000
299.622345	146.160000
299.715576	145.760000
299.808716	145.680000
299.901917	145.660000
299.995117	146.040000
300.088287	146.060000
300.181488	146.220000
300.274658	146.000000
300.367828	146.020000
300.461029	145.720000
300.554199	145.800000
300.647400	146.160000
300.740601	147.060000
300.833771	146.940000
300.926971	146.960000
301.020142	146.060000
301.113342	145.620000
301.206512	145.040000
301.299713	145.140000
301.392914	145.480000
301.486084	146.320000
301.579285	146.560000
301.672516	146.800000
301.765686	146.700000
301.858887	146.460000
301.952057	146.420000
302.045288	146.500000
302.138458	146.240000
302.231659	146.180000
302.324860	145.900000
302.418060	145.720000
302.511261	145.680000
302.604462	145.920000
302.697662	145.680000
302.790863	145.500000
302.884064	145.220000
302.977264	145.160000
303.070465	145.140000
303.163666	145.960000
303.256866	146.220000
303.350067	146.380000
303.443268	146.560000
303.536469	146.600000
303.629669	146.040000
303.722870	146.400000
303.816071	146.080000
303.909271	145.880000
304.002472	145.200000
304.095673	145.000000
304.188934	144.120000
304.282104	144.860000
304.375336	145.000000
304.468506	145.300000
304.561768	145.140000
304.654968	145.900000
304.748169	145.540000
304.841370	145.440000
304.934601	145.860000
305.027802	145.900000
305.121002	145.300000
305.214233	145.320000
305.307434	145.560000
305.400665	146.020000
305.493866	146.220000
