Model Number: SPM-002-B   
Serial Number: 70087108
Firmware Version: 004.15.4
Exposure Time: 100000.000000us
Data Taken on: 11-12-2020 18:51:26.417
Wavelength	Amplitude
221.570786	0.000000
221.663406	0.000000
221.756027	0.000000
221.848648	0.000000
221.941269	0.000000
222.033905	0.000000
222.126526	0.000000
222.219162	0.000000
222.311798	0.000000
222.404419	0.000000
222.497055	0.000000
222.589676	0.000000
222.682312	0.000000
222.774933	0.000000
222.867569	0.000000
222.960205	0.000000
223.052841	0.000000
223.145462	0.000000
223.238098	0.000000
223.330734	0.000000
223.423386	0.000000
223.516022	0.000000
223.608658	0.000000
223.701309	0.000000
223.793945	0.000000
223.886581	0.000000
223.979218	0.000000
224.071869	0.000000
224.164505	0.000000
224.257156	0.000000
224.349792	0.000000
224.442444	0.000000
224.535095	0.000000
224.627747	0.000000
224.720398	0.000000
224.813034	0.000000
224.905685	0.000000
224.998337	145.260000
225.090988	144.740000
225.183640	144.580000
225.276291	144.380000
225.368942	144.720000
225.461594	145.560000
225.554245	146.000000
225.646912	145.980000
225.739578	146.240000
225.832230	146.640000
225.924896	145.860000
226.017548	146.280000
226.110199	146.940000
226.202866	146.540000
226.295532	146.000000
226.388184	146.220000
226.480850	145.820000
226.573517	145.280000
226.666168	145.640000
226.758835	146.040000
226.851501	146.380000
226.944183	146.260000
227.036850	145.900000
227.129517	145.880000
227.222183	145.940000
227.314850	146.220000
227.407516	146.780000
227.500198	147.580000
227.592865	147.260000
227.685532	146.760000
227.778214	146.100000
227.870880	146.220000
227.963562	146.420000
228.056229	147.040000
228.148926	147.280000
228.241592	148.300000
228.334274	147.600000
228.426956	147.300000
228.519638	146.980000
228.612305	146.560000
228.704987	146.180000
228.797668	146.300000
228.890350	145.780000
228.983032	145.200000
229.075714	145.780000
229.168396	145.400000
229.261108	145.020000
229.353790	145.160000
229.446472	145.680000
229.539169	145.440000
229.631851	145.140000
229.724533	145.580000
229.817230	145.940000
229.909912	146.580000
230.002609	146.780000
230.095306	146.980000
230.187988	147.000000
230.280685	146.480000
230.373383	145.260000
230.466095	144.960000
230.558792	144.980000
230.651474	144.720000
230.744171	144.960000
230.836868	145.020000
230.929581	145.320000
231.022278	145.620000
231.114975	145.880000
231.207672	145.780000
231.300369	146.480000
231.393082	146.460000
231.485779	146.060000
231.578506	146.000000
231.671204	146.140000
231.763916	145.960000
231.856613	145.760000
231.949326	146.020000
232.042023	145.880000
232.134735	145.800000
232.227448	145.500000
232.320160	145.800000
232.412872	145.840000
232.505585	146.520000
232.598297	146.760000
232.691010	146.660000
232.783722	146.400000
232.876450	146.960000
232.969162	146.580000
233.061874	145.860000
233.154587	145.740000
233.247314	146.120000
233.340027	145.400000
233.432739	145.640000
233.525467	145.920000
233.618179	146.600000
233.710907	145.920000
233.803635	146.340000
233.896347	146.040000
233.989090	146.900000
234.081818	146.440000
234.174545	146.940000
234.267258	146.520000
234.359985	146.580000
234.452713	145.840000
234.545441	146.060000
234.638168	145.800000
234.730896	146.300000
234.823639	146.300000
234.916367	146.760000
235.009094	146.920000
235.101822	146.940000
235.194580	146.620000
235.287308	146.740000
235.380051	146.060000
235.472778	146.180000
235.565521	146.760000
235.658249	146.420000
235.750992	146.160000
235.843719	146.280000
235.936462	146.260000
236.029205	145.400000
236.121948	145.120000
236.214691	145.640000
236.307449	146.440000
236.400192	145.860000
236.492935	145.940000
236.585678	146.240000
236.678421	145.720000
236.771164	145.520000
236.863907	146.180000
236.956665	146.740000
237.049408	148.280000
237.142151	147.980000
237.234909	148.260000
237.327652	148.220000
237.420410	147.900000
237.513153	146.800000
237.605927	147.020000
237.698669	146.180000
237.791428	145.300000
237.884186	145.680000
237.976944	145.200000
238.069702	145.500000
238.162445	145.460000
238.255203	145.800000
238.347961	145.740000
238.440720	145.860000
238.533478	145.320000
238.626266	145.060000
238.719025	145.480000
238.811783	145.500000
238.904541	145.400000
238.997314	145.500000
239.090073	145.660000
239.182831	145.600000
239.275604	146.060000
239.368362	146.000000
239.461136	146.400000
239.553909	146.420000
239.646667	146.060000
239.739441	145.440000
239.832214	145.860000
239.925003	145.980000
240.017761	146.440000
240.110535	147.220000
240.203308	146.840000
240.296082	146.780000
240.388855	146.440000
240.481628	146.380000
240.574417	146.140000
240.667191	146.500000
240.759964	146.160000
240.852737	146.180000
240.945526	146.060000
241.038315	145.880000
241.131088	145.820000
241.223877	146.160000
241.316650	145.760000
241.409439	146.140000
241.502228	145.700000
241.595001	146.120000
241.687790	145.760000
241.780579	145.960000
241.873367	145.800000
241.966141	146.040000
242.058929	145.320000
242.151718	145.700000
242.244507	146.180000
242.337311	145.600000
242.430099	146.240000
242.522903	146.720000
242.615692	146.320000
242.708481	146.180000
242.801270	146.760000
242.894073	146.340000
242.986862	146.180000
243.079651	146.780000
243.172455	146.820000
243.265244	146.900000
243.358063	146.400000
243.450867	146.740000
243.543655	146.320000
243.636459	146.220000
243.729263	146.000000
243.822067	146.400000
243.914856	146.680000
244.007660	147.200000
244.100464	147.020000
244.193268	146.720000
244.286072	146.680000
244.378876	146.020000
244.471680	145.220000
244.564499	145.480000
244.657318	146.340000
244.750122	146.460000
244.842926	145.980000
244.935745	146.580000
245.028549	146.260000
245.121368	145.720000
245.214172	145.720000
245.306992	146.400000
245.399796	146.060000
245.492615	146.460000
245.585434	146.320000
245.678253	146.320000
245.771072	146.100000
245.863892	146.860000
245.956711	146.900000
246.049530	146.800000
246.142349	146.800000
246.235168	147.300000
246.327988	147.100000
246.420807	146.980000
246.513626	146.960000
246.606445	146.480000
246.699280	146.280000
246.792099	145.760000
246.884918	145.440000
246.977753	145.400000
247.070587	145.960000
247.163422	145.540000
247.256241	145.900000
247.349075	146.280000
247.441895	146.520000
247.534729	146.100000
247.627563	146.020000
247.720383	146.320000
247.813217	146.000000
247.906052	145.780000
247.998886	146.040000
248.091736	146.140000
248.184570	145.840000
248.277405	145.960000
248.370239	146.880000
248.463074	147.600000
248.555908	147.780000
248.648743	147.440000
248.741592	147.480000
248.834427	146.720000
248.927261	145.760000
249.020111	146.500000
249.112946	147.280000
249.205795	146.860000
249.298630	147.040000
249.391495	147.320000
249.484344	146.560000
249.577179	145.980000
249.670029	146.460000
249.762878	146.860000
249.855728	146.680000
249.948563	146.580000
250.041412	146.300000
250.134262	146.460000
250.227112	146.020000
250.319962	146.100000
250.412827	146.160000
250.505692	145.960000
250.598541	145.700000
250.691391	145.640000
250.784241	145.440000
250.877106	145.820000
250.969955	146.040000
251.062805	146.480000
251.155670	147.020000
251.248520	146.900000
251.341385	146.920000
251.434235	146.460000
251.527100	146.100000
251.619965	145.400000
251.712814	146.480000
251.805695	146.380000
251.898560	146.920000
251.991425	147.180000
252.084290	147.500000
252.177155	146.580000
252.270020	146.100000
252.362885	146.020000
252.455750	145.880000
252.548615	145.320000
252.641479	145.320000
252.734360	145.440000
252.827240	145.280000
252.920105	145.320000
253.012970	145.480000
253.105850	145.460000
253.198715	145.000000
253.291595	145.300000
253.384460	145.000000
253.477341	145.420000
253.570221	145.720000
253.663086	145.820000
253.755966	146.420000
253.848846	146.300000
253.941727	146.280000
254.034592	146.100000
254.127472	145.760000
254.220367	145.280000
254.313248	145.420000
254.406128	144.880000
254.499008	145.240000
254.591904	146.320000
254.684784	146.760000
254.777664	146.920000
254.870544	146.780000
254.963440	146.400000
255.056335	146.280000
255.149216	145.500000
255.242111	145.760000
255.334991	146.340000
255.427887	146.600000
255.520767	146.600000
255.613663	147.000000
255.706558	146.340000
255.799438	145.960000
255.892334	145.580000
255.985229	145.480000
256.078125	145.220000
256.171021	145.380000
256.263916	145.840000
256.356812	146.220000
256.449707	145.620000
256.542603	145.320000
256.635498	145.820000
256.728394	145.400000
256.821289	145.060000
256.914215	145.800000
257.007080	146.600000
257.100006	146.500000
257.192932	147.200000
257.285828	147.600000
257.378723	147.440000
257.471619	146.960000
257.564545	146.420000
257.657440	146.120000
257.750336	146.100000
257.843262	145.880000
257.936157	147.000000
258.029053	147.520000
258.121979	147.560000
258.214874	147.440000
258.307800	147.280000
258.400696	145.980000
258.493622	145.780000
258.586517	145.020000
258.679443	145.240000
258.772339	145.080000
258.865265	145.080000
258.958160	145.040000
259.051086	145.860000
259.144012	145.640000
259.236938	146.540000
259.329834	146.620000
259.422791	146.320000
259.515717	145.800000
259.608612	145.520000
259.701538	145.500000
259.794464	145.460000
259.887390	145.440000
259.980316	145.560000
260.073212	145.420000
260.166138	144.320000
260.259064	144.940000
260.351990	145.500000
260.444916	145.400000
260.537842	145.840000
260.630768	146.880000
260.723694	146.460000
260.816620	146.300000
260.909546	146.460000
261.002472	146.100000
261.095398	145.220000
261.188354	145.500000
261.281281	145.180000
261.374207	145.320000
261.467133	146.020000
261.560089	146.420000
261.653015	145.820000
261.745972	146.300000
261.838867	146.540000
261.931824	146.400000
262.024780	146.020000
262.117706	146.640000
262.210663	146.600000
262.303589	146.440000
262.396515	146.220000
262.489471	147.160000
262.582397	146.820000
262.675354	146.340000
262.768280	146.140000
262.861237	146.180000
262.954163	145.860000
263.047119	146.160000
263.140045	146.300000
263.233002	146.420000
263.325958	146.680000
263.418884	146.320000
263.511841	146.180000
263.604797	146.260000
263.697723	146.140000
263.790680	145.740000
263.883636	146.260000
263.976593	145.940000
264.069550	146.120000
264.162476	146.040000
264.255463	145.820000
264.348419	145.600000
264.441376	145.980000
264.534332	145.440000
264.627289	145.680000
264.720245	146.200000
264.813202	145.740000
264.906158	146.000000
264.999115	146.520000
265.092072	146.260000
265.185028	146.720000
265.277985	146.880000
265.370941	146.460000
265.463898	146.160000
265.556854	146.160000
265.649811	145.200000
265.742798	145.500000
265.835754	145.900000
265.928711	146.440000
266.021667	146.340000
266.114655	146.700000
266.207611	146.820000
266.300568	145.860000
266.393585	145.180000
266.486511	145.640000
266.579498	145.000000
266.672485	144.920000
266.765442	145.400000
266.858429	146.060000
266.951385	145.720000
267.044342	146.100000
267.137329	145.940000
267.230316	146.160000
267.323273	145.780000
267.416260	146.140000
267.509216	146.080000
267.602203	146.120000
267.695160	146.200000
267.788147	146.160000
267.881134	145.820000
267.974091	146.120000
268.067078	145.900000
268.160065	145.460000
268.253052	145.540000
268.346008	145.560000
268.438995	145.200000
268.531982	145.320000
268.624969	145.260000
268.717987	145.620000
268.810944	145.740000
268.903961	145.740000
268.996948	145.200000
269.089905	145.740000
269.182892	145.480000
269.275879	145.860000
269.368866	145.800000
269.461853	146.400000
269.554871	146.180000
269.647858	146.360000
269.740845	146.260000
269.833832	146.500000
269.926819	146.400000
270.019806	146.440000
270.112793	145.640000
270.205811	145.780000
270.298798	145.820000
270.391785	146.220000
270.484772	146.060000
270.577789	146.580000
270.670776	146.160000
270.763763	146.240000
270.856750	146.040000
270.949768	145.840000
271.042786	145.940000
271.135773	145.780000
271.228790	146.020000
271.321808	145.640000
271.414795	145.520000
271.507782	145.280000
271.600800	145.260000
271.693817	144.980000
271.786804	145.560000
271.879822	145.920000
271.972809	145.880000
272.065826	146.360000
272.158844	145.920000
272.251831	146.380000
272.344849	146.320000
272.437866	146.040000
272.530853	145.840000
272.623871	146.340000
272.716888	145.200000
272.809906	145.420000
272.902893	145.740000
272.995911	145.320000
273.088928	145.180000
273.181946	145.620000
273.274963	145.300000
273.367981	145.000000
273.460999	145.360000
273.554047	145.760000
273.647003	146.240000
273.740051	146.340000
273.833069	146.960000
273.926086	146.920000
274.019135	146.580000
274.112152	146.320000
274.205170	146.280000
274.298187	146.460000
274.391205	145.920000
274.484222	145.920000
274.577240	145.740000
274.670258	145.920000
274.763306	145.440000
274.856323	146.040000
274.949341	146.080000
275.042358	146.380000
275.135406	146.100000
275.228424	146.160000
275.321442	146.000000
275.414490	145.540000
275.507507	145.820000
275.600525	146.180000
275.693573	145.900000
275.786591	145.680000
275.879669	146.120000
275.972656	145.740000
276.065735	145.840000
276.158752	146.680000
276.251801	147.200000
276.344818	147.280000
276.437866	147.040000
276.530884	146.660000
276.623932	145.460000
276.716980	145.520000
276.809998	145.600000
276.903046	145.740000
276.996094	146.460000
277.089111	147.420000
277.182159	147.620000
277.275208	147.240000
277.368256	147.320000
277.461304	146.880000
277.554321	146.260000
277.647369	146.160000
277.740417	146.160000
277.833466	145.640000
277.926514	145.740000
278.019562	146.500000
278.112610	146.080000
278.205688	146.660000
278.298706	147.100000
278.391785	146.840000
278.484833	146.200000
278.577881	145.880000
278.670929	145.740000
278.763977	145.620000
278.857025	145.760000
278.950073	145.860000
279.043121	145.560000
279.136169	145.380000
279.229248	145.140000
279.322296	145.060000
279.415344	144.940000
279.508392	145.220000
279.601440	144.980000
279.694519	145.160000
279.787567	144.980000
279.880615	144.660000
279.973694	144.780000
280.066742	144.920000
280.159790	144.920000
280.252869	144.620000
280.345917	145.240000
280.438995	145.380000
280.532074	145.580000
280.625122	146.080000
280.718201	147.180000
280.811279	147.100000
280.904327	146.860000
280.997406	146.980000
281.090454	146.700000
281.183533	145.660000
281.276581	145.640000
281.369659	145.380000
281.462738	145.280000
281.555786	145.380000
281.648865	145.860000
281.741943	145.680000
281.835022	146.840000
281.928070	146.580000
282.021149	146.360000
282.114227	146.180000
282.207306	146.080000
282.300385	145.760000
282.393433	145.980000
282.486511	146.080000
282.579590	146.500000
282.672668	146.860000
282.765747	146.280000
282.858856	145.860000
282.951904	145.840000
283.045013	145.940000
283.138062	146.120000
283.231171	146.480000
283.324249	147.040000
283.417328	147.040000
283.510406	146.640000
283.603485	146.260000
283.696564	146.100000
283.789642	146.220000
283.882751	146.140000
283.975830	146.580000
284.068909	146.460000
284.161987	147.340000
284.255066	146.720000
284.348175	146.660000
284.441254	146.460000
284.534332	147.000000
284.627441	146.440000
284.720520	146.260000
284.813599	146.140000
284.906708	145.800000
284.999786	145.040000
285.092896	144.520000
285.185974	145.640000
285.279053	145.480000
285.372192	145.680000
285.465240	146.340000
285.558380	146.620000
285.651459	146.000000
285.744568	147.060000
285.837677	146.820000
285.930756	146.880000
286.023865	147.000000
286.116943	146.620000
286.210052	146.140000
286.303162	146.180000
286.396240	146.100000
286.489349	145.700000
286.582458	146.520000
286.675568	146.420000
286.768646	146.380000
286.861755	146.560000
286.954865	147.380000
287.047974	146.700000
287.141083	146.360000
287.234161	146.320000
287.327271	145.980000
287.420380	145.960000
287.513519	145.740000
287.606598	146.060000
287.699738	146.260000
287.792816	146.260000
287.885956	146.020000
287.979034	146.140000
288.072174	145.960000
288.165283	146.080000
288.258392	146.380000
288.351501	146.020000
288.444611	146.760000
288.537720	146.980000
288.630859	146.700000
288.723969	146.440000
288.817078	146.600000
288.910187	145.940000
289.003296	145.580000
289.096436	145.280000
289.189545	145.360000
289.282654	144.960000
289.375763	145.400000
289.468903	145.780000
289.562012	146.360000
289.655121	146.320000
289.748260	146.600000
289.841400	146.840000
289.934509	146.740000
290.027649	146.700000
290.120728	146.460000
290.213898	146.540000
290.306976	146.060000
290.400146	145.980000
290.493256	145.360000
290.586395	145.840000
290.679535	145.820000
290.772644	145.600000
290.865784	144.800000
290.958893	145.220000
291.052032	144.980000
291.145172	145.180000
291.238281	145.080000
291.331421	145.620000
291.424561	146.200000
291.517670	145.820000
291.610809	145.920000
291.703949	146.000000
291.797089	146.280000
291.890228	145.520000
291.983337	145.840000
292.076477	145.460000
292.169617	145.840000
292.262756	145.880000
292.355927	145.680000
292.449036	145.280000
292.542206	145.720000
292.635315	145.620000
292.728485	146.000000
292.821625	146.020000
292.914764	147.440000
293.007904	147.320000
293.101044	147.160000
293.194183	146.760000
293.287323	146.920000
293.380463	145.680000
293.473602	145.620000
293.566742	145.820000
293.659882	146.060000
293.753021	146.240000
293.846191	146.500000
293.939331	146.220000
294.032471	145.840000
294.125610	145.640000
294.218781	145.880000
294.311920	146.280000
294.405060	146.540000
294.498230	146.580000
294.591370	146.740000
294.684540	146.320000
294.777679	145.660000
294.870850	145.680000
294.963959	145.820000
295.057159	145.500000
295.150299	145.860000
295.243469	145.860000
295.336609	145.340000
295.429779	145.380000
295.522919	145.740000
295.616089	145.700000
295.709229	146.240000
295.802399	146.700000
295.895569	146.520000
295.988708	146.340000
296.081879	146.500000
296.175018	146.040000
296.268188	145.880000
296.361359	146.300000
296.454529	146.500000
296.547668	146.020000
296.640839	146.340000
296.734009	146.240000
296.827179	146.200000
296.920319	146.240000
297.013519	146.380000
297.106659	146.360000
297.199860	146.540000
297.292999	146.420000
297.386200	145.820000
297.479309	145.920000
297.572510	146.080000
297.665680	145.400000
297.758850	145.340000
297.852020	145.560000
297.945190	145.320000
298.038361	144.840000
298.131531	145.840000
298.224701	145.640000
298.317871	145.600000
298.411072	145.380000
298.504242	145.320000
298.597412	144.840000
298.690582	145.240000
298.783752	145.240000
298.876923	146.040000
298.970093	146.120000
299.063293	146.460000
299.156464	146.680000
299.249634	147.000000
299.342834	146.680000
299.436005	147.060000
299.529205	146.960000
299.622345	146.700000
299.715576	146.080000
299.808716	145.900000
299.901917	145.880000
299.995117	145.980000
300.088287	146.340000
300.181488	146.180000
300.274658	146.120000
300.367828	145.960000
300.461029	145.860000
300.554199	145.640000
300.647400	145.960000
300.740601	146.440000
300.833771	146.180000
300.926971	146.600000
301.020142	146.340000
301.113342	146.340000
301.206512	146.120000
301.299713	146.280000
301.392914	146.020000
301.486084	146.120000
301.579285	145.820000
301.672516	146.220000
301.765686	146.160000
301.858887	145.780000
301.952057	145.600000
302.045288	146.020000
302.138458	145.640000
302.231659	145.320000
302.324860	145.500000
302.418060	145.460000
302.511261	145.400000
302.604462	145.700000
302.697662	145.780000
302.790863	145.700000
302.884064	145.560000
302.977264	145.720000
303.070465	145.620000
303.163666	146.360000
303.256866	146.840000
303.350067	147.120000
303.443268	146.920000
303.536469	146.880000
303.629669	146.260000
303.722870	146.180000
303.816071	145.860000
303.909271	145.820000
304.002472	145.240000
304.095673	145.460000
304.188934	144.680000
304.282104	145.700000
304.375336	145.840000
304.468506	145.860000
304.561768	145.460000
304.654968	146.140000
304.748169	145.260000
304.841370	144.800000
304.934601	145.320000
305.027802	145.580000
305.121002	145.320000
305.214233	145.600000
305.307434	146.140000
305.400665	146.500000
305.493866	146.140000
