Model Number: SPM-002-B   
Serial Number: 70087108
Firmware Version: 004.15.4
Exposure Time: 100000.000000us
Data Taken on: 11-12-2020 18:51:32.471
Wavelength	Amplitude
221.570786	0.000000
221.663406	0.000000
221.756027	0.000000
221.848648	0.000000
221.941269	0.000000
222.033905	0.000000
222.126526	0.000000
222.219162	0.000000
222.311798	0.000000
222.404419	0.000000
222.497055	0.000000
222.589676	0.000000
222.682312	0.000000
222.774933	0.000000
222.867569	0.000000
222.960205	0.000000
223.052841	0.000000
223.145462	0.000000
223.238098	0.000000
223.330734	0.000000
223.423386	0.000000
223.516022	0.000000
223.608658	0.000000
223.701309	0.000000
223.793945	0.000000
223.886581	0.000000
223.979218	0.000000
224.071869	0.000000
224.164505	0.000000
224.257156	0.000000
224.349792	0.000000
224.442444	0.000000
224.535095	0.000000
224.627747	0.000000
224.720398	0.000000
224.813034	0.000000
224.905685	0.000000
224.998337	145.200000
225.090988	144.980000
225.183640	145.160000
225.276291	145.240000
225.368942	145.400000
225.461594	145.900000
225.554245	146.420000
225.646912	146.400000
225.739578	146.940000
225.832230	147.300000
225.924896	146.340000
226.017548	146.460000
226.110199	146.900000
226.202866	146.240000
226.295532	146.160000
226.388184	146.200000
226.480850	145.760000
226.573517	145.220000
226.666168	145.440000
226.758835	145.460000
226.851501	146.300000
226.944183	146.560000
227.036850	146.140000
227.129517	146.140000
227.222183	146.240000
227.314850	146.020000
227.407516	146.300000
227.500198	147.300000
227.592865	146.940000
227.685532	146.720000
227.778214	146.280000
227.870880	146.260000
227.963562	146.620000
228.056229	147.400000
228.148926	147.240000
228.241592	148.140000
228.334274	147.940000
228.426956	147.540000
228.519638	147.060000
228.612305	147.040000
228.704987	146.720000
228.797668	146.460000
228.890350	145.940000
228.983032	145.480000
229.075714	146.280000
229.168396	146.120000
229.261108	145.880000
229.353790	146.400000
229.446472	146.940000
229.539169	146.540000
229.631851	145.860000
229.724533	146.400000
229.817230	146.360000
229.909912	147.300000
230.002609	146.900000
230.095306	147.180000
230.187988	146.880000
230.280685	146.740000
230.373383	145.060000
230.466095	145.180000
230.558792	145.640000
230.651474	145.740000
230.744171	145.680000
230.836868	146.240000
230.929581	146.420000
231.022278	146.380000
231.114975	146.380000
231.207672	146.140000
231.300369	146.200000
231.393082	146.260000
231.485779	145.980000
231.578506	145.960000
231.671204	146.240000
231.763916	146.480000
231.856613	146.320000
231.949326	146.360000
232.042023	146.340000
232.134735	145.940000
232.227448	145.360000
232.320160	145.820000
232.412872	145.880000
232.505585	146.720000
232.598297	147.220000
232.691010	147.660000
232.783722	146.840000
232.876450	147.340000
232.969162	146.580000
233.061874	145.920000
233.154587	145.440000
233.247314	146.040000
233.340027	145.180000
233.432739	145.640000
233.525467	145.940000
233.618179	146.500000
233.710907	146.220000
233.803635	146.920000
233.896347	146.300000
233.989090	146.960000
234.081818	146.640000
234.174545	146.840000
234.267258	146.180000
234.359985	146.340000
234.452713	146.100000
234.545441	145.960000
234.638168	146.000000
234.730896	146.740000
234.823639	146.680000
234.916367	146.680000
235.009094	146.780000
235.101822	146.540000
235.194580	146.080000
235.287308	146.120000
235.380051	145.680000
235.472778	146.020000
235.565521	146.300000
235.658249	146.140000
235.750992	146.460000
235.843719	146.720000
235.936462	146.660000
236.029205	146.160000
236.121948	146.200000
236.214691	146.260000
236.307449	146.740000
236.400192	146.420000
236.492935	146.340000
236.585678	146.440000
236.678421	146.360000
236.771164	146.280000
236.863907	146.880000
236.956665	147.380000
237.049408	148.940000
237.142151	148.340000
237.234909	148.760000
237.327652	148.820000
237.420410	148.420000
237.513153	147.540000
237.605927	147.680000
237.698669	147.080000
237.791428	146.240000
237.884186	146.680000
237.976944	145.840000
238.069702	146.200000
238.162445	146.040000
238.255203	146.260000
238.347961	146.500000
238.440720	146.680000
238.533478	146.480000
238.626266	145.960000
238.719025	146.440000
238.811783	146.300000
238.904541	146.280000
238.997314	146.460000
239.090073	146.520000
239.182831	146.500000
239.275604	147.000000
239.368362	146.560000
239.461136	146.560000
239.553909	146.640000
239.646667	146.340000
239.739441	146.080000
239.832214	146.660000
239.925003	146.760000
240.017761	147.400000
240.110535	147.840000
240.203308	147.060000
240.296082	147.160000
240.388855	146.960000
240.481628	146.900000
240.574417	147.000000
240.667191	147.400000
240.759964	146.980000
240.852737	146.940000
240.945526	146.640000
241.038315	146.020000
241.131088	145.880000
241.223877	146.280000
241.316650	145.880000
241.409439	145.960000
241.502228	145.680000
241.595001	146.480000
241.687790	146.260000
241.780579	146.500000
241.873367	146.840000
241.966141	147.240000
242.058929	146.280000
242.151718	146.420000
242.244507	146.740000
242.337311	145.640000
242.430099	146.020000
242.522903	146.520000
242.615692	146.300000
242.708481	146.220000
242.801270	147.120000
242.894073	147.140000
242.986862	146.940000
243.079651	147.220000
243.172455	147.100000
243.265244	147.100000
243.358063	146.420000
243.450867	146.820000
243.543655	146.820000
243.636459	146.800000
243.729263	146.940000
243.822067	147.460000
243.914856	147.600000
244.007660	147.840000
244.100464	147.660000
244.193268	147.160000
244.286072	146.820000
244.378876	145.980000
244.471680	145.400000
244.564499	145.860000
244.657318	146.460000
244.750122	146.720000
244.842926	146.240000
244.935745	146.820000
245.028549	146.540000
245.121368	146.180000
245.214172	146.080000
245.306992	147.020000
245.399796	146.620000
245.492615	146.720000
245.585434	146.600000
245.678253	146.700000
245.771072	146.580000
245.863892	146.940000
245.956711	147.080000
246.049530	146.760000
246.142349	146.500000
246.235168	146.540000
246.327988	146.940000
246.420807	147.000000
246.513626	147.260000
246.606445	147.140000
246.699280	147.020000
246.792099	146.600000
246.884918	146.040000
246.977753	146.000000
247.070587	146.120000
247.163422	146.080000
247.256241	146.000000
247.349075	146.500000
247.441895	146.540000
247.534729	146.580000
247.627563	146.580000
247.720383	147.000000
247.813217	147.020000
247.906052	146.780000
247.998886	146.980000
248.091736	146.940000
248.184570	146.300000
248.277405	145.820000
248.370239	146.620000
248.463074	147.400000
248.555908	147.820000
248.648743	147.900000
248.741592	148.280000
248.834427	147.820000
248.927261	146.620000
249.020111	146.600000
249.112946	147.380000
249.205795	146.960000
249.298630	147.180000
249.391495	147.520000
249.484344	147.120000
249.577179	146.420000
249.670029	146.780000
249.762878	147.140000
249.855728	146.840000
249.948563	146.960000
250.041412	146.420000
250.134262	146.520000
250.227112	146.500000
250.319962	147.160000
250.412827	147.220000
250.505692	147.280000
250.598541	147.280000
250.691391	146.880000
250.784241	146.520000
250.877106	146.640000
250.969955	146.640000
251.062805	146.920000
251.155670	147.120000
251.248520	146.860000
251.341385	146.940000
251.434235	146.700000
251.527100	146.200000
251.619965	145.800000
251.712814	146.740000
251.805695	146.660000
251.898560	147.160000
251.991425	147.560000
252.084290	147.720000
252.177155	146.580000
252.270020	146.140000
252.362885	146.080000
252.455750	145.820000
252.548615	145.580000
252.641479	145.700000
252.734360	145.440000
252.827240	145.280000
252.920105	145.500000
253.012970	145.660000
253.105850	145.760000
253.198715	145.920000
253.291595	146.020000
253.384460	145.360000
253.477341	145.400000
253.570221	145.420000
253.663086	145.260000
253.755966	145.800000
253.848846	146.120000
253.941727	146.100000
254.034592	146.440000
254.127472	146.100000
254.220367	146.020000
254.313248	146.200000
254.406128	145.860000
254.499008	145.700000
254.591904	146.820000
254.684784	147.380000
254.777664	147.480000
254.870544	147.420000
254.963440	147.400000
255.056335	147.620000
255.149216	146.560000
255.242111	146.740000
255.334991	147.060000
255.427887	147.140000
255.520767	146.600000
255.613663	146.960000
255.706558	146.140000
255.799438	145.940000
255.892334	145.500000
255.985229	145.540000
256.078125	145.160000
256.171021	145.580000
256.263916	145.820000
256.356812	146.180000
256.449707	146.420000
256.542603	146.320000
256.635498	146.660000
256.728394	146.760000
256.821289	146.440000
256.914215	146.440000
257.007080	147.200000
257.100006	147.240000
257.192932	147.500000
257.285828	147.960000
257.378723	147.440000
257.471619	146.860000
257.564545	145.980000
257.657440	145.760000
257.750336	146.380000
257.843262	146.440000
257.936157	147.720000
258.029053	148.340000
258.121979	148.780000
258.214874	148.000000
258.307800	147.880000
258.400696	146.640000
258.493622	146.300000
258.586517	145.320000
258.679443	145.660000
258.772339	145.400000
258.865265	145.500000
258.958160	145.440000
259.051086	146.220000
259.144012	145.780000
259.236938	146.520000
259.329834	146.640000
259.422791	146.560000
259.515717	145.980000
259.608612	146.020000
259.701538	146.080000
259.794464	145.940000
259.887390	146.060000
259.980316	145.940000
260.073212	145.720000
260.166138	144.780000
260.259064	145.120000
260.351990	145.940000
260.444916	145.840000
260.537842	146.140000
260.630768	147.160000
260.723694	146.760000
260.816620	146.120000
260.909546	146.160000
261.002472	146.060000
261.095398	145.320000
261.188354	145.480000
261.281281	145.220000
261.374207	145.440000
261.467133	145.960000
261.560089	146.260000
261.653015	146.080000
261.745972	146.860000
261.838867	147.420000
261.931824	147.340000
262.024780	146.880000
262.117706	147.120000
262.210663	146.960000
262.303589	146.640000
262.396515	146.520000
262.489471	147.460000
262.582397	147.140000
262.675354	146.940000
262.768280	146.800000
262.861237	146.600000
262.954163	146.280000
263.047119	146.480000
263.140045	146.080000
263.233002	145.960000
263.325958	146.220000
263.418884	145.980000
263.511841	145.980000
263.604797	146.240000
263.697723	146.140000
263.790680	146.180000
263.883636	146.700000
263.976593	146.540000
264.069550	146.480000
264.162476	146.360000
264.255463	146.080000
264.348419	145.580000
264.441376	145.720000
264.534332	145.680000
264.627289	145.820000
264.720245	146.160000
264.813202	146.040000
264.906158	146.340000
264.999115	146.620000
265.092072	146.460000
265.185028	146.860000
265.277985	147.120000
265.370941	146.660000
265.463898	146.520000
265.556854	146.540000
265.649811	145.480000
265.742798	145.380000
265.835754	145.500000
265.928711	145.840000
266.021667	145.920000
266.114655	146.280000
266.207611	146.480000
266.300568	145.800000
266.393585	145.460000
266.486511	145.920000
266.579498	145.480000
266.672485	145.060000
266.765442	145.500000
266.858429	145.780000
266.951385	145.340000
267.044342	145.600000
267.137329	145.740000
267.230316	146.180000
267.323273	145.640000
267.416260	146.140000
267.509216	146.000000
267.602203	145.980000
267.695160	146.080000
267.788147	146.160000
267.881134	145.600000
267.974091	145.800000
268.067078	145.740000
268.160065	145.580000
268.253052	145.520000
268.346008	145.760000
268.438995	145.560000
268.531982	145.580000
268.624969	145.380000
268.717987	145.860000
268.810944	145.940000
268.903961	146.020000
268.996948	145.620000
269.089905	146.280000
269.182892	146.300000
269.275879	146.480000
269.368866	146.360000
269.461853	147.180000
269.554871	146.740000
269.647858	146.440000
269.740845	146.500000
269.833832	146.920000
269.926819	146.500000
270.019806	146.440000
270.112793	146.340000
270.205811	146.420000
270.298798	146.200000
270.391785	146.720000
270.484772	146.560000
270.577789	146.700000
270.670776	146.280000
270.763763	146.400000
270.856750	146.460000
270.949768	146.320000
271.042786	146.380000
271.135773	146.400000
271.228790	146.500000
271.321808	145.800000
271.414795	145.540000
271.507782	145.300000
271.600800	145.160000
271.693817	144.880000
271.786804	145.560000
271.879822	146.140000
271.972809	146.100000
272.065826	146.500000
272.158844	146.280000
272.251831	146.500000
272.344849	146.200000
272.437866	145.980000
272.530853	145.880000
272.623871	146.320000
272.716888	145.440000
272.809906	145.800000
272.902893	145.980000
272.995911	145.520000
273.088928	145.360000
273.181946	145.600000
273.274963	145.240000
273.367981	145.180000
273.460999	145.460000
273.554047	145.880000
273.647003	146.640000
273.740051	146.740000
273.833069	147.540000
273.926086	147.840000
274.019135	147.660000
274.112152	146.740000
274.205170	146.880000
274.298187	146.500000
274.391205	146.040000
274.484222	145.860000
274.577240	146.100000
274.670258	145.600000
274.763306	145.400000
274.856323	145.980000
274.949341	146.040000
275.042358	146.660000
275.135406	146.980000
275.228424	147.040000
275.321442	146.820000
275.414490	146.500000
275.507507	146.280000
275.600525	146.860000
275.693573	146.560000
275.786591	145.800000
275.879669	146.200000
275.972656	145.600000
276.065735	145.080000
276.158752	145.760000
276.251801	146.900000
276.344818	146.620000
276.437866	147.180000
276.530884	147.080000
276.623932	146.120000
276.716980	145.960000
276.809998	145.960000
276.903046	145.820000
276.996094	146.580000
277.089111	147.500000
277.182159	147.640000
277.275208	147.460000
277.368256	147.460000
277.461304	147.060000
277.554321	146.100000
277.647369	145.800000
277.740417	146.120000
277.833466	145.900000
277.926514	145.660000
278.019562	146.740000
278.112610	146.240000
278.205688	146.300000
278.298706	146.520000
278.391785	146.540000
278.484833	145.540000
278.577881	145.720000
278.670929	146.040000
278.763977	145.960000
278.857025	146.220000
278.950073	146.700000
279.043121	146.620000
279.136169	146.260000
279.229248	146.180000
279.322296	146.220000
279.415344	145.800000
279.508392	145.860000
279.601440	146.140000
279.694519	145.900000
279.787567	145.580000
279.880615	145.880000
279.973694	146.000000
280.066742	145.800000
280.159790	146.140000
280.252869	146.100000
280.345917	146.240000
280.438995	146.200000
280.532074	145.980000
280.625122	146.160000
280.718201	147.080000
280.811279	146.920000
280.904327	147.140000
280.997406	147.540000
281.090454	147.440000
281.183533	146.340000
281.276581	146.240000
281.369659	146.060000
281.462738	145.760000
281.555786	145.720000
281.648865	146.100000
281.741943	146.240000
281.835022	146.620000
281.928070	146.600000
282.021149	146.520000
282.114227	146.200000
282.207306	145.920000
282.300385	145.640000
282.393433	145.880000
282.486511	145.660000
282.579590	146.160000
282.672668	146.780000
282.765747	146.420000
282.858856	145.880000
282.951904	146.000000
283.045013	146.000000
283.138062	146.360000
283.231171	146.700000
283.324249	147.160000
283.417328	147.540000
283.510406	147.280000
283.603485	146.580000
283.696564	146.440000
283.789642	146.620000
283.882751	146.040000
283.975830	146.660000
284.068909	146.640000
284.161987	147.360000
284.255066	146.540000
284.348175	146.820000
284.441254	146.300000
284.534332	146.580000
284.627441	145.940000
284.720520	146.280000
284.813599	146.180000
284.906708	146.060000
284.999786	145.760000
285.092896	145.520000
285.185974	146.400000
285.279053	146.140000
285.372192	146.280000
285.465240	146.800000
285.558380	146.900000
285.651459	146.320000
285.744568	147.280000
285.837677	147.000000
285.930756	147.000000
286.023865	146.880000
286.116943	146.300000
286.210052	146.200000
286.303162	146.380000
286.396240	146.000000
286.489349	146.020000
286.582458	146.820000
286.675568	146.400000
286.768646	146.380000
286.861755	146.520000
286.954865	147.200000
287.047974	146.680000
287.141083	146.560000
287.234161	146.300000
287.327271	146.080000
287.420380	145.880000
287.513519	145.900000
287.606598	145.960000
287.699738	146.200000
287.792816	146.240000
287.885956	146.040000
287.979034	145.900000
288.072174	145.860000
288.165283	145.640000
288.258392	145.920000
288.351501	145.540000
288.444611	146.160000
288.537720	146.600000
288.630859	146.600000
288.723969	146.640000
288.817078	147.100000
288.910187	146.920000
289.003296	146.160000
289.096436	146.120000
289.189545	145.800000
289.282654	145.260000
289.375763	145.320000
289.468903	145.900000
289.562012	146.260000
289.655121	146.300000
289.748260	146.780000
289.841400	147.100000
289.934509	146.800000
290.027649	146.820000
290.120728	146.540000
290.213898	146.540000
290.306976	145.780000
290.400146	145.900000
290.493256	145.520000
290.586395	145.840000
290.679535	146.040000
290.772644	146.100000
290.865784	145.460000
290.958893	145.700000
291.052032	145.340000
291.145172	145.000000
291.238281	144.920000
291.331421	145.500000
291.424561	145.780000
291.517670	145.780000
291.610809	146.100000
291.703949	146.400000
291.797089	146.680000
291.890228	146.180000
291.983337	146.440000
292.076477	146.120000
292.169617	146.280000
292.262756	146.280000
292.355927	146.200000
292.449036	146.060000
292.542206	146.600000
292.635315	146.640000
292.728485	146.340000
292.821625	146.220000
292.914764	147.540000
293.007904	147.300000
293.101044	147.020000
293.194183	147.060000
293.287323	147.600000
293.380463	146.540000
293.473602	146.260000
293.566742	146.380000
293.659882	146.700000
293.753021	146.860000
293.846191	146.880000
293.939331	146.600000
294.032471	146.560000
294.125610	145.980000
294.218781	146.080000
294.311920	146.480000
294.405060	146.840000
294.498230	146.820000
294.591370	147.160000
294.684540	146.540000
294.777679	145.860000
294.870850	146.180000
294.963959	146.180000
295.057159	145.820000
295.150299	146.100000
295.243469	146.020000
295.336609	145.480000
295.429779	145.360000
295.522919	146.100000
295.616089	145.980000
295.709229	146.760000
295.802399	146.960000
295.895569	146.760000
295.988708	146.380000
296.081879	146.660000
296.175018	146.000000
296.268188	145.900000
296.361359	146.400000
296.454529	146.400000
296.547668	146.280000
296.640839	146.660000
296.734009	146.620000
296.827179	146.740000
296.920319	147.060000
297.013519	146.680000
297.106659	146.660000
297.199860	146.740000
297.292999	146.600000
297.386200	145.980000
297.479309	146.060000
297.572510	145.940000
297.665680	145.500000
297.758850	145.280000
297.852020	145.500000
297.945190	145.640000
298.038361	145.460000
298.131531	146.680000
298.224701	146.580000
298.317871	146.160000
298.411072	145.700000
298.504242	145.420000
298.597412	144.600000
298.690582	145.140000
298.783752	145.600000
298.876923	146.320000
298.970093	146.440000
299.063293	146.760000
299.156464	146.600000
299.249634	146.620000
299.342834	146.400000
299.436005	146.960000
299.529205	146.880000
299.622345	146.920000
299.715576	146.540000
299.808716	146.080000
299.901917	145.780000
299.995117	145.860000
300.088287	146.100000
300.181488	146.040000
300.274658	146.320000
300.367828	146.660000
300.461029	146.660000
300.554199	146.420000
300.647400	147.000000
300.740601	147.500000
300.833771	147.120000
300.926971	147.280000
301.020142	146.820000
301.113342	146.340000
301.206512	145.920000
301.299713	146.180000
301.392914	145.740000
301.486084	146.180000
301.579285	145.980000
301.672516	146.800000
301.765686	146.400000
301.858887	146.600000
301.952057	146.480000
302.045288	146.960000
302.138458	146.420000
302.231659	146.360000
302.324860	146.140000
302.418060	146.080000
302.511261	145.960000
302.604462	145.960000
302.697662	146.040000
302.790863	145.780000
302.884064	145.360000
302.977264	145.360000
303.070465	145.660000
303.163666	146.380000
303.256866	146.880000
303.350067	147.060000
303.443268	147.100000
303.536469	147.180000
303.629669	146.600000
303.722870	146.900000
303.816071	146.820000
303.909271	146.480000
304.002472	145.620000
304.095673	145.160000
304.188934	144.380000
304.282104	145.400000
304.375336	145.660000
304.468506	145.780000
304.561768	145.700000
304.654968	146.160000
304.748169	145.480000
304.841370	145.240000
304.934601	145.580000
305.027802	145.800000
305.121002	145.520000
305.214233	145.320000
305.307434	145.520000
305.400665	145.980000
305.493866	145.740000
