Model Number: SPM-002-B   
Serial Number: 70087108
Firmware Version: 004.15.4
Exposure Time: 100000.000000us
Data Taken on: 11-12-2020 18:51:49.834
Wavelength	Amplitude
221.570786	0.000000
221.663406	0.000000
221.756027	0.000000
221.848648	0.000000
221.941269	0.000000
222.033905	0.000000
222.126526	0.000000
222.219162	0.000000
222.311798	0.000000
222.404419	0.000000
222.497055	0.000000
222.589676	0.000000
222.682312	0.000000
222.774933	0.000000
222.867569	0.000000
222.960205	0.000000
223.052841	0.000000
223.145462	0.000000
223.238098	0.000000
223.330734	0.000000
223.423386	0.000000
223.516022	0.000000
223.608658	0.000000
223.701309	0.000000
223.793945	0.000000
223.886581	0.000000
223.979218	0.000000
224.071869	0.000000
224.164505	0.000000
224.257156	0.000000
224.349792	0.000000
224.442444	0.000000
224.535095	0.000000
224.627747	0.000000
224.720398	0.000000
224.813034	0.000000
224.905685	0.000000
224.998337	145.140000
225.090988	144.840000
225.183640	144.900000
225.276291	144.840000
225.368942	145.140000
225.461594	145.200000
225.554245	145.580000
225.646912	145.720000
225.739578	146.240000
225.832230	146.720000
225.924896	146.040000
226.017548	146.600000
226.110199	147.000000
226.202866	146.260000
226.295532	146.100000
226.388184	146.080000
226.480850	145.060000
226.573517	144.440000
226.666168	144.820000
226.758835	144.980000
226.851501	145.620000
226.944183	145.920000
227.036850	145.940000
227.129517	146.000000
227.222183	146.200000
227.314850	146.020000
227.407516	146.520000
227.500198	147.220000
227.592865	146.700000
227.685532	146.060000
227.778214	145.780000
227.870880	145.960000
227.963562	146.060000
228.056229	146.720000
228.148926	146.780000
228.241592	147.760000
228.334274	147.260000
228.426956	146.660000
228.519638	146.560000
228.612305	146.120000
228.704987	145.760000
228.797668	145.880000
228.890350	145.640000
228.983032	145.040000
229.075714	145.940000
229.168396	145.140000
229.261108	144.740000
229.353790	145.100000
229.446472	145.520000
229.539169	145.380000
229.631851	145.580000
229.724533	146.040000
229.817230	146.160000
229.909912	147.060000
230.002609	146.580000
230.095306	146.540000
230.187988	146.320000
230.280685	145.900000
230.373383	144.600000
230.466095	144.480000
230.558792	144.780000
230.651474	144.780000
230.744171	144.880000
230.836868	145.080000
230.929581	145.520000
231.022278	145.620000
231.114975	145.480000
231.207672	145.400000
231.300369	146.040000
231.393082	146.200000
231.485779	145.680000
231.578506	145.660000
231.671204	145.780000
231.763916	145.280000
231.856613	145.120000
231.949326	145.520000
232.042023	145.580000
232.134735	145.660000
232.227448	145.660000
232.320160	145.920000
232.412872	145.940000
232.505585	146.440000
232.598297	146.780000
232.691010	146.700000
232.783722	146.260000
232.876450	146.620000
232.969162	146.260000
233.061874	145.800000
233.154587	145.780000
233.247314	146.160000
233.340027	145.700000
233.432739	146.120000
233.525467	146.220000
233.618179	146.440000
233.710907	145.940000
233.803635	146.340000
233.896347	146.000000
233.989090	146.340000
234.081818	146.200000
234.174545	146.680000
234.267258	145.980000
234.359985	146.260000
234.452713	145.960000
234.545441	145.820000
234.638168	145.340000
234.730896	145.820000
234.823639	145.520000
234.916367	146.000000
235.009094	146.500000
235.101822	146.760000
235.194580	146.620000
235.287308	146.680000
235.380051	146.060000
235.472778	146.020000
235.565521	146.060000
235.658249	145.940000
235.750992	146.080000
235.843719	146.080000
235.936462	146.280000
236.029205	145.840000
236.121948	145.640000
236.214691	145.660000
236.307449	146.440000
236.400192	145.680000
236.492935	145.940000
236.585678	146.220000
236.678421	146.240000
236.771164	145.780000
236.863907	146.580000
236.956665	146.620000
237.049408	148.160000
237.142151	147.560000
237.234909	148.260000
237.327652	148.100000
237.420410	148.000000
237.513153	146.780000
237.605927	146.840000
237.698669	145.940000
237.791428	145.380000
237.884186	145.860000
237.976944	145.460000
238.069702	145.820000
238.162445	145.500000
238.255203	145.340000
238.347961	145.480000
238.440720	145.420000
238.533478	145.280000
238.626266	145.200000
238.719025	145.700000
238.811783	145.300000
238.904541	145.360000
238.997314	145.280000
239.090073	145.360000
239.182831	145.540000
239.275604	146.280000
239.368362	146.220000
239.461136	146.520000
239.553909	146.580000
239.646667	146.280000
239.739441	145.740000
239.832214	146.140000
239.925003	146.120000
240.017761	146.760000
240.110535	147.340000
240.203308	146.880000
240.296082	146.680000
240.388855	146.540000
240.481628	146.500000
240.574417	146.380000
240.667191	146.920000
240.759964	146.780000
240.852737	146.740000
240.945526	146.400000
241.038315	146.340000
241.131088	146.320000
241.223877	146.700000
241.316650	146.500000
241.409439	146.920000
241.502228	146.340000
241.595001	146.800000
241.687790	146.440000
241.780579	146.740000
241.873367	146.600000
241.966141	146.860000
242.058929	145.980000
242.151718	146.400000
242.244507	146.600000
242.337311	145.800000
242.430099	146.380000
242.522903	146.820000
242.615692	146.480000
242.708481	146.420000
242.801270	147.120000
242.894073	146.800000
242.986862	146.960000
243.079651	147.200000
243.172455	146.900000
243.265244	147.100000
243.358063	146.480000
243.450867	146.480000
243.543655	146.420000
243.636459	146.360000
243.729263	146.440000
243.822067	146.940000
243.914856	147.060000
244.007660	146.960000
244.100464	147.100000
244.193268	146.440000
244.286072	146.140000
244.378876	145.440000
244.471680	144.920000
244.564499	145.440000
244.657318	146.400000
244.750122	146.620000
244.842926	146.320000
244.935745	147.380000
245.028549	146.720000
245.121368	146.220000
245.214172	146.480000
245.306992	146.960000
245.399796	146.200000
245.492615	146.220000
245.585434	145.860000
245.678253	145.660000
245.771072	145.780000
245.863892	146.400000
245.956711	146.660000
246.049530	146.580000
246.142349	146.180000
246.235168	146.220000
246.327988	146.100000
246.420807	145.880000
246.513626	145.900000
246.606445	146.100000
246.699280	145.820000
246.792099	145.620000
246.884918	145.280000
246.977753	145.220000
247.070587	145.340000
247.163422	145.620000
247.256241	145.580000
247.349075	146.040000
247.441895	146.080000
247.534729	145.900000
247.627563	145.780000
247.720383	146.300000
247.813217	146.040000
247.906052	145.980000
247.998886	146.200000
248.091736	145.860000
248.184570	145.520000
248.277405	145.940000
248.370239	146.660000
248.463074	147.360000
248.555908	147.840000
248.648743	147.660000
248.741592	147.660000
248.834427	147.280000
248.927261	146.160000
249.020111	146.720000
249.112946	147.300000
249.205795	146.680000
249.298630	146.620000
249.391495	146.720000
249.484344	145.980000
249.577179	145.800000
249.670029	146.160000
249.762878	146.580000
249.855728	147.200000
249.948563	147.240000
250.041412	146.600000
250.134262	146.980000
250.227112	147.240000
250.319962	146.920000
250.412827	147.140000
250.505692	147.000000
250.598541	146.740000
250.691391	146.040000
250.784241	146.160000
250.877106	146.040000
250.969955	145.980000
251.062805	146.620000
251.155670	147.020000
251.248520	146.620000
251.341385	146.720000
251.434235	146.960000
251.527100	146.340000
251.619965	145.920000
251.712814	146.440000
251.805695	146.180000
251.898560	146.180000
251.991425	146.080000
252.084290	146.260000
252.177155	146.020000
252.270020	146.200000
252.362885	146.400000
252.455750	146.600000
252.548615	146.300000
252.641479	146.140000
252.734360	145.800000
252.827240	145.760000
252.920105	145.920000
253.012970	145.880000
253.105850	145.900000
253.198715	145.940000
253.291595	145.860000
253.384460	145.380000
253.477341	145.680000
253.570221	145.820000
253.663086	145.720000
253.755966	146.220000
253.848846	146.480000
253.941727	146.560000
254.034592	146.640000
254.127472	146.140000
254.220367	145.900000
254.313248	146.020000
254.406128	145.460000
254.499008	145.680000
254.591904	146.800000
254.684784	147.320000
254.777664	147.020000
254.870544	147.300000
254.963440	147.260000
255.056335	147.080000
255.149216	146.440000
255.242111	147.140000
255.334991	147.440000
255.427887	147.240000
255.520767	147.260000
255.613663	147.240000
255.706558	146.340000
255.799438	145.880000
255.892334	145.780000
255.985229	145.640000
256.078125	145.780000
256.171021	145.860000
256.263916	146.380000
256.356812	146.360000
256.449707	146.340000
256.542603	146.000000
256.635498	146.580000
256.728394	146.420000
256.821289	146.180000
256.914215	146.480000
257.007080	147.000000
257.100006	147.160000
257.192932	147.720000
257.285828	147.920000
257.378723	147.460000
257.471619	147.280000
257.564545	146.660000
257.657440	146.200000
257.750336	146.680000
257.843262	146.540000
257.936157	147.440000
258.029053	147.740000
258.121979	147.760000
258.214874	147.040000
258.307800	147.000000
258.400696	145.460000
258.493622	145.600000
258.586517	144.820000
258.679443	145.120000
258.772339	144.760000
258.865265	145.240000
258.958160	144.940000
259.051086	146.100000
259.144012	146.020000
259.236938	147.080000
259.329834	147.140000
259.422791	146.980000
259.515717	146.180000
259.608612	145.980000
259.701538	146.040000
259.794464	146.000000
259.887390	146.080000
259.980316	145.960000
260.073212	145.820000
260.166138	144.700000
260.259064	144.900000
260.351990	145.280000
260.444916	145.580000
260.537842	146.200000
260.630768	146.940000
260.723694	146.680000
260.816620	146.340000
260.909546	146.200000
261.002472	145.500000
261.095398	144.960000
261.188354	144.800000
261.281281	144.300000
261.374207	144.440000
261.467133	145.320000
261.560089	145.880000
261.653015	146.060000
261.745972	146.940000
261.838867	147.360000
261.931824	147.340000
262.024780	146.720000
262.117706	146.780000
262.210663	146.920000
262.303589	146.460000
262.396515	146.440000
262.489471	147.460000
262.582397	147.320000
262.675354	146.400000
262.768280	146.480000
262.861237	146.420000
262.954163	145.880000
263.047119	146.040000
263.140045	146.020000
263.233002	145.840000
263.325958	145.340000
263.418884	144.860000
263.511841	145.000000
263.604797	145.380000
263.697723	145.380000
263.790680	145.900000
263.883636	146.680000
263.976593	146.460000
264.069550	146.580000
264.162476	146.520000
264.255463	146.180000
264.348419	145.780000
264.441376	146.080000
264.534332	145.700000
264.627289	145.660000
264.720245	146.540000
264.813202	146.080000
264.906158	146.180000
264.999115	146.580000
265.092072	146.600000
265.185028	146.580000
265.277985	147.020000
265.370941	146.620000
265.463898	146.520000
265.556854	146.440000
265.649811	145.260000
265.742798	145.320000
265.835754	145.640000
265.928711	146.100000
266.021667	146.360000
266.114655	147.160000
266.207611	147.160000
266.300568	146.200000
266.393585	145.700000
266.486511	145.920000
266.579498	144.900000
266.672485	145.080000
266.765442	145.420000
266.858429	145.820000
266.951385	145.160000
267.044342	145.520000
267.137329	145.460000
267.230316	145.940000
267.323273	145.280000
267.416260	146.440000
267.509216	146.460000
267.602203	146.040000
267.695160	146.480000
267.788147	146.440000
267.881134	145.520000
267.974091	145.800000
268.067078	146.020000
268.160065	145.360000
268.253052	145.300000
268.346008	145.500000
268.438995	144.880000
268.531982	145.100000
268.624969	145.220000
268.717987	145.580000
268.810944	145.700000
268.903961	146.480000
268.996948	146.260000
269.089905	146.620000
269.182892	146.740000
269.275879	146.720000
269.368866	146.180000
269.461853	146.460000
269.554871	146.060000
269.647858	146.180000
269.740845	146.840000
269.833832	147.080000
269.926819	146.640000
270.019806	146.780000
270.112793	146.200000
270.205811	145.900000
270.298798	146.040000
270.391785	146.580000
270.484772	146.460000
270.577789	146.660000
270.670776	146.120000
270.763763	146.160000
270.856750	146.380000
270.949768	146.140000
271.042786	146.440000
271.135773	146.880000
271.228790	146.780000
271.321808	146.000000
271.414795	145.840000
271.507782	145.440000
271.600800	144.960000
271.693817	145.020000
271.786804	145.440000
271.879822	145.740000
271.972809	145.800000
272.065826	146.160000
272.158844	145.880000
272.251831	146.380000
272.344849	146.440000
272.437866	146.060000
272.530853	145.940000
272.623871	145.940000
272.716888	144.920000
272.809906	145.220000
272.902893	145.440000
272.995911	145.040000
273.088928	145.340000
273.181946	145.740000
273.274963	145.020000
273.367981	144.980000
273.460999	145.480000
273.554047	145.520000
273.647003	146.020000
273.740051	146.320000
273.833069	146.840000
273.926086	146.640000
274.019135	146.260000
274.112152	145.760000
274.205170	145.640000
274.298187	146.040000
274.391205	145.600000
274.484222	145.820000
274.577240	145.920000
274.670258	146.040000
274.763306	145.360000
274.856323	146.080000
274.949341	145.840000
275.042358	146.100000
275.135406	145.980000
275.228424	146.020000
275.321442	145.980000
275.414490	145.960000
275.507507	146.160000
275.600525	146.820000
275.693573	146.640000
275.786591	146.140000
275.879669	146.560000
275.972656	145.980000
276.065735	145.520000
276.158752	146.220000
276.251801	147.120000
276.344818	147.080000
276.437866	147.100000
276.530884	146.960000
276.623932	146.160000
276.716980	145.980000
276.809998	146.060000
276.903046	146.240000
276.996094	147.000000
277.089111	147.560000
277.182159	147.840000
277.275208	147.380000
277.368256	147.420000
277.461304	146.760000
277.554321	146.200000
277.647369	145.900000
277.740417	146.080000
277.833466	145.500000
277.926514	145.600000
278.019562	146.340000
278.112610	145.600000
278.205688	145.640000
278.298706	145.960000
278.391785	145.520000
278.484833	144.760000
278.577881	144.700000
278.670929	144.820000
278.763977	145.140000
278.857025	145.840000
278.950073	146.420000
279.043121	146.480000
279.136169	146.400000
279.229248	145.920000
279.322296	145.840000
279.415344	145.420000
279.508392	145.600000
279.601440	145.640000
279.694519	145.480000
279.787567	145.400000
279.880615	145.320000
279.973694	145.180000
280.066742	145.180000
280.159790	145.640000
280.252869	145.040000
280.345917	145.340000
280.438995	145.360000
280.532074	145.360000
280.625122	145.660000
280.718201	147.040000
280.811279	146.820000
280.904327	147.080000
280.997406	147.180000
281.090454	146.900000
281.183533	145.880000
281.276581	145.960000
281.369659	145.480000
281.462738	145.460000
281.555786	145.420000
281.648865	145.620000
281.741943	145.680000
281.835022	146.300000
281.928070	146.180000
282.021149	146.060000
282.114227	145.660000
282.207306	145.540000
282.300385	145.600000
282.393433	145.620000
282.486511	145.780000
282.579590	146.500000
282.672668	146.740000
282.765747	146.240000
282.858856	146.020000
282.951904	146.020000
283.045013	146.080000
283.138062	146.220000
283.231171	146.860000
283.324249	147.420000
283.417328	147.700000
283.510406	147.060000
283.603485	146.840000
283.696564	146.700000
283.789642	146.780000
283.882751	146.560000
283.975830	147.420000
284.068909	147.060000
284.161987	147.520000
284.255066	146.640000
284.348175	146.620000
284.441254	146.040000
284.534332	146.980000
284.627441	146.240000
284.720520	146.240000
284.813599	146.020000
284.906708	146.100000
284.999786	145.040000
285.092896	144.980000
285.185974	145.960000
285.279053	145.660000
285.372192	145.760000
285.465240	146.600000
285.558380	146.620000
285.651459	146.240000
285.744568	147.440000
285.837677	146.920000
285.930756	146.500000
286.023865	146.520000
286.116943	146.260000
286.210052	145.980000
286.303162	146.240000
286.396240	146.180000
286.489349	146.080000
286.582458	146.000000
286.675568	145.540000
286.768646	145.700000
286.861755	145.980000
286.954865	146.380000
287.047974	146.160000
287.141083	146.060000
287.234161	145.900000
287.327271	145.660000
287.420380	146.240000
287.513519	146.380000
287.606598	146.640000
287.699738	146.640000
287.792816	146.600000
287.885956	145.960000
287.979034	145.820000
288.072174	145.800000
288.165283	145.640000
288.258392	145.580000
288.351501	144.960000
288.444611	145.540000
288.537720	145.740000
288.630859	145.860000
288.723969	146.120000
288.817078	146.680000
288.910187	146.200000
289.003296	145.480000
289.096436	145.160000
289.189545	145.260000
289.282654	145.040000
289.375763	145.500000
289.468903	146.080000
289.562012	146.620000
289.655121	146.360000
289.748260	146.440000
289.841400	146.780000
289.934509	146.600000
290.027649	146.820000
290.120728	146.800000
290.213898	146.820000
290.306976	146.060000
290.400146	146.120000
290.493256	145.380000
290.586395	145.520000
290.679535	145.960000
290.772644	146.000000
290.865784	145.080000
290.958893	145.220000
291.052032	145.000000
291.145172	144.440000
291.238281	144.260000
291.331421	145.000000
291.424561	145.340000
291.517670	145.400000
291.610809	145.940000
291.703949	145.940000
291.797089	146.020000
291.890228	145.720000
291.983337	145.520000
292.076477	144.980000
292.169617	145.260000
292.262756	145.100000
292.355927	145.100000
292.449036	145.040000
292.542206	145.380000
292.635315	145.580000
292.728485	146.180000
292.821625	145.760000
292.914764	147.120000
293.007904	147.300000
293.101044	147.080000
293.194183	146.940000
293.287323	147.300000
293.380463	146.420000
293.473602	146.100000
293.566742	146.280000
293.659882	146.400000
293.753021	146.720000
293.846191	146.460000
293.939331	146.020000
294.032471	146.080000
294.125610	145.660000
294.218781	146.120000
294.311920	146.660000
294.405060	146.940000
294.498230	146.660000
294.591370	146.980000
294.684540	145.880000
294.777679	145.160000
294.870850	145.380000
294.963959	145.580000
295.057159	144.920000
295.150299	145.440000
295.243469	145.620000
295.336609	145.080000
295.429779	144.920000
295.522919	145.440000
295.616089	145.640000
295.709229	146.180000
295.802399	146.660000
295.895569	146.480000
295.988708	146.040000
296.081879	146.020000
296.175018	145.700000
296.268188	145.500000
296.361359	145.900000
296.454529	146.300000
296.547668	146.020000
296.640839	145.940000
296.734009	145.720000
296.827179	145.980000
296.920319	146.140000
297.013519	145.960000
297.106659	146.200000
297.199860	146.260000
297.292999	145.660000
297.386200	145.180000
297.479309	145.280000
297.572510	145.260000
297.665680	145.100000
297.758850	145.460000
297.852020	145.720000
297.945190	145.560000
298.038361	145.080000
298.131531	146.080000
298.224701	145.740000
298.317871	145.340000
298.411072	145.080000
298.504242	145.080000
298.597412	144.400000
298.690582	144.860000
298.783752	144.920000
298.876923	145.500000
298.970093	145.440000
299.063293	145.820000
299.156464	145.880000
299.249634	146.620000
299.342834	146.700000
299.436005	147.340000
299.529205	147.300000
299.622345	147.220000
299.715576	146.440000
299.808716	146.160000
299.901917	146.240000
299.995117	146.420000
300.088287	146.380000
300.181488	146.140000
300.274658	145.740000
300.367828	145.320000
300.461029	145.120000
300.554199	145.480000
300.647400	145.880000
300.740601	146.900000
300.833771	146.840000
300.926971	146.920000
301.020142	146.300000
301.113342	146.060000
301.206512	145.540000
301.299713	145.840000
301.392914	145.620000
301.486084	145.940000
301.579285	145.840000
301.672516	146.140000
301.765686	145.840000
301.858887	145.840000
301.952057	145.780000
302.045288	146.280000
302.138458	146.180000
302.231659	145.900000
302.324860	145.840000
302.418060	145.580000
302.511261	145.220000
302.604462	145.340000
302.697662	145.540000
302.790863	145.600000
302.884064	145.300000
302.977264	145.300000
303.070465	145.180000
303.163666	145.620000
303.256866	145.600000
303.350067	145.840000
303.443268	146.280000
303.536469	146.660000
303.629669	146.160000
303.722870	146.500000
303.816071	146.460000
303.909271	146.180000
304.002472	145.140000
304.095673	145.360000
304.188934	144.900000
304.282104	145.700000
304.375336	145.720000
304.468506	146.120000
304.561768	145.860000
304.654968	146.440000
304.748169	145.820000
304.841370	145.640000
304.934601	146.060000
305.027802	145.820000
305.121002	145.360000
305.214233	145.500000
305.307434	145.600000
305.400665	145.960000
305.493866	145.900000
