Model Number: SPM-002-B   
Serial Number: 70087108
Firmware Version: 004.15.4
Exposure Time: 100000.000000us
Data Taken on: 11-12-2020 18:52:10.697
Wavelength	Amplitude
221.570786	0.000000
221.663406	0.000000
221.756027	0.000000
221.848648	0.000000
221.941269	0.000000
222.033905	0.000000
222.126526	0.000000
222.219162	0.000000
222.311798	0.000000
222.404419	0.000000
222.497055	0.000000
222.589676	0.000000
222.682312	0.000000
222.774933	0.000000
222.867569	0.000000
222.960205	0.000000
223.052841	0.000000
223.145462	0.000000
223.238098	0.000000
223.330734	0.000000
223.423386	0.000000
223.516022	0.000000
223.608658	0.000000
223.701309	0.000000
223.793945	0.000000
223.886581	0.000000
223.979218	0.000000
224.071869	0.000000
224.164505	0.000000
224.257156	0.000000
224.349792	0.000000
224.442444	0.000000
224.535095	0.000000
224.627747	0.000000
224.720398	0.000000
224.813034	0.000000
224.905685	0.000000
224.998337	145.520000
225.090988	145.620000
225.183640	145.720000
225.276291	145.680000
225.368942	146.320000
225.461594	146.380000
225.554245	146.280000
225.646912	146.160000
225.739578	146.380000
225.832230	146.480000
225.924896	145.780000
226.017548	146.300000
226.110199	146.620000
226.202866	145.960000
226.295532	145.880000
226.388184	146.160000
226.480850	145.440000
226.573517	144.860000
226.666168	144.920000
226.758835	145.080000
226.851501	145.540000
226.944183	145.980000
227.036850	145.920000
227.129517	146.080000
227.222183	146.220000
227.314850	146.200000
227.407516	146.120000
227.500198	146.920000
227.592865	146.900000
227.685532	146.480000
227.778214	146.340000
227.870880	146.780000
227.963562	146.960000
228.056229	147.060000
228.148926	147.040000
228.241592	147.740000
228.334274	147.000000
228.426956	146.600000
228.519638	146.360000
228.612305	145.880000
228.704987	145.480000
228.797668	145.660000
228.890350	145.480000
228.983032	145.300000
229.075714	146.440000
229.168396	146.060000
229.261108	145.800000
229.353790	145.720000
229.446472	146.040000
229.539169	145.440000
229.631851	145.400000
229.724533	145.560000
229.817230	145.840000
229.909912	146.520000
230.002609	146.480000
230.095306	146.500000
230.187988	146.420000
230.280685	146.200000
230.373383	145.360000
230.466095	145.460000
230.558792	145.600000
230.651474	145.980000
230.744171	145.980000
230.836868	145.560000
230.929581	145.880000
231.022278	146.040000
231.114975	146.040000
231.207672	145.640000
231.300369	146.480000
231.393082	146.560000
231.485779	146.280000
231.578506	145.960000
231.671204	146.180000
231.763916	145.980000
231.856613	145.520000
231.949326	145.900000
232.042023	145.920000
232.134735	146.060000
232.227448	145.700000
232.320160	146.000000
232.412872	145.580000
232.505585	146.440000
232.598297	146.880000
232.691010	146.980000
232.783722	146.540000
232.876450	147.180000
232.969162	146.340000
233.061874	145.480000
233.154587	145.220000
233.247314	145.680000
233.340027	144.880000
233.432739	145.460000
233.525467	145.700000
233.618179	146.100000
233.710907	145.760000
233.803635	146.280000
233.896347	145.920000
233.989090	146.540000
234.081818	146.360000
234.174545	146.680000
234.267258	146.260000
234.359985	146.320000
234.452713	146.060000
234.545441	146.160000
234.638168	146.100000
234.730896	146.660000
234.823639	146.420000
234.916367	146.780000
235.009094	146.940000
235.101822	147.020000
235.194580	146.540000
235.287308	146.580000
235.380051	145.820000
235.472778	145.900000
235.565521	145.960000
235.658249	145.640000
235.750992	145.880000
235.843719	146.100000
235.936462	146.040000
236.029205	145.600000
236.121948	145.980000
236.214691	146.180000
236.307449	146.580000
236.400192	146.120000
236.492935	145.700000
236.585678	145.880000
236.678421	145.760000
236.771164	145.840000
236.863907	146.500000
236.956665	147.200000
237.049408	148.980000
237.142151	148.480000
237.234909	148.900000
237.327652	148.740000
237.420410	148.360000
237.513153	146.800000
237.605927	146.780000
237.698669	146.060000
237.791428	145.520000
237.884186	146.400000
237.976944	145.740000
238.069702	146.280000
238.162445	145.820000
238.255203	145.860000
238.347961	145.720000
238.440720	145.980000
238.533478	145.800000
238.626266	145.540000
238.719025	145.960000
238.811783	145.600000
238.904541	145.480000
238.997314	145.480000
239.090073	145.620000
239.182831	145.940000
239.275604	146.820000
239.368362	146.760000
239.461136	146.760000
239.553909	146.860000
239.646667	146.160000
239.739441	145.480000
239.832214	145.980000
239.925003	145.900000
240.017761	146.580000
240.110535	147.340000
240.203308	146.760000
240.296082	146.520000
240.388855	146.580000
240.481628	146.320000
240.574417	146.160000
240.667191	146.400000
240.759964	146.260000
240.852737	146.440000
240.945526	146.500000
241.038315	146.420000
241.131088	146.620000
241.223877	146.800000
241.316650	146.040000
241.409439	146.020000
241.502228	145.460000
241.595001	145.900000
241.687790	146.100000
241.780579	146.700000
241.873367	146.800000
241.966141	147.320000
242.058929	146.560000
242.151718	146.360000
242.244507	146.480000
242.337311	145.880000
242.430099	146.280000
242.522903	146.620000
242.615692	146.220000
242.708481	146.160000
242.801270	146.560000
242.894073	146.280000
242.986862	146.520000
243.079651	147.400000
243.172455	147.300000
243.265244	147.440000
243.358063	146.740000
243.450867	146.820000
243.543655	146.560000
243.636459	146.600000
243.729263	146.700000
243.822067	147.240000
243.914856	147.480000
244.007660	147.340000
244.100464	147.420000
244.193268	147.040000
244.286072	147.080000
244.378876	146.300000
244.471680	145.900000
244.564499	146.100000
244.657318	146.960000
244.750122	147.120000
244.842926	146.800000
244.935745	147.320000
245.028549	146.560000
245.121368	145.780000
245.214172	145.460000
245.306992	145.920000
245.399796	145.740000
245.492615	146.220000
245.585434	146.340000
245.678253	146.440000
245.771072	146.400000
245.863892	146.440000
245.956711	146.900000
246.049530	146.560000
246.142349	146.140000
246.235168	146.060000
246.327988	146.540000
246.420807	145.960000
246.513626	146.120000
246.606445	146.040000
246.699280	146.000000
246.792099	145.780000
246.884918	145.520000
246.977753	145.320000
247.070587	145.700000
247.163422	145.940000
247.256241	145.800000
247.349075	146.300000
247.441895	146.400000
247.534729	146.460000
247.627563	146.200000
247.720383	146.560000
247.813217	146.540000
247.906052	146.300000
247.998886	146.280000
248.091736	146.080000
248.184570	145.640000
248.277405	145.760000
248.370239	146.920000
248.463074	147.680000
248.555908	148.120000
248.648743	148.140000
248.741592	147.860000
248.834427	147.020000
248.927261	145.560000
249.020111	145.900000
249.112946	146.320000
249.205795	145.920000
249.298630	146.100000
249.391495	146.720000
249.484344	146.220000
249.577179	146.300000
249.670029	146.860000
249.762878	147.280000
249.855728	147.340000
249.948563	147.400000
250.041412	146.480000
250.134262	146.460000
250.227112	146.320000
250.319962	146.240000
250.412827	146.220000
250.505692	145.940000
250.598541	145.840000
250.691391	145.480000
250.784241	145.600000
250.877106	145.740000
250.969955	146.060000
251.062805	146.700000
251.155670	146.940000
251.248520	146.500000
251.341385	146.860000
251.434235	146.920000
251.527100	146.020000
251.619965	145.720000
251.712814	146.880000
251.805695	146.740000
251.898560	146.840000
251.991425	147.440000
252.084290	147.720000
252.177155	146.640000
252.270020	146.240000
252.362885	146.380000
252.455750	146.080000
252.548615	145.600000
252.641479	145.680000
252.734360	145.580000
252.827240	145.220000
252.920105	145.040000
253.012970	145.300000
253.105850	145.020000
253.198715	144.860000
253.291595	145.140000
253.384460	144.900000
253.477341	144.620000
253.570221	145.060000
253.663086	145.160000
253.755966	145.640000
253.848846	146.020000
253.941727	146.700000
254.034592	146.640000
254.127472	145.920000
254.220367	145.360000
254.313248	145.460000
254.406128	144.780000
254.499008	145.180000
254.591904	146.620000
254.684784	147.360000
254.777664	147.220000
254.870544	146.880000
254.963440	146.540000
255.056335	146.040000
255.149216	145.380000
255.242111	145.780000
255.334991	146.460000
255.427887	146.740000
255.520767	146.900000
255.613663	147.280000
255.706558	146.700000
255.799438	146.580000
255.892334	146.140000
255.985229	145.940000
256.078125	145.760000
256.171021	145.880000
256.263916	146.000000
256.356812	146.220000
256.449707	146.240000
256.542603	146.120000
256.635498	146.600000
256.728394	146.520000
256.821289	146.560000
256.914215	146.740000
257.007080	146.860000
257.100006	146.880000
257.192932	147.280000
257.285828	147.300000
257.378723	147.120000
257.471619	146.940000
257.564545	146.340000
257.657440	146.240000
257.750336	146.680000
257.843262	146.640000
257.936157	147.780000
258.029053	148.240000
258.121979	148.300000
258.214874	148.020000
258.307800	147.860000
258.400696	146.480000
258.493622	146.240000
258.586517	145.240000
258.679443	145.200000
258.772339	145.020000
258.865265	145.200000
258.958160	144.580000
259.051086	145.820000
259.144012	145.740000
259.236938	146.400000
259.329834	146.520000
259.422791	147.000000
259.515717	146.080000
259.608612	145.860000
259.701538	145.960000
259.794464	145.700000
259.887390	145.820000
259.980316	146.020000
260.073212	145.720000
260.166138	144.620000
260.259064	145.100000
260.351990	145.480000
260.444916	145.660000
260.537842	146.100000
260.630768	147.180000
260.723694	147.040000
260.816620	147.180000
260.909546	147.080000
261.002472	146.920000
261.095398	146.140000
261.188354	146.180000
261.281281	145.360000
261.374207	145.360000
261.467133	146.060000
261.560089	146.420000
261.653015	146.140000
261.745972	146.620000
261.838867	147.180000
261.931824	147.300000
262.024780	146.920000
262.117706	147.060000
262.210663	147.360000
262.303589	146.880000
262.396515	146.440000
262.489471	147.360000
262.582397	147.160000
262.675354	146.800000
262.768280	146.780000
262.861237	146.800000
262.954163	146.620000
263.047119	147.100000
263.140045	146.780000
263.233002	147.000000
263.325958	146.940000
263.418884	146.300000
263.511841	146.020000
263.604797	146.180000
263.697723	145.700000
263.790680	145.680000
263.883636	146.160000
263.976593	146.100000
264.069550	146.200000
264.162476	146.140000
264.255463	146.100000
264.348419	145.940000
264.441376	146.100000
264.534332	145.700000
264.627289	146.380000
264.720245	146.900000
264.813202	146.520000
264.906158	146.820000
264.999115	147.440000
265.092072	147.000000
265.185028	147.020000
265.277985	147.360000
265.370941	146.840000
265.463898	146.240000
265.556854	146.100000
265.649811	145.340000
265.742798	145.720000
265.835754	146.100000
265.928711	146.800000
266.021667	146.960000
266.114655	147.040000
266.207611	147.020000
266.300568	146.300000
266.393585	145.820000
266.486511	146.140000
266.579498	145.920000
266.672485	145.400000
266.765442	145.720000
266.858429	146.380000
266.951385	146.000000
267.044342	146.180000
267.137329	146.620000
267.230316	146.820000
267.323273	146.000000
267.416260	146.540000
267.509216	146.700000
267.602203	146.260000
267.695160	146.640000
267.788147	146.820000
267.881134	146.340000
267.974091	146.380000
268.067078	146.440000
268.160065	146.240000
268.253052	146.360000
268.346008	146.420000
268.438995	146.040000
268.531982	146.280000
268.624969	145.660000
268.717987	145.940000
268.810944	145.920000
268.903961	146.220000
268.996948	145.880000
269.089905	146.660000
269.182892	146.520000
269.275879	146.820000
269.368866	146.640000
269.461853	146.740000
269.554871	146.380000
269.647858	146.500000
269.740845	146.660000
269.833832	147.020000
269.926819	146.860000
270.019806	147.000000
270.112793	146.460000
270.205811	146.380000
270.298798	146.020000
270.391785	146.740000
270.484772	146.620000
270.577789	146.580000
270.670776	145.960000
270.763763	145.880000
270.856750	145.600000
270.949768	145.240000
271.042786	145.300000
271.135773	145.520000
271.228790	146.060000
271.321808	145.740000
271.414795	145.760000
271.507782	145.520000
271.600800	145.420000
271.693817	145.380000
271.786804	145.920000
271.879822	146.180000
271.972809	146.600000
272.065826	147.000000
272.158844	146.420000
272.251831	146.680000
272.344849	146.840000
272.437866	146.620000
272.530853	146.740000
272.623871	147.160000
272.716888	146.180000
272.809906	146.360000
272.902893	146.060000
272.995911	145.420000
273.088928	145.280000
273.181946	145.580000
273.274963	145.060000
273.367981	145.520000
273.460999	145.780000
273.554047	146.260000
273.647003	146.920000
273.740051	147.120000
273.833069	147.360000
273.926086	147.600000
274.019135	147.000000
274.112152	146.420000
274.205170	146.300000
274.298187	146.580000
274.391205	146.280000
274.484222	146.460000
274.577240	146.580000
274.670258	146.640000
274.763306	146.200000
274.856323	146.340000
274.949341	146.400000
275.042358	146.660000
275.135406	146.680000
275.228424	146.900000
275.321442	146.900000
275.414490	146.560000
275.507507	146.840000
275.600525	147.280000
275.693573	146.860000
275.786591	146.540000
275.879669	146.980000
275.972656	146.520000
276.065735	146.040000
276.158752	146.660000
276.251801	147.560000
276.344818	147.320000
276.437866	147.320000
276.530884	147.200000
276.623932	146.300000
276.716980	146.220000
276.809998	146.580000
276.903046	146.520000
276.996094	147.560000
277.089111	148.360000
277.182159	148.540000
277.275208	148.020000
277.368256	147.760000
277.461304	147.120000
277.554321	146.420000
277.647369	145.840000
277.740417	146.160000
277.833466	145.980000
277.926514	145.940000
278.019562	146.660000
278.112610	146.220000
278.205688	146.120000
278.298706	146.680000
278.391785	146.580000
278.484833	145.860000
278.577881	145.960000
278.670929	145.940000
278.763977	145.960000
278.857025	146.200000
278.950073	146.360000
279.043121	146.220000
279.136169	146.480000
279.229248	145.880000
279.322296	145.580000
279.415344	145.560000
279.508392	145.520000
279.601440	145.360000
279.694519	145.560000
279.787567	145.580000
279.880615	145.540000
279.973694	146.000000
280.066742	146.100000
280.159790	146.280000
280.252869	145.860000
280.345917	146.120000
280.438995	145.720000
280.532074	145.660000
280.625122	146.060000
280.718201	147.080000
280.811279	146.980000
280.904327	147.280000
280.997406	147.380000
281.090454	147.200000
281.183533	146.340000
281.276581	146.260000
281.369659	146.080000
281.462738	145.920000
281.555786	146.040000
281.648865	146.340000
281.741943	146.360000
281.835022	146.800000
281.928070	146.560000
282.021149	146.140000
282.114227	145.860000
282.207306	146.060000
282.300385	146.180000
282.393433	146.500000
282.486511	146.840000
282.579590	147.480000
282.672668	147.340000
282.765747	146.740000
282.858856	146.300000
282.951904	146.380000
283.045013	146.500000
283.138062	146.900000
283.231171	147.340000
283.324249	148.160000
283.417328	148.160000
283.510406	147.540000
283.603485	147.240000
283.696564	146.980000
283.789642	146.700000
283.882751	146.240000
283.975830	146.600000
284.068909	146.460000
284.161987	147.240000
284.255066	146.880000
284.348175	146.880000
284.441254	146.840000
284.534332	147.060000
284.627441	146.460000
284.720520	146.420000
284.813599	146.420000
284.906708	146.280000
284.999786	145.860000
285.092896	145.580000
285.185974	146.800000
285.279053	146.340000
285.372192	146.500000
285.465240	147.340000
285.558380	147.340000
285.651459	146.260000
285.744568	147.360000
285.837677	146.960000
285.930756	146.380000
286.023865	146.620000
286.116943	146.420000
286.210052	146.260000
286.303162	146.340000
286.396240	146.460000
286.489349	146.120000
286.582458	146.620000
286.675568	146.420000
286.768646	146.680000
286.861755	147.300000
286.954865	148.280000
287.047974	147.920000
287.141083	147.700000
287.234161	147.660000
287.327271	146.960000
287.420380	147.080000
287.513519	147.120000
287.606598	147.360000
287.699738	147.500000
287.792816	147.380000
287.885956	146.580000
287.979034	146.320000
288.072174	146.180000
288.165283	145.740000
288.258392	146.260000
288.351501	145.780000
288.444611	145.920000
288.537720	146.400000
288.630859	146.680000
288.723969	146.440000
288.817078	147.120000
288.910187	147.300000
289.003296	146.420000
289.096436	146.320000
289.189545	146.040000
289.282654	145.300000
289.375763	145.420000
289.468903	146.240000
289.562012	146.320000
289.655121	146.660000
289.748260	147.340000
289.841400	147.780000
289.934509	147.200000
290.027649	147.480000
290.120728	147.260000
290.213898	147.320000
290.306976	146.480000
290.400146	146.760000
290.493256	146.060000
290.586395	146.220000
290.679535	146.380000
290.772644	146.560000
290.865784	145.880000
290.958893	146.180000
291.052032	146.140000
291.145172	145.880000
291.238281	145.680000
291.331421	146.240000
291.424561	146.600000
291.517670	146.480000
291.610809	146.620000
291.703949	147.040000
291.797089	147.180000
291.890228	146.680000
291.983337	146.660000
292.076477	146.360000
292.169617	146.120000
292.262756	146.120000
292.355927	146.200000
292.449036	145.980000
292.542206	146.160000
292.635315	146.620000
292.728485	146.700000
292.821625	146.260000
292.914764	147.340000
293.007904	147.400000
293.101044	147.160000
293.194183	147.220000
293.287323	147.800000
293.380463	146.960000
293.473602	146.480000
293.566742	146.500000
293.659882	146.840000
293.753021	146.740000
293.846191	146.840000
293.939331	147.020000
294.032471	147.080000
294.125610	146.280000
294.218781	146.660000
294.311920	146.760000
294.405060	146.720000
294.498230	146.660000
294.591370	146.980000
294.684540	146.160000
294.777679	145.940000
294.870850	146.320000
294.963959	145.960000
295.057159	145.880000
295.150299	146.480000
295.243469	146.380000
295.336609	145.840000
295.429779	145.860000
295.522919	146.200000
295.616089	146.240000
295.709229	146.900000
295.802399	147.240000
295.895569	146.940000
295.988708	146.400000
296.081879	146.340000
296.175018	145.640000
296.268188	145.580000
296.361359	146.300000
296.454529	146.760000
296.547668	146.600000
296.640839	146.960000
296.734009	146.780000
296.827179	146.740000
296.920319	146.880000
297.013519	146.680000
297.106659	146.760000
297.199860	146.820000
297.292999	146.720000
297.386200	146.120000
297.479309	146.280000
297.572510	146.140000
297.665680	145.680000
297.758850	145.400000
297.852020	145.580000
297.945190	145.400000
298.038361	145.020000
298.131531	146.340000
298.224701	146.400000
298.317871	146.300000
298.411072	146.140000
298.504242	146.040000
298.597412	145.260000
298.690582	145.640000
298.783752	145.380000
298.876923	146.160000
298.970093	146.460000
299.063293	146.620000
299.156464	146.880000
299.249634	147.400000
299.342834	147.120000
299.436005	147.420000
299.529205	147.520000
299.622345	147.400000
299.715576	146.760000
299.808716	146.660000
299.901917	146.560000
299.995117	146.620000
300.088287	146.600000
300.181488	146.580000
300.274658	146.500000
300.367828	146.680000
300.461029	146.400000
300.554199	146.620000
300.647400	147.040000
300.740601	147.340000
300.833771	146.940000
300.926971	147.440000
301.020142	146.680000
301.113342	146.700000
301.206512	146.580000
301.299713	146.800000
301.392914	146.480000
301.486084	147.040000
301.579285	146.680000
301.672516	146.820000
301.765686	146.680000
301.858887	146.480000
301.952057	146.180000
302.045288	146.300000
302.138458	146.080000
302.231659	145.800000
302.324860	145.900000
302.418060	145.820000
302.511261	146.000000
302.604462	146.300000
302.697662	146.420000
302.790863	146.140000
302.884064	145.980000
302.977264	145.900000
303.070465	146.000000
303.163666	146.920000
303.256866	147.420000
303.350067	147.640000
303.443268	147.680000
303.536469	147.340000
303.629669	146.500000
303.722870	146.440000
303.816071	145.980000
303.909271	145.980000
304.002472	145.620000
304.095673	145.420000
304.188934	144.820000
304.282104	145.940000
304.375336	145.740000
304.468506	145.720000
304.561768	145.600000
304.654968	145.940000
304.748169	145.280000
304.841370	145.000000
304.934601	145.640000
305.027802	145.660000
305.121002	145.820000
305.214233	145.860000
305.307434	146.220000
305.400665	146.780000
305.493866	146.780000
