Model Number: SPM-002-B   
Serial Number: 70087108
Firmware Version: 004.15.4
Exposure Time: 100000.000000us
Data Taken on: 11-12-2020 18:52:15.637
Wavelength	Amplitude
221.570786	0.000000
221.663406	0.000000
221.756027	0.000000
221.848648	0.000000
221.941269	0.000000
222.033905	0.000000
222.126526	0.000000
222.219162	0.000000
222.311798	0.000000
222.404419	0.000000
222.497055	0.000000
222.589676	0.000000
222.682312	0.000000
222.774933	0.000000
222.867569	0.000000
222.960205	0.000000
223.052841	0.000000
223.145462	0.000000
223.238098	0.000000
223.330734	0.000000
223.423386	0.000000
223.516022	0.000000
223.608658	0.000000
223.701309	0.000000
223.793945	0.000000
223.886581	0.000000
223.979218	0.000000
224.071869	0.000000
224.164505	0.000000
224.257156	0.000000
224.349792	0.000000
224.442444	0.000000
224.535095	0.000000
224.627747	0.000000
224.720398	0.000000
224.813034	0.000000
224.905685	0.000000
224.998337	146.120000
225.090988	145.540000
225.183640	145.620000
225.276291	145.460000
225.368942	145.800000
225.461594	146.140000
225.554245	146.560000
225.646912	146.740000
225.739578	146.900000
225.832230	147.040000
225.924896	146.080000
226.017548	146.380000
226.110199	146.940000
226.202866	146.180000
226.295532	146.060000
226.388184	146.160000
226.480850	145.460000
226.573517	145.000000
226.666168	145.800000
226.758835	145.960000
226.851501	146.620000
226.944183	146.780000
227.036850	146.240000
227.129517	145.780000
227.222183	145.700000
227.314850	145.720000
227.407516	146.120000
227.500198	147.080000
227.592865	146.940000
227.685532	146.540000
227.778214	146.000000
227.870880	146.240000
227.963562	146.460000
228.056229	147.140000
228.148926	147.000000
228.241592	147.700000
228.334274	147.180000
228.426956	146.780000
228.519638	146.740000
228.612305	146.820000
228.704987	146.460000
228.797668	146.500000
228.890350	146.180000
228.983032	145.360000
229.075714	146.240000
229.168396	146.040000
229.261108	145.860000
229.353790	145.920000
229.446472	146.500000
229.539169	145.980000
229.631851	145.680000
229.724533	146.000000
229.817230	146.100000
229.909912	146.800000
230.002609	146.340000
230.095306	146.500000
230.187988	146.500000
230.280685	146.300000
230.373383	145.180000
230.466095	145.360000
230.558792	145.660000
230.651474	145.340000
230.744171	145.240000
230.836868	145.400000
230.929581	145.580000
231.022278	145.540000
231.114975	145.960000
231.207672	145.920000
231.300369	146.580000
231.393082	146.780000
231.485779	146.540000
231.578506	146.480000
231.671204	146.720000
231.763916	146.240000
231.856613	146.320000
231.949326	146.560000
232.042023	146.400000
232.134735	146.200000
232.227448	146.080000
232.320160	146.000000
232.412872	145.980000
232.505585	146.700000
232.598297	146.920000
232.691010	146.720000
232.783722	146.420000
232.876450	147.000000
232.969162	146.260000
233.061874	145.980000
233.154587	145.820000
233.247314	146.180000
233.340027	145.380000
233.432739	145.740000
233.525467	145.660000
233.618179	146.400000
233.710907	146.100000
233.803635	146.860000
233.896347	146.600000
233.989090	147.520000
234.081818	147.200000
234.174545	147.480000
234.267258	146.460000
234.359985	146.720000
234.452713	146.200000
234.545441	145.720000
234.638168	145.300000
234.730896	145.920000
234.823639	145.680000
234.916367	146.280000
235.009094	146.620000
235.101822	146.600000
235.194580	146.500000
235.287308	146.560000
235.380051	145.400000
235.472778	145.580000
235.565521	146.160000
235.658249	145.800000
235.750992	145.760000
235.843719	146.040000
235.936462	146.500000
236.029205	145.980000
236.121948	145.940000
236.214691	146.180000
236.307449	147.000000
236.400192	146.260000
236.492935	146.080000
236.585678	146.220000
236.678421	146.420000
236.771164	146.020000
236.863907	146.540000
236.956665	146.840000
237.049408	148.520000
237.142151	147.660000
237.234909	148.060000
237.327652	147.960000
237.420410	147.660000
237.513153	146.480000
237.605927	146.680000
237.698669	146.220000
237.791428	145.840000
237.884186	146.340000
237.976944	145.820000
238.069702	146.120000
238.162445	145.680000
238.255203	145.560000
238.347961	145.960000
238.440720	146.080000
238.533478	145.840000
238.626266	145.960000
238.719025	146.600000
238.811783	146.340000
238.904541	146.540000
238.997314	146.420000
239.090073	146.100000
239.182831	145.900000
239.275604	146.320000
239.368362	145.800000
239.461136	146.000000
239.553909	145.940000
239.646667	145.940000
239.739441	145.460000
239.832214	145.920000
239.925003	146.060000
240.017761	146.900000
240.110535	147.180000
240.203308	146.600000
240.296082	146.720000
240.388855	146.420000
240.481628	146.100000
240.574417	146.060000
240.667191	146.360000
240.759964	146.020000
240.852737	146.160000
240.945526	145.920000
241.038315	145.660000
241.131088	145.800000
241.223877	146.260000
241.316650	146.200000
241.409439	146.640000
241.502228	146.420000
241.595001	146.960000
241.687790	146.480000
241.780579	146.540000
241.873367	146.640000
241.966141	147.260000
242.058929	146.340000
242.151718	146.640000
242.244507	146.940000
242.337311	146.220000
242.430099	146.360000
242.522903	146.700000
242.615692	146.360000
242.708481	146.200000
242.801270	146.920000
242.894073	146.440000
242.986862	146.500000
243.079651	146.880000
243.172455	146.640000
243.265244	146.720000
243.358063	146.200000
243.450867	146.460000
243.543655	146.300000
243.636459	146.380000
243.729263	146.380000
243.822067	147.040000
243.914856	147.300000
244.007660	147.540000
244.100464	147.720000
244.193268	147.360000
244.286072	147.220000
244.378876	146.700000
244.471680	146.520000
244.564499	146.500000
244.657318	147.220000
244.750122	147.480000
244.842926	146.620000
244.935745	146.680000
245.028549	146.420000
245.121368	145.420000
245.214172	145.220000
245.306992	146.060000
245.399796	145.760000
245.492615	145.900000
245.585434	146.120000
245.678253	146.020000
245.771072	145.840000
245.863892	146.180000
245.956711	146.260000
246.049530	146.160000
246.142349	145.920000
246.235168	145.940000
246.327988	146.180000
246.420807	145.800000
246.513626	145.780000
246.606445	145.300000
246.699280	145.640000
246.792099	145.180000
246.884918	145.060000
246.977753	145.000000
247.070587	145.480000
247.163422	145.220000
247.256241	145.560000
247.349075	146.080000
247.441895	146.300000
247.534729	146.420000
247.627563	145.920000
247.720383	146.180000
247.813217	145.920000
247.906052	145.540000
247.998886	145.580000
248.091736	146.060000
248.184570	145.600000
248.277405	145.840000
248.370239	146.800000
248.463074	147.520000
248.555908	147.780000
248.648743	147.620000
248.741592	147.640000
248.834427	146.700000
248.927261	145.720000
249.020111	145.620000
249.112946	146.460000
249.205795	146.020000
249.298630	146.360000
249.391495	146.600000
249.484344	146.340000
249.577179	145.780000
249.670029	146.040000
249.762878	146.620000
249.855728	146.600000
249.948563	146.620000
250.041412	146.240000
250.134262	146.220000
250.227112	145.960000
250.319962	145.940000
250.412827	145.840000
250.505692	145.620000
250.598541	145.600000
250.691391	145.100000
250.784241	145.100000
250.877106	145.520000
250.969955	145.380000
251.062805	145.800000
251.155670	146.700000
251.248520	146.700000
251.341385	146.720000
251.434235	146.740000
251.527100	146.340000
251.619965	145.740000
251.712814	146.140000
251.805695	146.140000
251.898560	146.780000
251.991425	147.240000
252.084290	147.120000
252.177155	146.680000
252.270020	146.180000
252.362885	146.020000
252.455750	145.720000
252.548615	145.440000
252.641479	145.420000
252.734360	145.620000
252.827240	145.620000
252.920105	145.820000
253.012970	145.680000
253.105850	145.780000
253.198715	145.520000
253.291595	145.300000
253.384460	144.960000
253.477341	145.280000
253.570221	145.460000
253.663086	145.340000
253.755966	146.200000
253.848846	146.480000
253.941727	146.920000
254.034592	146.580000
254.127472	146.280000
254.220367	146.060000
254.313248	146.140000
254.406128	145.680000
254.499008	145.920000
254.591904	146.960000
254.684784	147.360000
254.777664	147.420000
254.870544	147.140000
254.963440	147.160000
255.056335	147.260000
255.149216	146.740000
255.242111	146.860000
255.334991	147.560000
255.427887	147.720000
255.520767	147.360000
255.613663	147.580000
255.706558	146.980000
255.799438	146.760000
255.892334	146.100000
255.985229	146.080000
256.078125	145.940000
256.171021	146.320000
256.263916	146.580000
256.356812	147.260000
256.449707	147.220000
256.542603	146.620000
256.635498	146.920000
256.728394	146.500000
256.821289	146.080000
256.914215	146.300000
257.007080	146.880000
257.100006	146.880000
257.192932	147.740000
257.285828	148.340000
257.378723	148.060000
257.471619	147.860000
257.564545	147.080000
257.657440	146.640000
257.750336	146.480000
257.843262	146.160000
257.936157	147.180000
258.029053	147.780000
258.121979	147.700000
258.214874	147.460000
258.307800	147.820000
258.400696	146.300000
258.493622	145.920000
258.586517	145.200000
258.679443	145.400000
258.772339	144.980000
258.865265	145.280000
258.958160	144.900000
259.051086	146.000000
259.144012	145.980000
259.236938	147.000000
259.329834	147.060000
259.422791	147.220000
259.515717	146.180000
259.608612	145.920000
259.701538	145.280000
259.794464	145.460000
259.887390	145.560000
259.980316	145.620000
260.073212	145.640000
260.166138	145.180000
260.259064	145.440000
260.351990	146.120000
260.444916	146.440000
260.537842	147.000000
260.630768	147.980000
260.723694	147.600000
260.816620	147.120000
260.909546	147.080000
261.002472	146.340000
261.095398	145.640000
261.188354	145.780000
261.281281	145.320000
261.374207	145.380000
261.467133	146.320000
261.560089	146.500000
261.653015	146.080000
261.745972	147.320000
261.838867	147.640000
261.931824	147.560000
262.024780	147.100000
262.117706	147.320000
262.210663	147.000000
262.303589	146.760000
262.396515	146.220000
262.489471	147.200000
262.582397	147.380000
262.675354	146.760000
262.768280	146.880000
262.861237	147.120000
262.954163	146.800000
263.047119	146.980000
263.140045	147.060000
263.233002	146.860000
263.325958	147.160000
263.418884	146.760000
263.511841	146.540000
263.604797	146.280000
263.697723	146.260000
263.790680	145.840000
263.883636	146.480000
263.976593	146.160000
264.069550	146.500000
264.162476	146.220000
264.255463	146.080000
264.348419	145.440000
264.441376	146.300000
264.534332	145.780000
264.627289	145.920000
264.720245	146.800000
264.813202	146.680000
264.906158	146.360000
264.999115	147.000000
265.092072	147.120000
265.185028	146.860000
265.277985	147.380000
265.370941	147.380000
265.463898	147.140000
265.556854	147.040000
265.649811	145.940000
265.742798	145.900000
265.835754	145.660000
265.928711	146.080000
266.021667	146.120000
266.114655	146.840000
266.207611	146.960000
266.300568	146.460000
266.393585	146.020000
266.486511	146.160000
266.579498	145.360000
266.672485	145.240000
266.765442	145.360000
266.858429	145.760000
266.951385	145.400000
267.044342	145.800000
267.137329	145.460000
267.230316	146.060000
267.323273	145.660000
267.416260	146.560000
267.509216	146.620000
267.602203	146.560000
267.695160	146.860000
267.788147	147.000000
267.881134	146.380000
267.974091	146.580000
268.067078	146.660000
268.160065	146.120000
268.253052	145.920000
268.346008	145.900000
268.438995	145.680000
268.531982	145.940000
268.624969	145.880000
268.717987	146.140000
268.810944	146.120000
268.903961	146.160000
268.996948	145.740000
269.089905	146.380000
269.182892	146.480000
269.275879	146.640000
269.368866	146.480000
269.461853	147.100000
269.554871	146.580000
269.647858	146.500000
269.740845	146.760000
269.833832	147.160000
269.926819	146.820000
270.019806	146.820000
270.112793	146.400000
270.205811	146.420000
270.298798	145.880000
270.391785	146.440000
270.484772	146.240000
270.577789	146.760000
270.670776	146.380000
270.763763	146.820000
270.856750	146.540000
270.949768	146.660000
271.042786	146.520000
271.135773	146.700000
271.228790	146.700000
271.321808	146.160000
271.414795	145.660000
271.507782	145.420000
271.600800	145.100000
271.693817	145.020000
271.786804	145.720000
271.879822	146.320000
271.972809	146.580000
272.065826	146.940000
272.158844	146.560000
272.251831	146.820000
272.344849	146.840000
272.437866	146.340000
272.530853	146.600000
272.623871	146.880000
272.716888	145.520000
272.809906	145.580000
272.902893	145.780000
272.995911	144.820000
273.088928	144.800000
273.181946	145.560000
273.274963	145.260000
273.367981	145.120000
273.460999	145.640000
273.554047	145.900000
273.647003	146.500000
273.740051	146.600000
273.833069	146.780000
273.926086	147.140000
274.019135	146.900000
274.112152	146.400000
274.205170	146.660000
274.298187	147.260000
274.391205	146.620000
274.484222	146.740000
274.577240	146.680000
274.670258	146.100000
274.763306	145.480000
274.856323	145.960000
274.949341	145.840000
275.042358	146.240000
275.135406	146.500000
275.228424	146.760000
275.321442	146.600000
275.414490	146.440000
275.507507	146.500000
275.600525	147.040000
275.693573	146.560000
275.786591	146.140000
275.879669	146.360000
275.972656	145.840000
276.065735	145.080000
276.158752	145.620000
276.251801	146.480000
276.344818	146.680000
276.437866	147.220000
276.530884	147.120000
276.623932	146.340000
276.716980	146.520000
276.809998	146.380000
276.903046	146.000000
276.996094	147.180000
277.089111	148.040000
277.182159	147.980000
277.275208	147.940000
277.368256	147.780000
277.461304	147.200000
277.554321	146.220000
277.647369	146.160000
277.740417	146.040000
277.833466	146.040000
277.926514	145.800000
278.019562	146.940000
278.112610	146.300000
278.205688	146.540000
278.298706	146.700000
278.391785	146.460000
278.484833	145.840000
278.577881	145.840000
278.670929	146.060000
278.763977	146.260000
278.857025	146.960000
278.950073	147.080000
279.043121	146.980000
279.136169	146.680000
279.229248	146.260000
279.322296	146.100000
279.415344	145.820000
279.508392	146.060000
279.601440	146.000000
279.694519	146.120000
279.787567	146.000000
279.880615	146.160000
279.973694	145.980000
280.066742	145.920000
280.159790	145.940000
280.252869	145.480000
280.345917	145.560000
280.438995	145.620000
280.532074	145.680000
280.625122	146.220000
280.718201	146.860000
280.811279	146.780000
280.904327	146.840000
280.997406	147.040000
281.090454	146.620000
281.183533	146.080000
281.276581	146.160000
281.369659	145.860000
281.462738	145.820000
281.555786	145.860000
281.648865	146.040000
281.741943	145.860000
281.835022	146.640000
281.928070	146.300000
282.021149	146.380000
282.114227	146.460000
282.207306	146.660000
282.300385	146.460000
282.393433	146.900000
282.486511	146.460000
282.579590	146.840000
282.672668	147.000000
282.765747	146.480000
282.858856	146.020000
282.951904	146.320000
283.045013	146.220000
283.138062	146.280000
283.231171	146.880000
283.324249	147.080000
283.417328	147.420000
283.510406	147.240000
283.603485	146.960000
283.696564	146.380000
283.789642	146.340000
283.882751	145.580000
283.975830	145.800000
284.068909	145.840000
284.161987	146.640000
284.255066	146.240000
284.348175	146.660000
284.441254	146.500000
284.534332	146.700000
284.627441	146.100000
284.720520	146.240000
284.813599	146.180000
284.906708	146.080000
284.999786	145.240000
285.092896	145.100000
285.185974	146.120000
285.279053	145.700000
285.372192	145.760000
285.465240	146.880000
285.558380	146.780000
285.651459	146.160000
285.744568	147.280000
285.837677	147.140000
285.930756	146.760000
286.023865	147.080000
286.116943	146.940000
286.210052	146.680000
286.303162	146.780000
286.396240	146.880000
286.489349	146.440000
286.582458	146.860000
286.675568	146.240000
286.768646	146.200000
286.861755	146.660000
286.954865	147.720000
287.047974	147.000000
287.141083	147.000000
287.234161	146.920000
287.327271	146.340000
287.420380	146.240000
287.513519	146.340000
287.606598	146.580000
287.699738	146.920000
287.792816	146.760000
287.885956	146.520000
287.979034	146.580000
288.072174	146.560000
288.165283	146.200000
288.258392	146.760000
288.351501	146.140000
288.444611	146.420000
288.537720	146.800000
288.630859	146.780000
288.723969	146.780000
288.817078	147.200000
288.910187	147.040000
289.003296	146.280000
289.096436	146.060000
289.189545	145.920000
289.282654	145.680000
289.375763	146.140000
289.468903	146.620000
289.562012	146.960000
289.655121	146.840000
289.748260	146.960000
289.841400	147.080000
289.934509	147.120000
290.027649	147.200000
290.120728	147.120000
290.213898	147.080000
290.306976	146.460000
290.400146	146.620000
290.493256	146.340000
290.586395	146.520000
290.679535	146.860000
290.772644	146.980000
290.865784	146.060000
290.958893	146.100000
291.052032	146.120000
291.145172	146.000000
291.238281	145.980000
291.331421	146.500000
291.424561	146.820000
291.517670	146.460000
291.610809	146.200000
291.703949	145.800000
291.797089	145.800000
291.890228	145.360000
291.983337	145.160000
292.076477	145.160000
292.169617	145.600000
292.262756	145.680000
292.355927	145.800000
292.449036	146.000000
292.542206	146.220000
292.635315	146.280000
292.728485	146.480000
292.821625	146.380000
292.914764	147.240000
293.007904	147.520000
293.101044	147.500000
293.194183	147.240000
293.287323	147.440000
293.380463	146.580000
293.473602	145.980000
293.566742	146.380000
293.659882	147.020000
293.753021	147.120000
293.846191	147.280000
293.939331	147.120000
294.032471	146.400000
294.125610	145.900000
294.218781	146.120000
294.311920	146.660000
294.405060	146.980000
294.498230	147.080000
294.591370	147.360000
294.684540	146.660000
294.777679	145.840000
294.870850	146.260000
294.963959	146.240000
295.057159	145.640000
295.150299	146.140000
295.243469	146.260000
295.336609	145.380000
295.429779	145.600000
295.522919	145.880000
295.616089	145.840000
295.709229	146.560000
295.802399	146.960000
295.895569	146.600000
295.988708	146.380000
296.081879	146.340000
296.175018	145.780000
296.268188	145.800000
296.361359	146.640000
296.454529	146.760000
296.547668	146.560000
296.640839	146.740000
296.734009	146.600000
296.827179	146.140000
296.920319	146.600000
297.013519	146.620000
297.106659	146.520000
297.199860	146.700000
297.292999	146.440000
297.386200	145.880000
297.479309	145.580000
297.572510	145.380000
297.665680	144.880000
297.758850	145.140000
297.852020	145.180000
297.945190	145.640000
298.038361	145.460000
298.131531	146.520000
298.224701	146.340000
298.317871	146.160000
298.411072	145.400000
298.504242	145.300000
298.597412	144.760000
298.690582	144.980000
298.783752	144.700000
298.876923	145.700000
298.970093	145.800000
299.063293	145.880000
299.156464	146.380000
299.249634	146.880000
299.342834	146.820000
299.436005	147.200000
299.529205	147.080000
299.622345	146.800000
299.715576	146.480000
299.808716	145.880000
299.901917	145.960000
299.995117	146.380000
300.088287	146.260000
300.181488	146.120000
300.274658	146.140000
300.367828	145.940000
300.461029	145.600000
300.554199	145.620000
300.647400	145.700000
300.740601	146.320000
300.833771	146.120000
300.926971	146.180000
301.020142	145.500000
301.113342	145.700000
301.206512	145.320000
301.299713	145.780000
301.392914	146.020000
301.486084	146.380000
301.579285	146.280000
301.672516	146.720000
301.765686	146.360000
301.858887	146.080000
301.952057	146.420000
302.045288	146.620000
302.138458	146.420000
302.231659	146.220000
302.324860	146.160000
302.418060	146.180000
302.511261	146.160000
302.604462	146.380000
302.697662	146.560000
302.790863	146.780000
302.884064	146.320000
302.977264	146.100000
303.070465	145.820000
303.163666	146.400000
303.256866	146.380000
303.350067	146.820000
303.443268	147.060000
303.536469	147.400000
303.629669	146.760000
303.722870	146.700000
303.816071	146.280000
303.909271	146.380000
304.002472	145.600000
304.095673	145.420000
304.188934	144.840000
304.282104	145.520000
304.375336	145.380000
304.468506	145.880000
304.561768	145.960000
304.654968	146.720000
304.748169	146.320000
304.841370	146.200000
304.934601	146.420000
305.027802	146.200000
305.121002	145.620000
305.214233	145.400000
305.307434	145.740000
305.400665	146.000000
305.493866	146.240000
