Model Number: SPM-002-B   
Serial Number: 70087108
Firmware Version: 004.15.4
Exposure Time: 100000.000000us
Data Taken on: 11-12-2020 18:52:25.515
Wavelength	Amplitude
221.570786	0.000000
221.663406	0.000000
221.756027	0.000000
221.848648	0.000000
221.941269	0.000000
222.033905	0.000000
222.126526	0.000000
222.219162	0.000000
222.311798	0.000000
222.404419	0.000000
222.497055	0.000000
222.589676	0.000000
222.682312	0.000000
222.774933	0.000000
222.867569	0.000000
222.960205	0.000000
223.052841	0.000000
223.145462	0.000000
223.238098	0.000000
223.330734	0.000000
223.423386	0.000000
223.516022	0.000000
223.608658	0.000000
223.701309	0.000000
223.793945	0.000000
223.886581	0.000000
223.979218	0.000000
224.071869	0.000000
224.164505	0.000000
224.257156	0.000000
224.349792	0.000000
224.442444	0.000000
224.535095	0.000000
224.627747	0.000000
224.720398	0.000000
224.813034	0.000000
224.905685	0.000000
224.998337	145.620000
225.090988	145.260000
225.183640	145.460000
225.276291	145.220000
225.368942	145.620000
225.461594	145.940000
225.554245	146.460000
225.646912	146.420000
225.739578	147.000000
225.832230	147.200000
225.924896	146.500000
226.017548	146.820000
226.110199	147.160000
226.202866	146.320000
226.295532	146.180000
226.388184	146.700000
226.480850	146.020000
226.573517	145.560000
226.666168	145.920000
226.758835	146.200000
226.851501	146.300000
226.944183	146.640000
227.036850	146.440000
227.129517	146.260000
227.222183	146.500000
227.314850	146.180000
227.407516	146.160000
227.500198	146.900000
227.592865	146.720000
227.685532	146.300000
227.778214	146.200000
227.870880	146.520000
227.963562	146.720000
228.056229	147.380000
228.148926	147.300000
228.241592	147.920000
228.334274	147.300000
228.426956	146.940000
228.519638	146.620000
228.612305	146.320000
228.704987	146.340000
228.797668	146.700000
228.890350	146.280000
228.983032	145.700000
229.075714	146.100000
229.168396	145.760000
229.261108	145.140000
229.353790	145.160000
229.446472	145.860000
229.539169	145.940000
229.631851	145.660000
229.724533	146.140000
229.817230	146.260000
229.909912	147.180000
230.002609	147.200000
230.095306	147.260000
230.187988	147.320000
230.280685	147.500000
230.373383	145.980000
230.466095	145.860000
230.558792	146.540000
230.651474	146.440000
230.744171	146.200000
230.836868	146.500000
230.929581	146.640000
231.022278	146.360000
231.114975	146.560000
231.207672	146.320000
231.300369	146.540000
231.393082	146.940000
231.485779	146.360000
231.578506	146.040000
231.671204	146.160000
231.763916	145.980000
231.856613	145.600000
231.949326	146.080000
232.042023	146.040000
232.134735	146.140000
232.227448	146.020000
232.320160	146.080000
232.412872	145.740000
232.505585	146.720000
232.598297	147.180000
232.691010	147.160000
232.783722	146.820000
232.876450	147.620000
232.969162	146.580000
233.061874	146.120000
233.154587	145.880000
233.247314	146.200000
233.340027	145.400000
233.432739	146.080000
233.525467	145.900000
233.618179	146.440000
233.710907	146.200000
233.803635	146.900000
233.896347	146.460000
233.989090	147.120000
234.081818	146.940000
234.174545	147.120000
234.267258	146.320000
234.359985	146.620000
234.452713	146.460000
234.545441	146.140000
234.638168	146.020000
234.730896	146.580000
234.823639	146.320000
234.916367	146.540000
235.009094	146.880000
235.101822	146.780000
235.194580	146.500000
235.287308	146.580000
235.380051	145.980000
235.472778	146.480000
235.565521	146.840000
235.658249	146.440000
235.750992	146.580000
235.843719	146.760000
235.936462	146.560000
236.029205	146.060000
236.121948	146.000000
236.214691	146.180000
236.307449	146.620000
236.400192	146.380000
236.492935	146.280000
236.585678	146.720000
236.678421	146.520000
236.771164	146.400000
236.863907	146.680000
236.956665	147.340000
237.049408	148.640000
237.142151	148.240000
237.234909	148.900000
237.327652	148.680000
237.420410	148.220000
237.513153	147.300000
237.605927	147.160000
237.698669	146.300000
237.791428	145.840000
237.884186	146.100000
237.976944	145.320000
238.069702	145.940000
238.162445	145.540000
238.255203	145.880000
238.347961	146.200000
238.440720	146.640000
238.533478	146.360000
238.626266	146.460000
238.719025	146.520000
238.811783	146.100000
238.904541	146.060000
238.997314	145.780000
239.090073	145.600000
239.182831	145.900000
239.275604	146.700000
239.368362	146.640000
239.461136	146.920000
239.553909	147.040000
239.646667	146.900000
239.739441	146.400000
239.832214	146.760000
239.925003	146.920000
240.017761	147.480000
240.110535	147.740000
240.203308	147.180000
240.296082	147.080000
240.388855	146.940000
240.481628	147.140000
240.574417	147.200000
240.667191	147.480000
240.759964	147.160000
240.852737	147.440000
240.945526	146.680000
241.038315	146.480000
241.131088	146.680000
241.223877	146.860000
241.316650	146.360000
241.409439	146.580000
241.502228	146.080000
241.595001	146.360000
241.687790	146.380000
241.780579	146.460000
241.873367	146.880000
241.966141	147.420000
242.058929	146.940000
242.151718	147.020000
242.244507	147.580000
242.337311	146.580000
242.430099	146.720000
242.522903	146.880000
242.615692	146.320000
242.708481	145.960000
242.801270	146.800000
242.894073	146.780000
242.986862	146.740000
243.079651	147.440000
243.172455	147.240000
243.265244	147.180000
243.358063	146.420000
243.450867	146.420000
243.543655	146.240000
243.636459	146.200000
243.729263	146.380000
243.822067	146.840000
243.914856	147.180000
244.007660	147.440000
244.100464	147.480000
244.193268	147.120000
244.286072	147.020000
244.378876	146.400000
244.471680	145.840000
244.564499	146.280000
244.657318	147.000000
244.750122	147.320000
244.842926	146.940000
244.935745	147.340000
245.028549	146.860000
245.121368	146.300000
245.214172	145.980000
245.306992	146.880000
245.399796	146.480000
245.492615	146.400000
245.585434	146.140000
245.678253	146.120000
245.771072	145.840000
245.863892	146.320000
245.956711	146.780000
246.049530	146.640000
246.142349	146.240000
246.235168	146.240000
246.327988	146.620000
246.420807	146.180000
246.513626	146.320000
246.606445	146.520000
246.699280	146.480000
246.792099	145.800000
246.884918	145.640000
246.977753	145.480000
247.070587	145.960000
247.163422	146.160000
247.256241	146.300000
247.349075	146.860000
247.441895	147.000000
247.534729	146.700000
247.627563	146.460000
247.720383	147.140000
247.813217	147.120000
247.906052	147.020000
247.998886	146.960000
248.091736	146.960000
248.184570	146.380000
248.277405	146.380000
248.370239	147.320000
248.463074	148.100000
248.555908	148.340000
248.648743	148.060000
248.741592	147.940000
248.834427	147.040000
248.927261	145.980000
249.020111	146.200000
249.112946	146.960000
249.205795	146.460000
249.298630	146.700000
249.391495	146.980000
249.484344	146.520000
249.577179	146.240000
249.670029	146.820000
249.762878	147.120000
249.855728	147.320000
249.948563	147.320000
250.041412	146.780000
250.134262	147.100000
250.227112	147.160000
250.319962	147.040000
250.412827	147.100000
250.505692	146.980000
250.598541	146.420000
250.691391	146.020000
250.784241	145.880000
250.877106	146.180000
250.969955	146.020000
251.062805	146.620000
251.155670	147.240000
251.248520	147.060000
251.341385	147.060000
251.434235	147.380000
251.527100	146.780000
251.619965	146.040000
251.712814	147.060000
251.805695	146.680000
251.898560	146.580000
251.991425	147.060000
252.084290	147.280000
252.177155	146.300000
252.270020	146.240000
252.362885	146.320000
252.455750	145.880000
252.548615	145.520000
252.641479	145.680000
252.734360	145.700000
252.827240	145.520000
252.920105	145.820000
253.012970	145.980000
253.105850	145.980000
253.198715	145.700000
253.291595	146.080000
253.384460	145.860000
253.477341	145.880000
253.570221	146.300000
253.663086	146.520000
253.755966	146.940000
253.848846	146.840000
253.941727	147.200000
254.034592	146.840000
254.127472	146.340000
254.220367	146.100000
254.313248	146.300000
254.406128	145.600000
254.499008	146.080000
254.591904	147.000000
254.684784	147.340000
254.777664	147.280000
254.870544	147.400000
254.963440	146.780000
255.056335	146.620000
255.149216	146.040000
255.242111	146.580000
255.334991	146.920000
255.427887	147.100000
255.520767	147.140000
255.613663	147.500000
255.706558	146.700000
255.799438	146.340000
255.892334	146.080000
255.985229	145.800000
256.078125	145.380000
256.171021	145.920000
256.263916	146.200000
256.356812	146.420000
256.449707	146.600000
256.542603	146.360000
256.635498	146.380000
256.728394	146.500000
256.821289	146.140000
256.914215	146.140000
257.007080	146.840000
257.100006	146.920000
257.192932	147.520000
257.285828	147.940000
257.378723	147.920000
257.471619	147.480000
257.564545	146.940000
257.657440	146.580000
257.750336	146.960000
257.843262	146.680000
257.936157	148.020000
258.029053	148.340000
258.121979	148.360000
258.214874	147.960000
258.307800	147.660000
258.400696	146.140000
258.493622	145.880000
258.586517	144.980000
258.679443	145.420000
258.772339	145.280000
258.865265	145.180000
258.958160	144.880000
259.051086	145.760000
259.144012	145.060000
259.236938	146.000000
259.329834	146.200000
259.422791	146.140000
259.515717	145.560000
259.608612	145.640000
259.701538	145.920000
259.794464	146.200000
259.887390	146.340000
259.980316	146.420000
260.073212	146.340000
260.166138	144.960000
260.259064	144.980000
260.351990	145.400000
260.444916	145.480000
260.537842	145.880000
260.630768	147.100000
260.723694	146.760000
260.816620	146.740000
260.909546	146.640000
261.002472	146.180000
261.095398	145.280000
261.188354	145.540000
261.281281	145.100000
261.374207	145.260000
261.467133	145.920000
261.560089	146.540000
261.653015	146.040000
261.745972	146.820000
261.838867	147.060000
261.931824	147.260000
262.024780	146.560000
262.117706	147.000000
262.210663	146.920000
262.303589	146.580000
262.396515	146.480000
262.489471	147.600000
262.582397	147.720000
262.675354	147.180000
262.768280	147.560000
262.861237	147.420000
262.954163	147.000000
263.047119	147.000000
263.140045	146.780000
263.233002	146.320000
263.325958	145.880000
263.418884	145.600000
263.511841	145.380000
263.604797	145.600000
263.697723	145.920000
263.790680	146.000000
263.883636	146.600000
263.976593	146.540000
264.069550	146.600000
264.162476	146.240000
264.255463	146.620000
264.348419	145.880000
264.441376	146.140000
264.534332	146.060000
264.627289	146.000000
264.720245	146.540000
264.813202	146.380000
264.906158	146.540000
264.999115	146.780000
265.092072	147.000000
265.185028	146.820000
265.277985	147.260000
265.370941	146.920000
265.463898	146.880000
265.556854	146.740000
265.649811	145.740000
265.742798	145.300000
265.835754	145.520000
265.928711	145.680000
266.021667	145.580000
266.114655	146.080000
266.207611	146.580000
266.300568	145.900000
266.393585	145.160000
266.486511	145.720000
266.579498	145.080000
266.672485	144.800000
266.765442	144.860000
266.858429	145.860000
266.951385	145.380000
267.044342	145.880000
267.137329	145.820000
267.230316	146.360000
267.323273	145.580000
267.416260	146.160000
267.509216	145.860000
267.602203	146.000000
267.695160	146.400000
267.788147	146.660000
267.881134	146.180000
267.974091	146.760000
268.067078	146.600000
268.160065	146.360000
268.253052	146.160000
268.346008	146.180000
268.438995	145.640000
268.531982	145.980000
268.624969	145.580000
268.717987	146.000000
268.810944	146.000000
268.903961	146.460000
268.996948	146.120000
269.089905	146.660000
269.182892	146.480000
269.275879	146.820000
269.368866	146.180000
269.461853	146.440000
269.554871	146.180000
269.647858	146.500000
269.740845	146.480000
269.833832	147.160000
269.926819	146.980000
270.019806	147.140000
270.112793	146.240000
270.205811	146.220000
270.298798	145.820000
270.391785	146.600000
270.484772	145.820000
270.577789	146.460000
270.670776	145.900000
270.763763	145.680000
270.856750	145.240000
270.949768	145.400000
271.042786	145.120000
271.135773	145.340000
271.228790	146.020000
271.321808	145.520000
271.414795	145.360000
271.507782	145.240000
271.600800	145.080000
271.693817	144.820000
271.786804	145.280000
271.879822	145.380000
271.972809	145.440000
272.065826	145.900000
272.158844	145.460000
272.251831	146.040000
272.344849	146.100000
272.437866	145.820000
272.530853	145.600000
272.623871	145.960000
272.716888	144.900000
272.809906	145.620000
272.902893	146.080000
272.995911	145.720000
273.088928	145.880000
273.181946	146.280000
273.274963	145.560000
273.367981	145.460000
273.460999	145.720000
273.554047	146.180000
273.647003	146.620000
273.740051	146.980000
273.833069	147.360000
273.926086	147.780000
274.019135	147.000000
274.112152	146.360000
274.205170	146.340000
274.298187	146.420000
274.391205	145.600000
274.484222	145.860000
274.577240	146.140000
274.670258	145.800000
274.763306	145.360000
274.856323	146.000000
274.949341	146.120000
275.042358	146.340000
275.135406	146.340000
275.228424	146.300000
275.321442	146.140000
275.414490	145.700000
275.507507	146.020000
275.600525	146.660000
275.693573	146.660000
275.786591	146.300000
275.879669	146.540000
275.972656	145.940000
276.065735	145.600000
276.158752	146.120000
276.251801	147.200000
276.344818	147.340000
276.437866	147.240000
276.530884	147.260000
276.623932	146.540000
276.716980	146.400000
276.809998	146.380000
276.903046	146.820000
276.996094	147.480000
277.089111	148.280000
277.182159	148.400000
277.275208	147.880000
277.368256	147.700000
277.461304	147.060000
277.554321	146.340000
277.647369	145.860000
277.740417	146.280000
277.833466	146.140000
277.926514	146.240000
278.019562	146.900000
278.112610	146.500000
278.205688	146.340000
278.298706	146.420000
278.391785	146.020000
278.484833	145.480000
278.577881	145.320000
278.670929	145.680000
278.763977	145.880000
278.857025	146.600000
278.950073	146.860000
279.043121	147.320000
279.136169	147.080000
279.229248	146.560000
279.322296	146.280000
279.415344	145.960000
279.508392	145.620000
279.601440	145.700000
279.694519	145.680000
279.787567	145.560000
279.880615	145.680000
279.973694	145.720000
280.066742	145.920000
280.159790	146.180000
280.252869	145.920000
280.345917	146.100000
280.438995	146.100000
280.532074	145.640000
280.625122	145.760000
280.718201	146.680000
280.811279	146.460000
280.904327	146.580000
280.997406	147.040000
281.090454	146.900000
281.183533	146.020000
281.276581	146.040000
281.369659	146.020000
281.462738	146.040000
281.555786	146.180000
281.648865	146.420000
281.741943	146.360000
281.835022	146.940000
281.928070	146.300000
282.021149	146.140000
282.114227	145.860000
282.207306	145.920000
282.300385	145.980000
282.393433	146.700000
282.486511	146.820000
282.579590	147.300000
282.672668	147.780000
282.765747	147.100000
282.858856	146.540000
282.951904	146.540000
283.045013	146.660000
283.138062	146.360000
283.231171	146.760000
283.324249	147.440000
283.417328	147.480000
283.510406	147.200000
283.603485	147.020000
283.696564	146.560000
283.789642	146.120000
283.882751	146.020000
283.975830	146.540000
284.068909	146.880000
284.161987	147.620000
284.255066	147.360000
284.348175	147.520000
284.441254	146.820000
284.534332	147.000000
284.627441	146.800000
284.720520	146.500000
284.813599	146.260000
284.906708	146.640000
284.999786	146.000000
285.092896	145.280000
285.185974	146.460000
285.279053	146.320000
285.372192	146.200000
285.465240	146.940000
285.558380	147.180000
285.651459	146.580000
285.744568	147.360000
285.837677	146.940000
285.930756	146.660000
286.023865	146.780000
286.116943	146.740000
286.210052	146.580000
286.303162	146.840000
286.396240	146.740000
286.489349	146.580000
286.582458	146.720000
286.675568	146.280000
286.768646	146.180000
286.861755	146.460000
286.954865	147.260000
287.047974	146.860000
287.141083	146.740000
287.234161	146.780000
287.327271	146.440000
287.420380	146.260000
287.513519	146.120000
287.606598	146.380000
287.699738	146.540000
287.792816	146.460000
287.885956	146.140000
287.979034	146.400000
288.072174	146.340000
288.165283	146.360000
288.258392	146.840000
288.351501	146.380000
288.444611	146.540000
288.537720	147.020000
288.630859	146.820000
288.723969	146.560000
288.817078	147.260000
288.910187	147.060000
289.003296	146.220000
289.096436	145.960000
289.189545	145.480000
289.282654	145.140000
289.375763	145.600000
289.468903	146.180000
289.562012	146.440000
289.655121	146.620000
289.748260	146.440000
289.841400	146.540000
289.934509	146.260000
290.027649	146.560000
290.120728	146.500000
290.213898	146.760000
290.306976	146.020000
290.400146	146.160000
290.493256	145.720000
290.586395	146.200000
290.679535	146.260000
290.772644	146.280000
290.865784	145.580000
290.958893	145.580000
291.052032	145.140000
291.145172	144.720000
291.238281	144.640000
291.331421	144.880000
291.424561	145.180000
291.517670	145.080000
291.610809	145.720000
291.703949	145.940000
291.797089	146.240000
291.890228	146.180000
291.983337	146.280000
292.076477	145.640000
292.169617	145.960000
292.262756	145.960000
292.355927	145.380000
292.449036	145.300000
292.542206	145.440000
292.635315	145.420000
292.728485	145.600000
292.821625	145.760000
292.914764	146.720000
293.007904	147.060000
293.101044	146.900000
293.194183	146.860000
293.287323	146.980000
293.380463	146.120000
293.473602	145.640000
293.566742	146.220000
293.659882	146.540000
293.753021	146.740000
293.846191	146.960000
293.939331	146.940000
294.032471	146.600000
294.125610	146.160000
294.218781	146.660000
294.311920	146.900000
294.405060	147.140000
294.498230	146.920000
294.591370	147.020000
294.684540	146.240000
294.777679	145.860000
294.870850	146.280000
294.963959	146.140000
295.057159	145.800000
295.150299	146.140000
295.243469	146.280000
295.336609	145.320000
295.429779	145.500000
295.522919	146.300000
295.616089	146.480000
295.709229	146.860000
295.802399	147.620000
295.895569	147.280000
295.988708	146.600000
296.081879	146.360000
296.175018	145.580000
296.268188	145.420000
296.361359	146.060000
296.454529	146.360000
296.547668	146.340000
296.640839	146.840000
296.734009	146.300000
296.827179	146.080000
296.920319	146.280000
297.013519	146.020000
297.106659	146.060000
297.199860	146.620000
297.292999	146.420000
297.386200	146.140000
297.479309	146.100000
297.572510	145.900000
297.665680	145.380000
297.758850	145.480000
297.852020	145.360000
297.945190	145.400000
298.038361	145.000000
298.131531	146.100000
298.224701	145.980000
298.317871	145.580000
298.411072	145.280000
298.504242	145.260000
298.597412	144.460000
298.690582	144.640000
298.783752	145.020000
298.876923	145.820000
298.970093	145.960000
299.063293	146.460000
299.156464	146.940000
299.249634	146.860000
299.342834	146.840000
299.436005	147.300000
299.529205	147.160000
299.622345	146.860000
299.715576	146.500000
299.808716	146.120000
299.901917	145.840000
299.995117	146.060000
300.088287	146.060000
300.181488	145.800000
300.274658	145.820000
300.367828	145.940000
300.461029	145.520000
300.554199	145.860000
300.647400	146.460000
300.740601	146.980000
300.833771	146.840000
300.926971	147.580000
301.020142	146.860000
301.113342	146.920000
301.206512	146.820000
301.299713	146.980000
301.392914	146.480000
301.486084	146.960000
301.579285	146.820000
301.672516	147.180000
301.765686	146.980000
301.858887	146.740000
301.952057	146.580000
302.045288	146.540000
302.138458	146.080000
302.231659	145.960000
302.324860	145.860000
302.418060	145.740000
302.511261	145.740000
302.604462	145.920000
302.697662	145.960000
302.790863	146.220000
302.884064	146.080000
302.977264	146.280000
303.070465	146.200000
303.163666	146.540000
303.256866	146.660000
303.350067	146.820000
303.443268	146.640000
303.536469	146.740000
303.629669	146.460000
303.722870	146.600000
303.816071	146.340000
303.909271	146.580000
304.002472	145.800000
304.095673	145.760000
304.188934	144.800000
304.282104	145.600000
304.375336	145.420000
304.468506	145.720000
304.561768	145.600000
304.654968	146.480000
304.748169	145.880000
304.841370	145.520000
304.934601	145.660000
305.027802	145.400000
305.121002	144.780000
305.214233	145.040000
305.307434	145.340000
305.400665	146.020000
305.493866	146.340000
