Model Number: SPM-002-B   
Serial Number: 70087108
Firmware Version: 004.15.4
Exposure Time: 100000.000000us
Data Taken on: 11-12-2020 18:52:30.651
Wavelength	Amplitude
221.570786	0.000000
221.663406	0.000000
221.756027	0.000000
221.848648	0.000000
221.941269	0.000000
222.033905	0.000000
222.126526	0.000000
222.219162	0.000000
222.311798	0.000000
222.404419	0.000000
222.497055	0.000000
222.589676	0.000000
222.682312	0.000000
222.774933	0.000000
222.867569	0.000000
222.960205	0.000000
223.052841	0.000000
223.145462	0.000000
223.238098	0.000000
223.330734	0.000000
223.423386	0.000000
223.516022	0.000000
223.608658	0.000000
223.701309	0.000000
223.793945	0.000000
223.886581	0.000000
223.979218	0.000000
224.071869	0.000000
224.164505	0.000000
224.257156	0.000000
224.349792	0.000000
224.442444	0.000000
224.535095	0.000000
224.627747	0.000000
224.720398	0.000000
224.813034	0.000000
224.905685	0.000000
224.998337	145.920000
225.090988	145.580000
225.183640	145.520000
225.276291	145.140000
225.368942	145.380000
225.461594	145.540000
225.554245	145.780000
225.646912	146.020000
225.739578	146.520000
225.832230	146.580000
225.924896	146.000000
226.017548	146.200000
226.110199	146.560000
226.202866	145.880000
226.295532	145.760000
226.388184	145.920000
226.480850	145.500000
226.573517	144.900000
226.666168	145.400000
226.758835	145.780000
226.851501	146.220000
226.944183	146.720000
227.036850	146.460000
227.129517	146.180000
227.222183	146.100000
227.314850	145.860000
227.407516	146.100000
227.500198	146.900000
227.592865	146.740000
227.685532	146.360000
227.778214	146.180000
227.870880	146.000000
227.963562	146.400000
228.056229	146.760000
228.148926	146.780000
228.241592	147.560000
228.334274	147.240000
228.426956	146.560000
228.519638	146.740000
228.612305	146.440000
228.704987	146.260000
228.797668	146.180000
228.890350	146.260000
228.983032	145.520000
229.075714	146.020000
229.168396	145.520000
229.261108	145.260000
229.353790	144.980000
229.446472	145.340000
229.539169	145.260000
229.631851	145.040000
229.724533	145.580000
229.817230	146.000000
229.909912	147.200000
230.002609	147.140000
230.095306	147.220000
230.187988	147.100000
230.280685	146.900000
230.373383	145.700000
230.466095	145.780000
230.558792	146.300000
230.651474	146.180000
230.744171	145.760000
230.836868	145.840000
230.929581	145.660000
231.022278	145.360000
231.114975	145.680000
231.207672	145.880000
231.300369	146.340000
231.393082	146.480000
231.485779	146.260000
231.578506	146.020000
231.671204	146.180000
231.763916	145.900000
231.856613	145.900000
231.949326	146.320000
232.042023	146.300000
232.134735	146.060000
232.227448	145.800000
232.320160	145.780000
232.412872	145.600000
232.505585	146.320000
232.598297	146.980000
232.691010	146.840000
232.783722	146.760000
232.876450	147.540000
232.969162	146.740000
233.061874	146.140000
233.154587	146.060000
233.247314	146.440000
233.340027	145.640000
233.432739	146.240000
233.525467	146.080000
233.618179	146.460000
233.710907	145.960000
233.803635	146.480000
233.896347	146.140000
233.989090	146.940000
234.081818	147.020000
234.174545	147.340000
234.267258	146.560000
234.359985	146.420000
234.452713	146.380000
234.545441	146.180000
234.638168	146.160000
234.730896	146.840000
234.823639	146.860000
234.916367	146.960000
235.009094	147.200000
235.101822	147.220000
235.194580	146.740000
235.287308	146.980000
235.380051	146.320000
235.472778	146.280000
235.565521	146.220000
235.658249	146.220000
235.750992	146.300000
235.843719	146.100000
235.936462	146.420000
236.029205	146.260000
236.121948	146.080000
236.214691	146.340000
236.307449	147.140000
236.400192	146.620000
236.492935	146.320000
236.585678	146.460000
236.678421	146.120000
236.771164	145.900000
236.863907	146.300000
236.956665	146.740000
237.049408	148.180000
237.142151	147.820000
237.234909	148.280000
237.327652	148.260000
237.420410	148.180000
237.513153	147.140000
237.605927	147.240000
237.698669	146.560000
237.791428	145.960000
237.884186	146.480000
237.976944	146.180000
238.069702	146.480000
238.162445	146.160000
238.255203	146.640000
238.347961	146.600000
238.440720	146.560000
238.533478	146.460000
238.626266	146.600000
238.719025	146.520000
238.811783	146.180000
238.904541	146.220000
238.997314	146.060000
239.090073	145.700000
239.182831	146.000000
239.275604	146.560000
239.368362	146.180000
239.461136	146.240000
239.553909	146.460000
239.646667	145.980000
239.739441	145.600000
239.832214	146.220000
239.925003	146.620000
240.017761	147.220000
240.110535	147.600000
240.203308	147.220000
240.296082	147.440000
240.388855	146.860000
240.481628	146.820000
240.574417	146.920000
240.667191	146.840000
240.759964	146.220000
240.852737	146.220000
240.945526	145.720000
241.038315	145.520000
241.131088	145.660000
241.223877	146.100000
241.316650	145.900000
241.409439	146.640000
241.502228	146.160000
241.595001	146.820000
241.687790	146.820000
241.780579	147.060000
241.873367	146.980000
241.966141	147.620000
242.058929	146.860000
242.151718	146.880000
242.244507	147.480000
242.337311	146.840000
242.430099	147.040000
242.522903	147.380000
242.615692	146.740000
242.708481	146.420000
242.801270	146.800000
242.894073	146.560000
242.986862	146.560000
243.079651	147.480000
243.172455	147.120000
243.265244	147.080000
243.358063	146.420000
243.450867	146.500000
243.543655	146.140000
243.636459	146.620000
243.729263	147.100000
243.822067	147.740000
243.914856	148.080000
244.007660	148.100000
244.100464	147.600000
244.193268	146.900000
244.286072	146.580000
244.378876	145.940000
244.471680	145.580000
244.564499	145.900000
244.657318	146.780000
244.750122	146.900000
244.842926	146.500000
244.935745	147.120000
245.028549	146.940000
245.121368	146.380000
245.214172	146.260000
245.306992	146.880000
245.399796	146.140000
245.492615	146.180000
245.585434	145.620000
245.678253	145.660000
245.771072	145.520000
245.863892	146.060000
245.956711	146.360000
246.049530	146.540000
246.142349	146.260000
246.235168	146.260000
246.327988	146.880000
246.420807	146.600000
246.513626	146.740000
246.606445	146.760000
246.699280	146.580000
246.792099	145.420000
246.884918	145.140000
246.977753	145.040000
247.070587	145.400000
247.163422	145.540000
247.256241	145.920000
247.349075	146.540000
247.441895	146.800000
247.534729	146.700000
247.627563	146.520000
247.720383	146.980000
247.813217	146.520000
247.906052	146.220000
247.998886	146.260000
248.091736	146.540000
248.184570	146.020000
248.277405	146.260000
248.370239	147.040000
248.463074	147.920000
248.555908	148.200000
248.648743	148.120000
248.741592	148.080000
248.834427	147.280000
248.927261	146.180000
249.020111	146.300000
249.112946	147.200000
249.205795	146.880000
249.298630	147.040000
249.391495	147.260000
249.484344	146.860000
249.577179	146.340000
249.670029	146.800000
249.762878	147.360000
249.855728	147.440000
249.948563	147.520000
250.041412	147.020000
250.134262	146.840000
250.227112	146.680000
250.319962	146.580000
250.412827	146.360000
250.505692	146.080000
250.598541	146.020000
250.691391	145.400000
250.784241	145.640000
250.877106	145.660000
250.969955	145.420000
251.062805	145.700000
251.155670	146.380000
251.248520	145.780000
251.341385	146.040000
251.434235	146.580000
251.527100	146.400000
251.619965	145.860000
251.712814	146.900000
251.805695	146.680000
251.898560	146.940000
251.991425	147.140000
252.084290	147.640000
252.177155	146.740000
252.270020	146.640000
252.362885	146.640000
252.455750	146.500000
252.548615	146.060000
252.641479	146.380000
252.734360	146.460000
252.827240	146.200000
252.920105	146.480000
253.012970	146.300000
253.105850	145.940000
253.198715	145.880000
253.291595	145.980000
253.384460	145.400000
253.477341	145.420000
253.570221	145.720000
253.663086	145.520000
253.755966	146.020000
253.848846	146.020000
253.941727	146.700000
254.034592	146.680000
254.127472	146.520000
254.220367	146.280000
254.313248	146.560000
254.406128	145.840000
254.499008	145.920000
254.591904	146.500000
254.684784	147.000000
254.777664	147.100000
254.870544	146.880000
254.963440	146.760000
255.056335	146.700000
255.149216	146.060000
255.242111	146.340000
255.334991	146.740000
255.427887	147.080000
255.520767	147.100000
255.613663	147.240000
255.706558	146.560000
255.799438	146.240000
255.892334	145.880000
255.985229	145.820000
256.078125	145.560000
256.171021	145.760000
256.263916	146.540000
256.356812	146.700000
256.449707	146.840000
256.542603	146.660000
256.635498	147.080000
256.728394	146.680000
256.821289	146.460000
256.914215	146.520000
257.007080	146.920000
257.100006	146.820000
257.192932	147.020000
257.285828	147.460000
257.378723	147.060000
257.471619	146.980000
257.564545	146.500000
257.657440	146.680000
257.750336	146.780000
257.843262	146.800000
257.936157	147.820000
258.029053	148.520000
258.121979	148.420000
258.214874	148.140000
258.307800	148.320000
258.400696	147.260000
258.493622	146.900000
258.586517	145.940000
258.679443	146.300000
258.772339	146.180000
258.865265	146.200000
258.958160	145.760000
259.051086	146.960000
259.144012	146.420000
259.236938	146.980000
259.329834	147.200000
259.422791	147.380000
259.515717	146.700000
259.608612	146.560000
259.701538	146.500000
259.794464	146.220000
259.887390	146.240000
259.980316	146.220000
260.073212	146.320000
260.166138	145.500000
260.259064	145.820000
260.351990	146.560000
260.444916	146.720000
260.537842	146.900000
260.630768	147.680000
260.723694	147.480000
260.816620	146.760000
260.909546	146.680000
261.002472	146.300000
261.095398	145.520000
261.188354	145.180000
261.281281	144.780000
261.374207	144.960000
261.467133	145.820000
261.560089	146.360000
261.653015	146.520000
261.745972	147.560000
261.838867	147.720000
261.931824	147.480000
262.024780	147.000000
262.117706	147.280000
262.210663	146.880000
262.303589	146.560000
262.396515	146.460000
262.489471	147.400000
262.582397	147.040000
262.675354	146.820000
262.768280	146.960000
262.861237	147.020000
262.954163	146.660000
263.047119	146.860000
263.140045	146.820000
263.233002	146.620000
263.325958	146.680000
263.418884	145.840000
263.511841	145.900000
263.604797	145.980000
263.697723	146.540000
263.790680	146.100000
263.883636	147.000000
263.976593	146.820000
264.069550	146.680000
264.162476	146.020000
264.255463	146.260000
264.348419	146.000000
264.441376	146.340000
264.534332	145.880000
264.627289	146.000000
264.720245	146.300000
264.813202	145.800000
264.906158	145.780000
264.999115	146.500000
265.092072	146.480000
265.185028	146.740000
265.277985	147.080000
265.370941	146.880000
265.463898	146.700000
265.556854	146.800000
265.649811	145.980000
265.742798	146.220000
265.835754	146.480000
265.928711	146.840000
266.021667	146.920000
266.114655	147.120000
266.207611	147.160000
266.300568	146.700000
266.393585	146.360000
266.486511	146.580000
266.579498	145.940000
266.672485	145.820000
266.765442	145.840000
266.858429	146.440000
266.951385	146.060000
267.044342	146.560000
267.137329	146.380000
267.230316	146.620000
267.323273	145.720000
267.416260	146.220000
267.509216	145.940000
267.602203	146.060000
267.695160	146.500000
267.788147	146.780000
267.881134	146.240000
267.974091	146.800000
268.067078	146.620000
268.160065	146.300000
268.253052	146.180000
268.346008	146.280000
268.438995	145.880000
268.531982	146.000000
268.624969	145.580000
268.717987	146.000000
268.810944	145.980000
268.903961	146.160000
268.996948	145.840000
269.089905	146.340000
269.182892	146.260000
269.275879	146.560000
269.368866	146.320000
269.461853	146.800000
269.554871	146.700000
269.647858	146.780000
269.740845	147.060000
269.833832	147.540000
269.926819	147.260000
270.019806	147.360000
270.112793	146.800000
270.205811	146.580000
270.298798	145.960000
270.391785	146.880000
270.484772	146.300000
270.577789	146.580000
270.670776	146.120000
270.763763	146.480000
270.856750	145.600000
270.949768	145.440000
271.042786	145.720000
271.135773	146.040000
271.228790	146.400000
271.321808	146.400000
271.414795	146.480000
271.507782	146.060000
271.600800	145.760000
271.693817	145.580000
271.786804	145.920000
271.879822	146.180000
271.972809	146.080000
272.065826	146.540000
272.158844	146.080000
272.251831	146.420000
272.344849	146.600000
272.437866	146.540000
272.530853	146.580000
272.623871	146.980000
272.716888	146.040000
272.809906	146.180000
272.902893	146.560000
272.995911	146.020000
273.088928	145.760000
273.181946	146.020000
273.274963	145.660000
273.367981	145.620000
273.460999	145.820000
273.554047	146.160000
273.647003	146.760000
273.740051	146.820000
273.833069	147.060000
273.926086	147.120000
274.019135	146.980000
274.112152	146.680000
274.205170	146.820000
274.298187	146.960000
274.391205	146.680000
274.484222	146.820000
274.577240	146.680000
274.670258	146.200000
274.763306	145.540000
274.856323	145.980000
274.949341	145.860000
275.042358	146.460000
275.135406	146.840000
275.228424	146.880000
275.321442	147.140000
275.414490	146.760000
275.507507	146.740000
275.600525	147.140000
275.693573	147.160000
275.786591	146.320000
275.879669	146.660000
275.972656	146.100000
276.065735	145.900000
276.158752	146.640000
276.251801	147.460000
276.344818	147.460000
276.437866	147.620000
276.530884	147.240000
276.623932	146.120000
276.716980	146.280000
276.809998	146.320000
276.903046	146.480000
276.996094	147.140000
277.089111	148.040000
277.182159	147.960000
277.275208	147.960000
277.368256	147.720000
277.461304	147.080000
277.554321	146.260000
277.647369	146.400000
277.740417	146.320000
277.833466	146.160000
277.926514	146.420000
278.019562	147.320000
278.112610	146.520000
278.205688	146.820000
278.298706	146.900000
278.391785	146.800000
278.484833	146.100000
278.577881	146.020000
278.670929	146.100000
278.763977	146.260000
278.857025	146.600000
278.950073	146.840000
279.043121	146.880000
279.136169	146.620000
279.229248	146.520000
279.322296	146.460000
279.415344	146.260000
279.508392	146.480000
279.601440	146.340000
279.694519	145.940000
279.787567	145.700000
279.880615	145.880000
279.973694	145.740000
280.066742	145.700000
280.159790	146.080000
280.252869	145.840000
280.345917	145.880000
280.438995	145.840000
280.532074	145.900000
280.625122	146.000000
280.718201	147.140000
280.811279	147.160000
280.904327	147.340000
280.997406	147.700000
281.090454	147.740000
281.183533	146.800000
281.276581	146.500000
281.369659	146.100000
281.462738	146.080000
281.555786	146.000000
281.648865	145.840000
281.741943	145.980000
281.835022	146.700000
281.928070	146.600000
282.021149	146.460000
282.114227	146.760000
282.207306	146.740000
282.300385	146.900000
282.393433	146.880000
282.486511	147.040000
282.579590	147.360000
282.672668	148.000000
282.765747	147.200000
282.858856	146.900000
282.951904	146.620000
283.045013	146.500000
283.138062	146.340000
283.231171	146.780000
283.324249	147.480000
283.417328	148.040000
283.510406	147.660000
283.603485	147.480000
283.696564	147.340000
283.789642	147.080000
283.882751	146.340000
283.975830	146.980000
284.068909	146.520000
284.161987	147.080000
284.255066	146.520000
284.348175	147.000000
284.441254	146.700000
284.534332	147.420000
284.627441	146.940000
284.720520	146.660000
284.813599	146.760000
284.906708	146.800000
284.999786	146.000000
285.092896	145.580000
285.185974	146.900000
285.279053	146.400000
285.372192	146.560000
285.465240	147.340000
285.558380	147.560000
285.651459	146.680000
285.744568	147.620000
285.837677	147.140000
285.930756	147.200000
286.023865	147.580000
286.116943	147.520000
286.210052	147.380000
286.303162	147.340000
286.396240	146.860000
286.489349	146.420000
286.582458	146.880000
286.675568	146.360000
286.768646	146.540000
286.861755	146.940000
286.954865	147.660000
287.047974	147.200000
287.141083	147.280000
287.234161	146.840000
287.327271	146.460000
287.420380	146.560000
287.513519	146.700000
287.606598	146.840000
287.699738	147.240000
287.792816	146.940000
287.885956	146.540000
287.979034	146.500000
288.072174	146.200000
288.165283	146.180000
288.258392	146.700000
288.351501	146.200000
288.444611	146.340000
288.537720	147.020000
288.630859	146.860000
288.723969	146.820000
288.817078	147.180000
288.910187	146.980000
289.003296	146.180000
289.096436	146.060000
289.189545	145.680000
289.282654	145.440000
289.375763	146.100000
289.468903	146.480000
289.562012	146.600000
289.655121	147.200000
289.748260	147.080000
289.841400	147.000000
289.934509	147.000000
290.027649	147.260000
290.120728	146.680000
290.213898	146.720000
290.306976	146.020000
290.400146	145.880000
290.493256	145.580000
290.586395	145.860000
290.679535	146.320000
290.772644	146.560000
290.865784	146.000000
290.958893	145.800000
291.052032	145.500000
291.145172	145.200000
291.238281	144.840000
291.331421	145.160000
291.424561	145.920000
291.517670	146.040000
291.610809	146.420000
291.703949	146.380000
291.797089	146.660000
291.890228	146.040000
291.983337	145.980000
292.076477	145.600000
292.169617	146.140000
292.262756	145.940000
292.355927	145.960000
292.449036	145.640000
292.542206	145.840000
292.635315	146.020000
292.728485	146.420000
292.821625	146.200000
292.914764	147.560000
293.007904	147.480000
293.101044	147.060000
293.194183	146.900000
293.287323	147.260000
293.380463	146.400000
293.473602	145.980000
293.566742	146.300000
293.659882	146.500000
293.753021	146.660000
293.846191	146.640000
293.939331	146.380000
294.032471	146.140000
294.125610	145.980000
294.218781	146.160000
294.311920	146.480000
294.405060	147.140000
294.498230	146.980000
294.591370	146.860000
294.684540	146.140000
294.777679	145.620000
294.870850	145.920000
294.963959	145.920000
295.057159	145.620000
295.150299	146.200000
295.243469	146.440000
295.336609	145.540000
295.429779	145.500000
295.522919	146.140000
295.616089	146.000000
295.709229	146.440000
295.802399	146.880000
295.895569	146.800000
295.988708	146.500000
296.081879	146.540000
296.175018	146.020000
296.268188	145.800000
296.361359	146.180000
296.454529	146.340000
296.547668	146.200000
296.640839	146.360000
296.734009	146.440000
296.827179	146.740000
296.920319	146.860000
297.013519	146.540000
297.106659	146.500000
297.199860	146.700000
297.292999	146.500000
297.386200	146.100000
297.479309	146.380000
297.572510	146.300000
297.665680	145.840000
297.758850	145.780000
297.852020	145.680000
297.945190	145.580000
298.038361	145.140000
298.131531	146.180000
298.224701	145.860000
298.317871	145.820000
298.411072	145.280000
298.504242	145.520000
298.597412	144.880000
298.690582	145.200000
298.783752	145.340000
298.876923	146.240000
298.970093	146.120000
299.063293	146.440000
299.156464	146.660000
299.249634	147.200000
299.342834	147.100000
299.436005	147.840000
299.529205	147.400000
299.622345	147.500000
299.715576	146.640000
299.808716	146.200000
299.901917	145.940000
299.995117	146.200000
300.088287	146.220000
300.181488	146.540000
300.274658	146.820000
300.367828	146.580000
300.461029	146.700000
300.554199	146.640000
300.647400	146.640000
300.740601	147.260000
300.833771	147.180000
300.926971	147.260000
301.020142	146.880000
301.113342	146.840000
301.206512	146.160000
301.299713	146.480000
301.392914	146.600000
301.486084	146.980000
301.579285	146.780000
301.672516	147.440000
301.765686	147.160000
301.858887	146.880000
301.952057	146.800000
302.045288	147.180000
302.138458	146.480000
302.231659	146.260000
302.324860	146.280000
302.418060	146.080000
302.511261	145.880000
302.604462	146.240000
302.697662	146.400000
302.790863	146.060000
302.884064	145.460000
302.977264	145.560000
303.070465	145.640000
303.163666	146.160000
303.256866	146.600000
303.350067	146.840000
303.443268	146.860000
303.536469	146.720000
303.629669	146.300000
303.722870	146.380000
303.816071	146.620000
303.909271	146.440000
304.002472	146.120000
304.095673	146.080000
304.188934	145.360000
304.282104	146.080000
304.375336	146.160000
304.468506	146.180000
304.561768	145.640000
304.654968	146.440000
304.748169	145.560000
304.841370	145.240000
304.934601	145.640000
305.027802	146.020000
305.121002	145.420000
305.214233	145.640000
305.307434	145.880000
305.400665	146.380000
305.493866	145.900000
