Model Number: SPM-002-B   
Serial Number: 70087108
Firmware Version: 004.15.4
Exposure Time: 100000.000000us
Data Taken on: 11-12-2020 18:52:35.897
Wavelength	Amplitude
221.570786	0.000000
221.663406	0.000000
221.756027	0.000000
221.848648	0.000000
221.941269	0.000000
222.033905	0.000000
222.126526	0.000000
222.219162	0.000000
222.311798	0.000000
222.404419	0.000000
222.497055	0.000000
222.589676	0.000000
222.682312	0.000000
222.774933	0.000000
222.867569	0.000000
222.960205	0.000000
223.052841	0.000000
223.145462	0.000000
223.238098	0.000000
223.330734	0.000000
223.423386	0.000000
223.516022	0.000000
223.608658	0.000000
223.701309	0.000000
223.793945	0.000000
223.886581	0.000000
223.979218	0.000000
224.071869	0.000000
224.164505	0.000000
224.257156	0.000000
224.349792	0.000000
224.442444	0.000000
224.535095	0.000000
224.627747	0.000000
224.720398	0.000000
224.813034	0.000000
224.905685	0.000000
224.998337	145.340000
225.090988	145.260000
225.183640	145.400000
225.276291	145.260000
225.368942	145.340000
225.461594	145.680000
225.554245	145.880000
225.646912	145.780000
225.739578	146.360000
225.832230	147.020000
225.924896	146.440000
226.017548	146.520000
226.110199	147.260000
226.202866	146.280000
226.295532	145.900000
226.388184	145.760000
226.480850	145.480000
226.573517	144.900000
226.666168	145.400000
226.758835	145.600000
226.851501	146.580000
226.944183	146.640000
227.036850	146.260000
227.129517	146.140000
227.222183	146.200000
227.314850	145.960000
227.407516	146.180000
227.500198	147.060000
227.592865	146.720000
227.685532	146.340000
227.778214	145.820000
227.870880	145.900000
227.963562	145.940000
228.056229	146.700000
228.148926	146.600000
228.241592	147.460000
228.334274	147.140000
228.426956	146.760000
228.519638	146.460000
228.612305	146.180000
228.704987	145.880000
228.797668	145.960000
228.890350	146.040000
228.983032	145.660000
229.075714	146.660000
229.168396	146.320000
229.261108	146.280000
229.353790	146.100000
229.446472	146.160000
229.539169	145.720000
229.631851	145.500000
229.724533	145.600000
229.817230	145.740000
229.909912	146.800000
230.002609	146.840000
230.095306	147.000000
230.187988	146.980000
230.280685	146.800000
230.373383	145.740000
230.466095	145.540000
230.558792	145.680000
230.651474	145.500000
230.744171	145.560000
230.836868	145.460000
230.929581	145.800000
231.022278	146.000000
231.114975	146.000000
231.207672	145.800000
231.300369	146.460000
231.393082	146.280000
231.485779	146.100000
231.578506	146.280000
231.671204	146.320000
231.763916	145.780000
231.856613	145.680000
231.949326	145.720000
232.042023	145.580000
232.134735	145.900000
232.227448	145.720000
232.320160	146.240000
232.412872	146.360000
232.505585	147.200000
232.598297	147.480000
232.691010	147.620000
232.783722	146.900000
232.876450	147.280000
232.969162	146.600000
233.061874	145.840000
233.154587	145.740000
233.247314	146.040000
233.340027	145.500000
233.432739	145.980000
233.525467	145.920000
233.618179	146.420000
233.710907	146.020000
233.803635	146.180000
233.896347	145.640000
233.989090	146.460000
234.081818	146.160000
234.174545	146.320000
234.267258	145.820000
234.359985	146.040000
234.452713	145.740000
234.545441	145.780000
234.638168	145.920000
234.730896	146.720000
234.823639	146.660000
234.916367	146.980000
235.009094	147.080000
235.101822	147.120000
235.194580	146.880000
235.287308	147.060000
235.380051	146.340000
235.472778	146.360000
235.565521	146.400000
235.658249	145.760000
235.750992	145.420000
235.843719	145.380000
235.936462	145.640000
236.029205	145.380000
236.121948	145.380000
236.214691	146.060000
236.307449	147.040000
236.400192	146.580000
236.492935	146.540000
236.585678	146.900000
236.678421	146.480000
236.771164	146.060000
236.863907	146.420000
236.956665	146.820000
237.049408	148.360000
237.142151	148.120000
237.234909	148.600000
237.327652	148.560000
237.420410	148.220000
237.513153	147.080000
237.605927	146.780000
237.698669	146.280000
237.791428	145.600000
237.884186	146.120000
237.976944	145.580000
238.069702	146.320000
238.162445	145.720000
238.255203	145.820000
238.347961	145.900000
238.440720	146.100000
238.533478	145.580000
238.626266	145.620000
238.719025	146.120000
238.811783	145.800000
238.904541	145.580000
238.997314	145.780000
239.090073	145.480000
239.182831	145.480000
239.275604	146.140000
239.368362	146.180000
239.461136	145.880000
239.553909	146.180000
239.646667	145.880000
239.739441	145.340000
239.832214	145.720000
239.925003	146.080000
240.017761	146.520000
240.110535	147.180000
240.203308	146.800000
240.296082	146.700000
240.388855	146.820000
240.481628	147.220000
240.574417	147.240000
240.667191	147.500000
240.759964	147.200000
240.852737	147.240000
240.945526	146.500000
241.038315	146.000000
241.131088	145.900000
241.223877	146.040000
241.316650	145.240000
241.409439	145.480000
241.502228	145.400000
241.595001	145.920000
241.687790	146.260000
241.780579	146.740000
241.873367	147.080000
241.966141	147.320000
242.058929	146.520000
242.151718	146.300000
242.244507	146.440000
242.337311	145.440000
242.430099	145.620000
242.522903	146.120000
242.615692	145.840000
242.708481	145.640000
242.801270	146.160000
242.894073	146.000000
242.986862	145.980000
243.079651	146.520000
243.172455	146.420000
243.265244	146.900000
243.358063	146.360000
243.450867	146.560000
243.543655	146.420000
243.636459	146.440000
243.729263	146.520000
243.822067	146.920000
243.914856	147.080000
244.007660	146.980000
244.100464	147.080000
244.193268	146.480000
244.286072	146.500000
244.378876	146.020000
244.471680	145.800000
244.564499	146.140000
244.657318	146.860000
244.750122	147.140000
244.842926	146.620000
244.935745	146.960000
245.028549	146.360000
245.121368	146.080000
245.214172	145.720000
245.306992	146.300000
245.399796	145.960000
245.492615	146.140000
245.585434	145.740000
245.678253	145.880000
245.771072	145.740000
245.863892	145.840000
245.956711	146.120000
246.049530	145.840000
246.142349	145.500000
246.235168	145.440000
246.327988	145.760000
246.420807	145.520000
246.513626	146.060000
246.606445	146.040000
246.699280	145.940000
246.792099	145.700000
246.884918	145.280000
246.977753	144.740000
247.070587	145.240000
247.163422	145.460000
247.256241	145.680000
247.349075	146.260000
247.441895	146.140000
247.534729	145.820000
247.627563	145.780000
247.720383	146.200000
247.813217	146.040000
247.906052	146.360000
247.998886	146.420000
248.091736	146.340000
248.184570	146.020000
248.277405	146.120000
248.370239	146.840000
248.463074	147.380000
248.555908	147.800000
248.648743	147.480000
248.741592	147.580000
248.834427	146.640000
248.927261	145.800000
249.020111	145.920000
249.112946	146.600000
249.205795	146.220000
249.298630	146.740000
249.391495	146.960000
249.484344	146.440000
249.577179	146.100000
249.670029	146.420000
249.762878	146.880000
249.855728	147.040000
249.948563	147.440000
250.041412	146.880000
250.134262	147.080000
250.227112	146.740000
250.319962	146.740000
250.412827	146.500000
250.505692	146.200000
250.598541	145.800000
250.691391	145.540000
250.784241	145.600000
250.877106	145.700000
250.969955	145.780000
251.062805	146.600000
251.155670	147.140000
251.248520	146.800000
251.341385	146.820000
251.434235	147.140000
251.527100	146.580000
251.619965	146.340000
251.712814	147.180000
251.805695	147.060000
251.898560	147.060000
251.991425	147.040000
252.084290	146.760000
252.177155	145.760000
252.270020	145.320000
252.362885	145.520000
252.455750	145.660000
252.548615	145.520000
252.641479	145.780000
252.734360	146.180000
252.827240	145.940000
252.920105	145.740000
253.012970	145.760000
253.105850	145.480000
253.198715	145.220000
253.291595	145.200000
253.384460	144.980000
253.477341	144.860000
253.570221	145.320000
253.663086	145.220000
253.755966	146.000000
253.848846	145.920000
253.941727	146.440000
254.034592	146.380000
254.127472	145.900000
254.220367	145.580000
254.313248	146.040000
254.406128	145.700000
254.499008	145.640000
254.591904	146.760000
254.684784	147.260000
254.777664	147.280000
254.870544	146.920000
254.963440	146.940000
255.056335	146.700000
255.149216	145.780000
255.242111	146.040000
255.334991	146.520000
255.427887	146.640000
255.520767	146.600000
255.613663	147.140000
255.706558	146.620000
255.799438	146.340000
255.892334	146.000000
255.985229	146.060000
256.078125	145.680000
256.171021	145.680000
256.263916	146.360000
256.356812	146.860000
256.449707	146.560000
256.542603	146.300000
256.635498	146.860000
256.728394	146.560000
256.821289	146.320000
256.914215	146.760000
257.007080	147.240000
257.100006	147.040000
257.192932	147.140000
257.285828	147.240000
257.378723	146.800000
257.471619	146.580000
257.564545	146.120000
257.657440	146.180000
257.750336	146.520000
257.843262	146.300000
257.936157	147.540000
258.029053	147.900000
258.121979	147.820000
258.214874	147.440000
258.307800	147.340000
258.400696	145.780000
258.493622	145.560000
258.586517	144.980000
258.679443	145.460000
258.772339	145.420000
258.865265	145.440000
258.958160	145.000000
259.051086	145.920000
259.144012	145.460000
259.236938	146.480000
259.329834	146.760000
259.422791	146.840000
259.515717	145.720000
259.608612	145.500000
259.701538	145.500000
259.794464	145.760000
259.887390	145.860000
259.980316	146.180000
260.073212	146.220000
260.166138	145.100000
260.259064	145.140000
260.351990	146.140000
260.444916	146.560000
260.537842	147.060000
260.630768	147.900000
260.723694	147.460000
260.816620	146.800000
260.909546	146.280000
261.002472	145.820000
261.095398	145.400000
261.188354	145.560000
261.281281	145.240000
261.374207	145.360000
261.467133	145.920000
261.560089	145.920000
261.653015	145.700000
261.745972	146.220000
261.838867	146.960000
261.931824	146.720000
262.024780	146.340000
262.117706	146.900000
262.210663	147.040000
262.303589	146.500000
262.396515	146.440000
262.489471	147.460000
262.582397	147.020000
262.675354	146.420000
262.768280	146.780000
262.861237	146.860000
262.954163	146.500000
263.047119	146.680000
263.140045	146.520000
263.233002	146.360000
263.325958	146.180000
263.418884	145.800000
263.511841	145.940000
263.604797	146.120000
263.697723	145.980000
263.790680	145.880000
263.883636	146.400000
263.976593	146.140000
264.069550	146.340000
264.162476	145.880000
264.255463	145.960000
264.348419	145.540000
264.441376	145.520000
264.534332	145.460000
264.627289	145.960000
264.720245	146.360000
264.813202	145.920000
264.906158	146.340000
264.999115	146.780000
265.092072	146.700000
265.185028	147.000000
265.277985	147.500000
265.370941	147.400000
265.463898	147.060000
265.556854	146.720000
265.649811	145.620000
265.742798	145.780000
265.835754	145.700000
265.928711	145.880000
266.021667	145.800000
266.114655	146.500000
266.207611	146.740000
266.300568	146.140000
266.393585	145.840000
266.486511	146.300000
266.579498	145.440000
266.672485	145.160000
266.765442	145.240000
266.858429	145.680000
266.951385	145.400000
267.044342	145.800000
267.137329	145.820000
267.230316	146.260000
267.323273	145.840000
267.416260	146.440000
267.509216	146.220000
267.602203	146.360000
267.695160	146.360000
267.788147	146.240000
267.881134	145.640000
267.974091	145.980000
268.067078	145.520000
268.160065	145.360000
268.253052	145.020000
268.346008	145.200000
268.438995	144.820000
268.531982	145.160000
268.624969	145.100000
268.717987	145.700000
268.810944	145.620000
268.903961	145.980000
268.996948	145.460000
269.089905	145.820000
269.182892	145.520000
269.275879	146.000000
269.368866	145.600000
269.461853	145.920000
269.554871	145.700000
269.647858	145.960000
269.740845	145.800000
269.833832	146.600000
269.926819	146.580000
270.019806	146.520000
270.112793	146.180000
270.205811	146.160000
270.298798	145.760000
270.391785	146.560000
270.484772	146.680000
270.577789	146.620000
270.670776	146.360000
270.763763	146.360000
270.856750	145.600000
270.949768	145.160000
271.042786	145.740000
271.135773	145.960000
271.228790	146.180000
271.321808	146.160000
271.414795	146.160000
271.507782	145.740000
271.600800	145.380000
271.693817	145.340000
271.786804	145.640000
271.879822	146.100000
271.972809	145.980000
272.065826	146.600000
272.158844	146.040000
272.251831	146.320000
272.344849	146.160000
272.437866	145.840000
272.530853	145.520000
272.623871	145.960000
272.716888	144.940000
272.809906	145.360000
272.902893	145.700000
272.995911	145.280000
273.088928	145.140000
273.181946	145.560000
273.274963	145.020000
273.367981	145.120000
273.460999	145.240000
273.554047	145.860000
273.647003	146.340000
273.740051	146.300000
273.833069	146.360000
273.926086	146.860000
274.019135	145.960000
274.112152	145.680000
274.205170	145.980000
274.298187	146.420000
274.391205	145.800000
274.484222	146.160000
274.577240	146.180000
274.670258	145.920000
274.763306	145.440000
274.856323	146.360000
274.949341	146.340000
275.042358	146.400000
275.135406	146.260000
275.228424	146.720000
275.321442	146.120000
275.414490	145.780000
275.507507	146.100000
275.600525	146.620000
275.693573	146.040000
275.786591	145.800000
275.879669	146.120000
275.972656	145.680000
276.065735	145.560000
276.158752	146.280000
276.251801	147.140000
276.344818	147.400000
276.437866	147.640000
276.530884	147.460000
276.623932	146.520000
276.716980	146.240000
276.809998	146.080000
276.903046	146.120000
276.996094	146.720000
277.089111	147.300000
277.182159	147.400000
277.275208	147.100000
277.368256	146.680000
277.461304	146.140000
277.554321	145.600000
277.647369	145.580000
277.740417	145.980000
277.833466	146.100000
277.926514	146.080000
278.019562	146.720000
278.112610	146.040000
278.205688	145.760000
278.298706	146.040000
278.391785	145.860000
278.484833	145.320000
278.577881	145.480000
278.670929	145.940000
278.763977	145.660000
278.857025	146.280000
278.950073	146.520000
279.043121	146.320000
279.136169	146.160000
279.229248	146.180000
279.322296	146.020000
279.415344	145.940000
279.508392	146.020000
279.601440	145.680000
279.694519	145.720000
279.787567	145.300000
279.880615	144.940000
279.973694	145.020000
280.066742	145.340000
280.159790	145.460000
280.252869	145.460000
280.345917	145.900000
280.438995	145.960000
280.532074	145.820000
280.625122	145.900000
280.718201	146.860000
280.811279	147.060000
280.904327	146.960000
280.997406	146.980000
281.090454	146.880000
281.183533	146.040000
281.276581	145.660000
281.369659	145.520000
281.462738	145.460000
281.555786	145.660000
281.648865	145.820000
281.741943	145.960000
281.835022	146.660000
281.928070	146.620000
282.021149	146.480000
282.114227	146.160000
282.207306	146.340000
282.300385	146.440000
282.393433	146.620000
282.486511	146.580000
282.579590	147.420000
282.672668	147.600000
282.765747	146.840000
282.858856	146.640000
282.951904	146.680000
283.045013	146.780000
283.138062	146.800000
283.231171	147.220000
283.324249	147.880000
283.417328	148.080000
283.510406	147.220000
283.603485	147.020000
283.696564	146.900000
283.789642	146.500000
283.882751	145.960000
283.975830	146.640000
284.068909	146.300000
284.161987	146.780000
284.255066	146.120000
284.348175	146.460000
284.441254	146.180000
284.534332	146.680000
284.627441	146.200000
284.720520	146.320000
284.813599	146.360000
284.906708	146.240000
284.999786	145.520000
285.092896	145.260000
285.185974	146.160000
285.279053	145.660000
285.372192	145.660000
285.465240	146.260000
285.558380	146.580000
285.651459	146.120000
285.744568	147.000000
285.837677	146.660000
285.930756	146.720000
286.023865	146.500000
286.116943	146.040000
286.210052	145.940000
286.303162	146.240000
286.396240	146.000000
286.489349	145.740000
286.582458	146.180000
286.675568	145.760000
286.768646	145.800000
286.861755	145.880000
286.954865	146.880000
287.047974	146.520000
287.141083	146.280000
287.234161	145.960000
287.327271	145.840000
287.420380	145.620000
287.513519	145.560000
287.606598	145.720000
287.699738	146.080000
287.792816	145.940000
287.885956	145.560000
287.979034	145.600000
288.072174	145.840000
288.165283	145.560000
288.258392	146.240000
288.351501	145.580000
288.444611	146.040000
288.537720	146.300000
288.630859	146.540000
288.723969	146.280000
288.817078	147.080000
288.910187	146.980000
289.003296	146.320000
289.096436	145.720000
289.189545	145.380000
289.282654	145.000000
289.375763	145.220000
289.468903	145.860000
289.562012	146.240000
289.655121	146.340000
289.748260	146.500000
289.841400	146.620000
289.934509	146.160000
290.027649	146.240000
290.120728	146.080000
290.213898	146.220000
290.306976	146.060000
290.400146	146.240000
290.493256	145.940000
290.586395	146.520000
290.679535	146.740000
290.772644	146.380000
290.865784	145.440000
290.958893	145.800000
291.052032	145.240000
291.145172	145.060000
291.238281	144.760000
291.331421	145.480000
291.424561	145.780000
291.517670	145.740000
291.610809	145.880000
291.703949	145.920000
291.797089	146.080000
291.890228	145.460000
291.983337	145.480000
292.076477	145.100000
292.169617	145.420000
292.262756	145.380000
292.355927	145.620000
292.449036	145.480000
292.542206	145.680000
292.635315	145.880000
292.728485	146.120000
292.821625	145.720000
292.914764	146.860000
293.007904	146.940000
293.101044	146.860000
293.194183	146.520000
293.287323	146.820000
293.380463	145.980000
293.473602	145.860000
293.566742	145.960000
293.659882	146.500000
293.753021	146.600000
293.846191	146.480000
293.939331	146.080000
294.032471	145.660000
294.125610	145.380000
294.218781	145.720000
294.311920	145.740000
294.405060	145.940000
294.498230	146.160000
294.591370	146.200000
294.684540	145.600000
294.777679	145.420000
294.870850	145.800000
294.963959	145.760000
295.057159	145.460000
295.150299	145.920000
295.243469	146.120000
295.336609	145.420000
295.429779	145.540000
295.522919	145.920000
295.616089	145.780000
295.709229	146.200000
295.802399	146.560000
295.895569	146.460000
295.988708	146.200000
296.081879	146.340000
296.175018	145.760000
296.268188	145.740000
296.361359	145.880000
296.454529	146.000000
296.547668	145.540000
296.640839	146.100000
296.734009	145.760000
296.827179	145.900000
296.920319	146.120000
297.013519	146.080000
297.106659	145.840000
297.199860	146.060000
297.292999	146.080000
297.386200	145.740000
297.479309	145.500000
297.572510	145.340000
297.665680	145.200000
297.758850	145.080000
297.852020	144.940000
297.945190	144.940000
298.038361	144.820000
298.131531	146.000000
298.224701	146.020000
298.317871	145.840000
298.411072	145.620000
298.504242	145.600000
298.597412	144.560000
298.690582	144.640000
298.783752	144.560000
298.876923	145.520000
298.970093	145.880000
299.063293	146.540000
299.156464	146.700000
299.249634	147.060000
299.342834	146.760000
299.436005	147.100000
299.529205	146.460000
299.622345	146.480000
299.715576	145.900000
299.808716	145.800000
299.901917	145.560000
299.995117	146.240000
300.088287	146.160000
300.181488	146.320000
300.274658	146.280000
300.367828	146.280000
300.461029	145.960000
300.554199	145.980000
300.647400	146.140000
300.740601	146.860000
300.833771	146.660000
300.926971	147.020000
301.020142	146.480000
301.113342	146.380000
301.206512	146.060000
301.299713	146.240000
301.392914	145.920000
301.486084	146.600000
301.579285	146.760000
301.672516	146.740000
301.765686	146.260000
301.858887	146.260000
301.952057	145.840000
302.045288	145.760000
302.138458	145.720000
302.231659	146.000000
302.324860	145.820000
302.418060	145.640000
302.511261	145.860000
302.604462	146.160000
302.697662	145.880000
302.790863	145.700000
302.884064	145.300000
302.977264	145.320000
303.070465	145.080000
303.163666	145.740000
303.256866	146.360000
303.350067	146.640000
303.443268	146.240000
303.536469	146.340000
303.629669	145.540000
303.722870	145.300000
303.816071	145.360000
303.909271	145.620000
304.002472	145.100000
304.095673	145.240000
304.188934	144.380000
304.282104	145.340000
304.375336	145.420000
304.468506	145.580000
304.561768	145.440000
304.654968	146.260000
304.748169	145.500000
304.841370	145.140000
304.934601	145.380000
305.027802	145.440000
305.121002	145.100000
305.214233	145.200000
305.307434	145.520000
305.400665	146.000000
305.493866	145.960000
