Model Number: SPM-002-B   
Serial Number: 70087108
Firmware Version: 004.15.4
Exposure Time: 100000.000000us
Data Taken on: 11-12-2020 18:52:58.020
Wavelength	Amplitude
221.570786	0.000000
221.663406	0.000000
221.756027	0.000000
221.848648	0.000000
221.941269	0.000000
222.033905	0.000000
222.126526	0.000000
222.219162	0.000000
222.311798	0.000000
222.404419	0.000000
222.497055	0.000000
222.589676	0.000000
222.682312	0.000000
222.774933	0.000000
222.867569	0.000000
222.960205	0.000000
223.052841	0.000000
223.145462	0.000000
223.238098	0.000000
223.330734	0.000000
223.423386	0.000000
223.516022	0.000000
223.608658	0.000000
223.701309	0.000000
223.793945	0.000000
223.886581	0.000000
223.979218	0.000000
224.071869	0.000000
224.164505	0.000000
224.257156	0.000000
224.349792	0.000000
224.442444	0.000000
224.535095	0.000000
224.627747	0.000000
224.720398	0.000000
224.813034	0.000000
224.905685	0.000000
224.998337	145.140000
225.090988	145.060000
225.183640	144.820000
225.276291	144.700000
225.368942	145.000000
225.461594	145.380000
225.554245	145.600000
225.646912	145.600000
225.739578	146.120000
225.832230	146.500000
225.924896	145.740000
226.017548	146.020000
226.110199	146.420000
226.202866	145.660000
226.295532	145.440000
226.388184	145.560000
226.480850	144.760000
226.573517	144.260000
226.666168	144.660000
226.758835	144.700000
226.851501	145.360000
226.944183	145.700000
227.036850	145.420000
227.129517	145.400000
227.222183	145.700000
227.314850	145.540000
227.407516	145.940000
227.500198	146.900000
227.592865	146.520000
227.685532	145.900000
227.778214	145.760000
227.870880	146.160000
227.963562	146.460000
228.056229	147.180000
228.148926	147.240000
228.241592	148.020000
228.334274	147.380000
228.426956	146.480000
228.519638	146.280000
228.612305	145.700000
228.704987	145.080000
228.797668	145.240000
228.890350	145.380000
228.983032	144.800000
229.075714	146.020000
229.168396	146.040000
229.261108	145.400000
229.353790	145.200000
229.446472	145.780000
229.539169	145.420000
229.631851	144.900000
229.724533	145.240000
229.817230	145.660000
229.909912	146.440000
230.002609	146.340000
230.095306	146.360000
230.187988	146.700000
230.280685	146.780000
230.373383	145.720000
230.466095	145.720000
230.558792	146.320000
230.651474	145.760000
230.744171	145.420000
230.836868	145.480000
230.929581	145.860000
231.022278	145.920000
231.114975	146.120000
231.207672	145.740000
231.300369	145.820000
231.393082	145.720000
231.485779	145.260000
231.578506	145.160000
231.671204	145.660000
231.763916	145.880000
231.856613	145.500000
231.949326	145.660000
232.042023	145.800000
232.134735	145.400000
232.227448	144.920000
232.320160	145.120000
232.412872	145.140000
232.505585	145.920000
232.598297	146.560000
232.691010	146.520000
232.783722	146.280000
232.876450	146.880000
232.969162	146.140000
233.061874	145.660000
233.154587	145.540000
233.247314	145.820000
233.340027	145.320000
233.432739	145.640000
233.525467	145.380000
233.618179	146.140000
233.710907	145.740000
233.803635	145.980000
233.896347	145.680000
233.989090	146.620000
234.081818	146.140000
234.174545	146.680000
234.267258	146.100000
234.359985	146.360000
234.452713	145.960000
234.545441	145.300000
234.638168	145.000000
234.730896	145.580000
234.823639	145.140000
234.916367	145.400000
235.009094	146.240000
235.101822	146.120000
235.194580	145.780000
235.287308	146.220000
235.380051	145.640000
235.472778	145.660000
235.565521	145.940000
235.658249	145.600000
235.750992	145.580000
235.843719	145.820000
235.936462	146.080000
236.029205	145.660000
236.121948	145.580000
236.214691	145.800000
236.307449	146.400000
236.400192	146.120000
236.492935	146.120000
236.585678	146.440000
236.678421	146.120000
236.771164	145.620000
236.863907	145.900000
236.956665	146.180000
237.049408	147.660000
237.142151	147.100000
237.234909	147.780000
237.327652	147.560000
237.420410	147.280000
237.513153	146.400000
237.605927	146.480000
237.698669	145.920000
237.791428	145.200000
237.884186	145.960000
237.976944	145.140000
238.069702	145.920000
238.162445	145.360000
238.255203	145.800000
238.347961	145.780000
238.440720	146.100000
238.533478	145.420000
238.626266	145.540000
238.719025	145.800000
238.811783	145.560000
238.904541	145.520000
238.997314	145.400000
239.090073	145.220000
239.182831	145.500000
239.275604	145.900000
239.368362	145.560000
239.461136	145.740000
239.553909	145.800000
239.646667	145.380000
239.739441	145.020000
239.832214	145.560000
239.925003	146.100000
240.017761	146.780000
240.110535	147.220000
240.203308	146.920000
240.296082	147.140000
240.388855	146.860000
240.481628	146.800000
240.574417	146.920000
240.667191	146.940000
240.759964	146.400000
240.852737	146.420000
240.945526	146.020000
241.038315	145.640000
241.131088	145.880000
241.223877	146.200000
241.316650	145.900000
241.409439	146.320000
241.502228	145.920000
241.595001	146.040000
241.687790	145.800000
241.780579	145.780000
241.873367	145.780000
241.966141	146.220000
242.058929	145.680000
242.151718	145.760000
242.244507	146.320000
242.337311	145.580000
242.430099	145.960000
242.522903	146.120000
242.615692	145.580000
242.708481	145.340000
242.801270	145.880000
242.894073	145.360000
242.986862	145.500000
243.079651	146.460000
243.172455	145.940000
243.265244	146.160000
243.358063	145.740000
243.450867	145.900000
243.543655	145.740000
243.636459	146.240000
243.729263	146.320000
243.822067	147.040000
243.914856	147.380000
244.007660	147.240000
244.100464	146.920000
244.193268	146.280000
244.286072	146.020000
244.378876	145.320000
244.471680	144.860000
244.564499	145.460000
244.657318	146.300000
244.750122	146.660000
244.842926	146.160000
244.935745	146.480000
245.028549	145.900000
245.121368	145.220000
245.214172	145.000000
245.306992	145.920000
245.399796	145.700000
245.492615	146.100000
245.585434	145.980000
245.678253	145.800000
245.771072	145.400000
245.863892	146.140000
245.956711	145.920000
246.049530	145.980000
246.142349	145.800000
246.235168	146.200000
246.327988	146.300000
246.420807	146.180000
246.513626	146.080000
246.606445	146.140000
246.699280	145.920000
246.792099	145.360000
246.884918	145.500000
246.977753	145.180000
247.070587	145.160000
247.163422	145.440000
247.256241	145.460000
247.349075	145.600000
247.441895	145.840000
247.534729	146.000000
247.627563	145.460000
247.720383	146.040000
247.813217	145.640000
247.906052	145.840000
247.998886	145.480000
248.091736	145.560000
248.184570	144.740000
248.277405	144.980000
248.370239	145.780000
248.463074	146.720000
248.555908	147.040000
248.648743	147.100000
248.741592	147.160000
248.834427	146.640000
248.927261	145.900000
249.020111	146.160000
249.112946	146.980000
249.205795	146.540000
249.298630	146.420000
249.391495	146.460000
249.484344	146.080000
249.577179	145.680000
249.670029	145.980000
249.762878	146.660000
249.855728	146.720000
249.948563	146.500000
250.041412	146.120000
250.134262	146.360000
250.227112	146.260000
250.319962	146.220000
250.412827	146.420000
250.505692	146.180000
250.598541	146.320000
250.691391	145.540000
250.784241	145.480000
250.877106	145.600000
250.969955	145.620000
251.062805	146.040000
251.155670	146.960000
251.248520	146.880000
251.341385	146.640000
251.434235	146.880000
251.527100	146.000000
251.619965	145.260000
251.712814	146.060000
251.805695	146.000000
251.898560	145.740000
251.991425	146.160000
252.084290	146.260000
252.177155	145.340000
252.270020	145.360000
252.362885	145.680000
252.455750	145.500000
252.548615	145.400000
252.641479	145.780000
252.734360	145.560000
252.827240	145.300000
252.920105	145.300000
253.012970	144.920000
253.105850	144.700000
253.198715	144.560000
253.291595	144.840000
253.384460	144.560000
253.477341	144.900000
253.570221	145.120000
253.663086	145.420000
253.755966	145.980000
253.848846	146.040000
253.941727	146.120000
254.034592	146.060000
254.127472	145.560000
254.220367	145.320000
254.313248	145.560000
254.406128	145.040000
254.499008	145.180000
254.591904	146.000000
254.684784	146.220000
254.777664	146.280000
254.870544	146.320000
254.963440	146.100000
255.056335	146.060000
255.149216	145.320000
255.242111	145.680000
255.334991	146.200000
255.427887	146.180000
255.520767	146.200000
255.613663	146.720000
255.706558	145.960000
255.799438	145.640000
255.892334	145.740000
255.985229	145.620000
256.078125	145.320000
256.171021	145.620000
256.263916	146.120000
256.356812	146.060000
256.449707	146.160000
256.542603	146.000000
256.635498	146.340000
256.728394	145.960000
256.821289	145.680000
256.914215	145.740000
257.007080	146.280000
257.100006	146.180000
257.192932	146.600000
257.285828	147.060000
257.378723	146.620000
257.471619	146.060000
257.564545	145.940000
257.657440	145.760000
257.750336	146.080000
257.843262	146.020000
257.936157	147.000000
258.029053	147.040000
258.121979	147.120000
258.214874	146.640000
258.307800	146.660000
258.400696	145.580000
258.493622	145.580000
258.586517	144.740000
258.679443	145.440000
258.772339	145.220000
258.865265	145.560000
258.958160	145.160000
259.051086	146.100000
259.144012	145.340000
259.236938	146.380000
259.329834	146.260000
259.422791	146.060000
259.515717	145.640000
259.608612	145.580000
259.701538	145.220000
259.794464	145.000000
259.887390	145.120000
259.980316	144.880000
260.073212	144.700000
260.166138	143.920000
260.259064	144.680000
260.351990	145.620000
260.444916	145.840000
260.537842	146.600000
260.630768	147.580000
260.723694	147.300000
260.816620	146.660000
260.909546	146.780000
261.002472	146.140000
261.095398	145.620000
261.188354	145.720000
261.281281	145.600000
261.374207	145.820000
261.467133	146.780000
261.560089	147.180000
261.653015	146.900000
261.745972	147.640000
261.838867	147.720000
261.931824	147.380000
262.024780	146.600000
262.117706	146.740000
262.210663	146.440000
262.303589	146.260000
262.396515	146.160000
262.489471	146.940000
262.582397	146.660000
262.675354	146.140000
262.768280	145.920000
262.861237	145.920000
262.954163	145.620000
263.047119	145.960000
263.140045	145.700000
263.233002	145.900000
263.325958	145.420000
263.418884	145.080000
263.511841	144.680000
263.604797	145.140000
263.697723	145.260000
263.790680	145.360000
263.883636	146.040000
263.976593	145.860000
264.069550	145.720000
264.162476	145.180000
264.255463	145.380000
264.348419	144.620000
264.441376	145.060000
264.534332	144.840000
264.627289	145.080000
264.720245	145.300000
264.813202	145.480000
264.906158	145.460000
264.999115	146.020000
265.092072	146.040000
265.185028	146.500000
265.277985	146.820000
265.370941	147.180000
265.463898	146.960000
265.556854	147.040000
265.649811	146.320000
265.742798	146.120000
265.835754	145.840000
265.928711	146.080000
266.021667	146.000000
266.114655	145.900000
266.207611	146.280000
266.300568	145.720000
266.393585	145.280000
266.486511	145.680000
266.579498	145.100000
266.672485	144.900000
266.765442	145.020000
266.858429	145.680000
266.951385	145.080000
267.044342	145.720000
267.137329	145.480000
267.230316	145.760000
267.323273	145.140000
267.416260	145.720000
267.509216	145.560000
267.602203	145.640000
267.695160	145.700000
267.788147	145.860000
267.881134	145.220000
267.974091	145.640000
268.067078	145.520000
268.160065	145.640000
268.253052	145.620000
268.346008	145.840000
268.438995	145.560000
268.531982	145.520000
268.624969	145.160000
268.717987	145.480000
268.810944	145.220000
268.903961	145.100000
268.996948	145.060000
269.089905	145.520000
269.182892	145.540000
269.275879	146.040000
269.368866	145.700000
269.461853	146.020000
269.554871	145.940000
269.647858	145.760000
269.740845	145.960000
269.833832	146.360000
269.926819	146.100000
270.019806	146.180000
270.112793	145.680000
270.205811	145.580000
270.298798	145.400000
270.391785	145.920000
270.484772	145.400000
270.577789	145.820000
270.670776	145.180000
270.763763	145.380000
270.856750	145.200000
270.949768	145.200000
271.042786	144.980000
271.135773	145.240000
271.228790	145.340000
271.321808	144.760000
271.414795	144.700000
271.507782	144.500000
271.600800	144.440000
271.693817	144.460000
271.786804	145.480000
271.879822	145.620000
271.972809	146.040000
272.065826	146.460000
272.158844	145.880000
272.251831	145.980000
272.344849	146.360000
272.437866	146.060000
272.530853	146.060000
272.623871	146.820000
272.716888	145.780000
272.809906	145.680000
272.902893	146.000000
272.995911	145.540000
273.088928	145.260000
273.181946	145.560000
273.274963	145.240000
273.367981	144.780000
273.460999	145.180000
273.554047	145.680000
273.647003	145.940000
273.740051	146.060000
273.833069	146.500000
273.926086	146.340000
274.019135	145.760000
274.112152	145.440000
274.205170	145.240000
274.298187	145.280000
274.391205	145.020000
274.484222	145.100000
274.577240	145.120000
274.670258	145.180000
274.763306	145.040000
274.856323	145.700000
274.949341	145.980000
275.042358	146.240000
275.135406	146.200000
275.228424	146.220000
275.321442	146.200000
275.414490	145.940000
275.507507	146.320000
275.600525	147.040000
275.693573	147.000000
275.786591	146.240000
275.879669	146.320000
275.972656	145.940000
276.065735	145.340000
276.158752	145.920000
276.251801	146.960000
276.344818	146.800000
276.437866	146.760000
276.530884	147.020000
276.623932	146.000000
276.716980	145.680000
276.809998	145.700000
276.903046	145.720000
276.996094	146.320000
277.089111	147.300000
277.182159	147.600000
277.275208	147.460000
277.368256	147.580000
277.461304	147.020000
277.554321	146.040000
277.647369	145.720000
277.740417	145.840000
277.833466	145.580000
277.926514	145.420000
278.019562	145.900000
278.112610	145.280000
278.205688	145.440000
278.298706	145.520000
278.391785	145.500000
278.484833	145.380000
278.577881	145.580000
278.670929	145.680000
278.763977	145.700000
278.857025	146.080000
278.950073	146.200000
279.043121	146.080000
279.136169	145.920000
279.229248	145.620000
279.322296	145.440000
279.415344	145.120000
279.508392	145.180000
279.601440	144.960000
279.694519	145.000000
279.787567	144.700000
279.880615	144.680000
279.973694	144.620000
280.066742	144.800000
280.159790	145.080000
280.252869	145.020000
280.345917	145.560000
280.438995	145.720000
280.532074	145.460000
280.625122	145.580000
280.718201	146.720000
280.811279	146.520000
280.904327	146.360000
280.997406	146.940000
281.090454	146.640000
281.183533	145.380000
281.276581	145.200000
281.369659	145.040000
281.462738	144.940000
281.555786	145.300000
281.648865	145.400000
281.741943	145.180000
281.835022	146.140000
281.928070	145.820000
282.021149	145.360000
282.114227	145.620000
282.207306	145.940000
282.300385	145.640000
282.393433	146.160000
282.486511	146.420000
282.579590	146.520000
282.672668	146.960000
282.765747	146.340000
282.858856	145.640000
282.951904	145.980000
283.045013	146.140000
283.138062	146.080000
283.231171	146.900000
283.324249	147.500000
283.417328	147.160000
283.510406	146.920000
283.603485	146.800000
283.696564	146.720000
283.789642	146.920000
283.882751	146.880000
283.975830	147.200000
284.068909	146.840000
284.161987	146.820000
284.255066	146.240000
284.348175	146.720000
284.441254	146.580000
284.534332	147.140000
284.627441	146.700000
284.720520	146.200000
284.813599	145.720000
284.906708	145.860000
284.999786	145.020000
285.092896	144.720000
285.185974	146.060000
285.279053	145.600000
285.372192	145.420000
285.465240	146.140000
285.558380	146.460000
285.651459	145.480000
285.744568	146.680000
285.837677	146.340000
285.930756	146.220000
286.023865	146.380000
286.116943	146.500000
286.210052	146.060000
286.303162	146.420000
286.396240	146.240000
286.489349	145.740000
286.582458	146.020000
286.675568	145.800000
286.768646	145.640000
286.861755	145.980000
286.954865	146.740000
287.047974	146.080000
287.141083	145.640000
287.234161	145.240000
287.327271	144.660000
287.420380	144.820000
287.513519	145.000000
287.606598	145.300000
287.699738	145.800000
287.792816	145.800000
287.885956	145.500000
287.979034	145.480000
288.072174	145.820000
288.165283	145.620000
288.258392	146.020000
288.351501	145.320000
288.444611	145.460000
288.537720	145.720000
288.630859	145.420000
288.723969	145.540000
288.817078	146.280000
288.910187	146.260000
289.003296	145.520000
289.096436	145.740000
289.189545	145.540000
289.282654	144.920000
289.375763	145.440000
289.468903	146.020000
289.562012	146.180000
289.655121	146.160000
289.748260	146.520000
289.841400	146.500000
289.934509	146.380000
290.027649	146.260000
290.120728	146.060000
290.213898	146.040000
290.306976	145.620000
290.400146	145.700000
290.493256	145.440000
290.586395	145.700000
290.679535	145.880000
290.772644	145.920000
290.865784	145.000000
290.958893	145.260000
291.052032	145.240000
291.145172	145.000000
291.238281	144.640000
291.331421	145.060000
291.424561	145.620000
291.517670	145.100000
291.610809	145.580000
291.703949	145.680000
291.797089	146.260000
291.890228	145.780000
291.983337	146.260000
292.076477	145.520000
292.169617	146.000000
292.262756	145.660000
292.355927	145.480000
292.449036	145.400000
292.542206	145.920000
292.635315	146.040000
292.728485	146.360000
292.821625	145.980000
292.914764	146.760000
293.007904	146.660000
293.101044	146.360000
293.194183	146.060000
293.287323	146.460000
293.380463	145.900000
293.473602	145.820000
293.566742	146.100000
293.659882	146.580000
293.753021	146.980000
293.846191	146.760000
293.939331	146.360000
294.032471	146.080000
294.125610	145.600000
294.218781	145.740000
294.311920	146.220000
294.405060	146.820000
294.498230	146.700000
294.591370	146.580000
294.684540	145.960000
294.777679	145.520000
294.870850	145.600000
294.963959	145.800000
295.057159	145.980000
295.150299	146.320000
295.243469	146.300000
295.336609	145.660000
295.429779	145.500000
295.522919	146.140000
295.616089	145.940000
295.709229	146.480000
295.802399	146.820000
295.895569	146.540000
295.988708	145.720000
296.081879	146.240000
296.175018	145.380000
296.268188	145.280000
296.361359	146.020000
296.454529	146.480000
296.547668	146.160000
296.640839	146.900000
296.734009	146.960000
296.827179	146.960000
296.920319	147.120000
297.013519	146.880000
297.106659	146.960000
297.199860	147.040000
297.292999	146.780000
297.386200	146.340000
297.479309	146.320000
297.572510	146.040000
297.665680	145.560000
297.758850	145.560000
297.852020	145.440000
297.945190	145.320000
298.038361	145.000000
298.131531	146.100000
298.224701	145.720000
298.317871	145.680000
298.411072	145.600000
298.504242	145.460000
298.597412	144.680000
298.690582	145.260000
298.783752	145.080000
298.876923	145.520000
298.970093	145.660000
299.063293	146.020000
299.156464	146.460000
299.249634	146.940000
299.342834	146.960000
299.436005	147.460000
299.529205	147.100000
299.622345	146.800000
299.715576	146.320000
299.808716	146.100000
299.901917	146.000000
299.995117	146.480000
300.088287	146.360000
300.181488	146.160000
300.274658	145.960000
300.367828	145.740000
300.461029	145.600000
300.554199	145.940000
300.647400	146.100000
300.740601	146.820000
300.833771	146.840000
300.926971	146.840000
301.020142	145.960000
301.113342	146.120000
301.206512	145.660000
301.299713	145.580000
301.392914	145.560000
301.486084	146.160000
301.579285	146.000000
301.672516	146.480000
301.765686	146.580000
301.858887	146.380000
301.952057	146.120000
302.045288	146.400000
302.138458	145.900000
302.231659	145.700000
302.324860	145.880000
302.418060	145.940000
302.511261	145.560000
302.604462	145.920000
302.697662	145.880000
302.790863	145.640000
302.884064	145.200000
302.977264	145.360000
303.070465	145.400000
303.163666	145.880000
303.256866	146.360000
303.350067	146.700000
303.443268	146.840000
303.536469	146.760000
303.629669	146.340000
303.722870	146.040000
303.816071	145.720000
303.909271	145.900000
304.002472	145.240000
304.095673	145.100000
304.188934	144.740000
304.282104	145.480000
304.375336	145.200000
304.468506	145.540000
304.561768	145.460000
304.654968	145.940000
304.748169	145.500000
304.841370	145.180000
304.934601	145.340000
305.027802	145.160000
305.121002	144.680000
305.214233	144.600000
305.307434	145.060000
305.400665	145.600000
305.493866	145.800000
