Model Number: SPM-002-B   
Serial Number: 70087108
Firmware Version: 004.15.4
Exposure Time: 100000.000000us
Data Taken on: 11-12-2020 18:53:03.730
Wavelength	Amplitude
221.570786	0.000000
221.663406	0.000000
221.756027	0.000000
221.848648	0.000000
221.941269	0.000000
222.033905	0.000000
222.126526	0.000000
222.219162	0.000000
222.311798	0.000000
222.404419	0.000000
222.497055	0.000000
222.589676	0.000000
222.682312	0.000000
222.774933	0.000000
222.867569	0.000000
222.960205	0.000000
223.052841	0.000000
223.145462	0.000000
223.238098	0.000000
223.330734	0.000000
223.423386	0.000000
223.516022	0.000000
223.608658	0.000000
223.701309	0.000000
223.793945	0.000000
223.886581	0.000000
223.979218	0.000000
224.071869	0.000000
224.164505	0.000000
224.257156	0.000000
224.349792	0.000000
224.442444	0.000000
224.535095	0.000000
224.627747	0.000000
224.720398	0.000000
224.813034	0.000000
224.905685	0.000000
224.998337	145.740000
225.090988	145.140000
225.183640	144.920000
225.276291	144.660000
225.368942	144.960000
225.461594	145.620000
225.554245	145.920000
225.646912	146.180000
225.739578	146.820000
225.832230	147.500000
225.924896	146.580000
226.017548	147.040000
226.110199	147.420000
226.202866	146.660000
226.295532	146.420000
226.388184	146.440000
226.480850	145.880000
226.573517	145.580000
226.666168	145.880000
226.758835	145.920000
226.851501	146.680000
226.944183	146.980000
227.036850	146.280000
227.129517	146.220000
227.222183	146.140000
227.314850	145.820000
227.407516	146.120000
227.500198	147.160000
227.592865	146.840000
227.685532	146.440000
227.778214	146.380000
227.870880	146.300000
227.963562	146.500000
228.056229	147.020000
228.148926	147.260000
228.241592	147.940000
228.334274	147.480000
228.426956	147.140000
228.519638	147.200000
228.612305	146.980000
228.704987	146.680000
228.797668	146.760000
228.890350	146.320000
228.983032	145.460000
229.075714	146.280000
229.168396	146.280000
229.261108	146.060000
229.353790	146.420000
229.446472	146.820000
229.539169	146.400000
229.631851	146.060000
229.724533	146.400000
229.817230	146.600000
229.909912	147.640000
230.002609	147.540000
230.095306	147.420000
230.187988	147.480000
230.280685	147.080000
230.373383	145.800000
230.466095	145.640000
230.558792	146.160000
230.651474	145.980000
230.744171	145.960000
230.836868	146.160000
230.929581	146.580000
231.022278	146.420000
231.114975	146.160000
231.207672	146.100000
231.300369	146.680000
231.393082	146.440000
231.485779	146.260000
231.578506	146.580000
231.671204	146.760000
231.763916	146.360000
231.856613	146.500000
231.949326	146.640000
232.042023	146.420000
232.134735	146.420000
232.227448	146.060000
232.320160	146.100000
232.412872	146.120000
232.505585	146.980000
232.598297	147.120000
232.691010	147.340000
232.783722	147.020000
232.876450	147.440000
232.969162	146.700000
233.061874	146.360000
233.154587	146.020000
233.247314	146.480000
233.340027	146.140000
233.432739	146.640000
233.525467	146.620000
233.618179	147.160000
233.710907	146.680000
233.803635	146.680000
233.896347	146.220000
233.989090	146.640000
234.081818	146.600000
234.174545	146.880000
234.267258	146.520000
234.359985	147.000000
234.452713	146.680000
234.545441	146.560000
234.638168	146.320000
234.730896	146.740000
234.823639	146.260000
234.916367	146.640000
235.009094	146.460000
235.101822	146.480000
235.194580	146.480000
235.287308	146.560000
235.380051	146.100000
235.472778	146.500000
235.565521	146.780000
235.658249	146.240000
235.750992	146.200000
235.843719	146.400000
235.936462	146.580000
236.029205	146.320000
236.121948	146.200000
236.214691	146.560000
236.307449	147.080000
236.400192	146.640000
236.492935	146.140000
236.585678	146.620000
236.678421	146.660000
236.771164	146.080000
236.863907	146.620000
236.956665	147.300000
237.049408	148.760000
237.142151	148.140000
237.234909	148.820000
237.327652	148.520000
237.420410	147.980000
237.513153	146.840000
237.605927	146.880000
237.698669	146.200000
237.791428	145.540000
237.884186	146.040000
237.976944	145.480000
238.069702	146.020000
238.162445	145.900000
238.255203	146.380000
238.347961	146.600000
238.440720	146.740000
238.533478	146.280000
238.626266	146.080000
238.719025	146.500000
238.811783	146.320000
238.904541	146.180000
238.997314	145.960000
239.090073	145.820000
239.182831	145.740000
239.275604	146.180000
239.368362	146.000000
239.461136	146.460000
239.553909	146.440000
239.646667	146.200000
239.739441	145.720000
239.832214	146.000000
239.925003	145.940000
240.017761	146.760000
240.110535	147.220000
240.203308	146.720000
240.296082	146.840000
240.388855	146.460000
240.481628	146.500000
240.574417	145.960000
240.667191	146.180000
240.759964	145.780000
240.852737	146.320000
240.945526	145.440000
241.038315	145.580000
241.131088	145.940000
241.223877	146.420000
241.316650	145.660000
241.409439	146.320000
241.502228	146.020000
241.595001	146.260000
241.687790	146.080000
241.780579	146.380000
241.873367	146.420000
241.966141	146.780000
242.058929	146.300000
242.151718	146.540000
242.244507	147.220000
242.337311	146.520000
242.430099	146.780000
242.522903	147.200000
242.615692	146.580000
242.708481	146.260000
242.801270	147.220000
242.894073	147.060000
242.986862	146.960000
243.079651	147.820000
243.172455	147.560000
243.265244	147.120000
243.358063	146.580000
243.450867	146.420000
243.543655	145.980000
243.636459	145.980000
243.729263	146.360000
243.822067	146.740000
243.914856	147.320000
244.007660	147.440000
244.100464	147.520000
244.193268	147.080000
244.286072	146.860000
244.378876	146.080000
244.471680	145.740000
244.564499	145.960000
244.657318	146.660000
244.750122	147.060000
244.842926	146.640000
244.935745	147.080000
245.028549	146.760000
245.121368	146.160000
245.214172	146.160000
245.306992	147.040000
245.399796	146.640000
245.492615	146.920000
245.585434	146.840000
245.678253	146.700000
245.771072	146.480000
245.863892	146.980000
245.956711	147.040000
246.049530	146.780000
246.142349	146.480000
246.235168	146.700000
246.327988	147.000000
246.420807	146.740000
246.513626	146.960000
246.606445	146.820000
246.699280	146.520000
246.792099	145.920000
246.884918	145.700000
246.977753	145.580000
247.070587	146.020000
247.163422	146.200000
247.256241	146.340000
247.349075	146.320000
247.441895	146.380000
247.534729	146.180000
247.627563	145.620000
247.720383	146.200000
247.813217	146.440000
247.906052	146.440000
247.998886	146.680000
248.091736	147.180000
248.184570	146.660000
248.277405	146.800000
248.370239	147.720000
248.463074	148.380000
248.555908	148.400000
248.648743	148.180000
248.741592	148.360000
248.834427	147.500000
248.927261	146.220000
249.020111	146.700000
249.112946	147.260000
249.205795	146.540000
249.298630	146.480000
249.391495	146.660000
249.484344	145.940000
249.577179	145.780000
249.670029	146.400000
249.762878	146.840000
249.855728	147.220000
249.948563	147.280000
250.041412	146.820000
250.134262	146.840000
250.227112	146.940000
250.319962	146.920000
250.412827	146.960000
250.505692	146.800000
250.598541	146.580000
250.691391	146.180000
250.784241	146.220000
250.877106	146.480000
250.969955	146.120000
251.062805	146.620000
251.155670	147.020000
251.248520	146.580000
251.341385	146.740000
251.434235	147.040000
251.527100	146.660000
251.619965	146.220000
251.712814	147.200000
251.805695	146.740000
251.898560	146.760000
251.991425	146.900000
252.084290	147.260000
252.177155	146.300000
252.270020	146.200000
252.362885	146.360000
252.455750	146.340000
252.548615	145.920000
252.641479	146.140000
252.734360	146.160000
252.827240	145.960000
252.920105	145.780000
253.012970	145.840000
253.105850	145.680000
253.198715	145.220000
253.291595	145.520000
253.384460	145.400000
253.477341	145.140000
253.570221	145.680000
253.663086	145.920000
253.755966	146.520000
253.848846	146.380000
253.941727	146.880000
254.034592	146.520000
254.127472	146.120000
254.220367	145.780000
254.313248	146.260000
254.406128	145.840000
254.499008	145.920000
254.591904	147.060000
254.684784	147.440000
254.777664	147.340000
254.870544	147.140000
254.963440	147.380000
255.056335	147.020000
255.149216	146.480000
255.242111	147.040000
255.334991	147.600000
255.427887	147.280000
255.520767	147.540000
255.613663	147.760000
255.706558	146.920000
255.799438	146.600000
255.892334	146.500000
255.985229	146.020000
256.078125	145.860000
256.171021	145.900000
256.263916	146.440000
256.356812	146.540000
256.449707	146.940000
256.542603	146.740000
256.635498	147.600000
256.728394	147.240000
256.821289	147.100000
256.914215	147.140000
257.007080	147.560000
257.100006	146.920000
257.192932	147.520000
257.285828	147.560000
257.378723	147.140000
257.471619	146.540000
257.564545	146.160000
257.657440	145.980000
257.750336	146.780000
257.843262	146.520000
257.936157	147.800000
258.029053	148.360000
258.121979	148.020000
258.214874	147.460000
258.307800	147.560000
258.400696	146.100000
258.493622	145.840000
258.586517	145.180000
258.679443	145.480000
258.772339	145.280000
258.865265	145.540000
258.958160	145.060000
259.051086	146.020000
259.144012	145.860000
259.236938	146.960000
259.329834	147.080000
259.422791	147.320000
259.515717	146.820000
259.608612	146.240000
259.701538	145.880000
259.794464	145.700000
259.887390	145.740000
259.980316	145.200000
260.073212	145.020000
260.166138	144.140000
260.259064	144.620000
260.351990	145.120000
260.444916	145.320000
260.537842	146.100000
260.630768	147.160000
260.723694	146.900000
260.816620	146.580000
260.909546	146.780000
261.002472	146.120000
261.095398	145.320000
261.188354	145.620000
261.281281	145.280000
261.374207	145.600000
261.467133	146.520000
261.560089	146.660000
261.653015	146.000000
261.745972	146.840000
261.838867	146.940000
261.931824	147.040000
262.024780	146.700000
262.117706	147.300000
262.210663	147.060000
262.303589	146.860000
262.396515	146.460000
262.489471	147.520000
262.582397	147.040000
262.675354	146.380000
262.768280	146.280000
262.861237	146.340000
262.954163	145.760000
263.047119	145.720000
263.140045	145.900000
263.233002	145.900000
263.325958	145.520000
263.418884	144.840000
263.511841	145.360000
263.604797	145.500000
263.697723	145.680000
263.790680	145.440000
263.883636	146.460000
263.976593	146.020000
264.069550	145.920000
264.162476	145.460000
264.255463	145.880000
264.348419	145.240000
264.441376	145.500000
264.534332	145.140000
264.627289	145.360000
264.720245	145.620000
264.813202	145.380000
264.906158	145.480000
264.999115	146.160000
265.092072	146.480000
265.185028	146.540000
265.277985	147.020000
265.370941	146.720000
265.463898	146.320000
265.556854	145.680000
265.649811	145.000000
265.742798	144.840000
265.835754	145.000000
265.928711	145.660000
266.021667	146.260000
266.114655	146.300000
266.207611	146.800000
266.300568	146.120000
266.393585	145.480000
266.486511	145.340000
266.579498	145.100000
266.672485	144.980000
266.765442	145.200000
266.858429	145.560000
266.951385	145.320000
267.044342	145.580000
267.137329	145.200000
267.230316	145.800000
267.323273	145.380000
267.416260	146.140000
267.509216	145.860000
267.602203	146.080000
267.695160	146.340000
267.788147	146.520000
267.881134	145.900000
267.974091	146.480000
268.067078	146.440000
268.160065	145.820000
268.253052	145.820000
268.346008	145.860000
268.438995	145.440000
268.531982	145.480000
268.624969	145.400000
268.717987	145.680000
268.810944	145.480000
268.903961	145.900000
268.996948	145.580000
269.089905	146.000000
269.182892	146.000000
269.275879	146.300000
269.368866	145.700000
269.461853	145.940000
269.554871	145.660000
269.647858	145.340000
269.740845	145.700000
269.833832	146.360000
269.926819	146.220000
270.019806	146.540000
270.112793	146.280000
270.205811	146.460000
270.298798	146.460000
270.391785	146.880000
270.484772	146.500000
270.577789	147.000000
270.670776	146.120000
270.763763	145.740000
270.856750	145.680000
270.949768	145.720000
271.042786	145.680000
271.135773	145.900000
271.228790	146.260000
271.321808	145.940000
271.414795	145.640000
271.507782	145.480000
271.600800	145.260000
271.693817	145.060000
271.786804	145.680000
271.879822	146.140000
271.972809	145.980000
272.065826	146.660000
272.158844	146.180000
272.251831	146.280000
272.344849	146.380000
272.437866	146.200000
272.530853	145.800000
272.623871	146.340000
272.716888	145.320000
272.809906	145.180000
272.902893	145.280000
272.995911	144.920000
273.088928	144.740000
273.181946	145.260000
273.274963	145.040000
273.367981	144.980000
273.460999	145.420000
273.554047	145.860000
273.647003	146.540000
273.740051	146.660000
273.833069	147.160000
273.926086	147.340000
274.019135	146.920000
274.112152	146.000000
274.205170	145.960000
274.298187	146.060000
274.391205	145.200000
274.484222	145.620000
274.577240	145.820000
274.670258	145.820000
274.763306	145.640000
274.856323	146.220000
274.949341	146.220000
275.042358	146.680000
275.135406	146.660000
275.228424	146.640000
275.321442	146.760000
275.414490	146.240000
275.507507	146.100000
275.600525	146.620000
275.693573	146.440000
275.786591	146.120000
275.879669	146.520000
275.972656	146.320000
276.065735	145.580000
276.158752	146.000000
276.251801	146.780000
276.344818	146.580000
276.437866	146.460000
276.530884	146.580000
276.623932	145.820000
276.716980	145.840000
276.809998	145.900000
276.903046	145.840000
276.996094	146.800000
277.089111	147.480000
277.182159	147.660000
277.275208	147.600000
277.368256	147.560000
277.461304	146.880000
277.554321	146.340000
277.647369	146.060000
277.740417	146.040000
277.833466	146.200000
277.926514	146.380000
278.019562	147.040000
278.112610	146.560000
278.205688	146.600000
278.298706	146.460000
278.391785	145.780000
278.484833	145.340000
278.577881	145.120000
278.670929	145.340000
278.763977	145.700000
278.857025	146.480000
278.950073	146.260000
279.043121	146.180000
279.136169	145.880000
279.229248	145.320000
279.322296	145.120000
279.415344	145.120000
279.508392	145.200000
279.601440	145.260000
279.694519	145.360000
279.787567	145.180000
279.880615	145.180000
279.973694	145.180000
280.066742	145.220000
280.159790	145.420000
280.252869	145.240000
280.345917	145.600000
280.438995	145.800000
280.532074	145.900000
280.625122	146.240000
280.718201	147.000000
280.811279	147.100000
280.904327	147.060000
280.997406	147.100000
281.090454	146.540000
281.183533	145.980000
281.276581	145.560000
281.369659	145.300000
281.462738	145.320000
281.555786	145.780000
281.648865	145.620000
281.741943	145.420000
281.835022	146.100000
281.928070	145.700000
282.021149	145.560000
282.114227	145.480000
282.207306	145.940000
282.300385	146.100000
282.393433	146.460000
282.486511	146.400000
282.579590	147.020000
282.672668	147.340000
282.765747	146.720000
282.858856	146.640000
282.951904	146.760000
283.045013	146.900000
283.138062	146.760000
283.231171	146.920000
283.324249	147.060000
283.417328	147.020000
283.510406	146.560000
283.603485	146.280000
283.696564	146.220000
283.789642	146.480000
283.882751	146.520000
283.975830	147.140000
284.068909	146.980000
284.161987	147.460000
284.255066	146.820000
284.348175	147.040000
284.441254	146.700000
284.534332	147.320000
284.627441	146.720000
284.720520	146.520000
284.813599	146.160000
284.906708	146.080000
284.999786	145.000000
285.092896	144.780000
285.185974	145.900000
285.279053	145.520000
285.372192	145.460000
285.465240	146.540000
285.558380	146.820000
285.651459	146.140000
285.744568	147.120000
285.837677	146.620000
285.930756	146.200000
286.023865	146.280000
286.116943	146.020000
286.210052	145.720000
286.303162	146.180000
286.396240	146.120000
286.489349	145.800000
286.582458	146.020000
286.675568	145.640000
286.768646	145.540000
286.861755	145.780000
286.954865	146.720000
287.047974	146.640000
287.141083	146.480000
287.234161	146.260000
287.327271	146.260000
287.420380	146.200000
287.513519	145.820000
287.606598	146.100000
287.699738	146.580000
287.792816	146.440000
287.885956	146.040000
287.979034	146.340000
288.072174	146.080000
288.165283	145.820000
288.258392	146.140000
288.351501	145.720000
288.444611	145.960000
288.537720	146.780000
288.630859	146.500000
288.723969	146.240000
288.817078	146.780000
288.910187	146.480000
289.003296	145.760000
289.096436	145.760000
289.189545	145.640000
289.282654	145.260000
289.375763	145.820000
289.468903	146.260000
289.562012	146.660000
289.655121	147.000000
289.748260	147.040000
289.841400	147.140000
289.934509	146.960000
290.027649	146.700000
290.120728	146.400000
290.213898	146.460000
290.306976	146.080000
290.400146	146.120000
290.493256	145.840000
290.586395	146.020000
290.679535	146.200000
290.772644	146.020000
290.865784	145.500000
290.958893	145.740000
291.052032	145.360000
291.145172	145.160000
291.238281	145.140000
291.331421	145.380000
291.424561	145.920000
291.517670	145.840000
291.610809	146.080000
291.703949	145.820000
291.797089	146.000000
291.890228	145.400000
291.983337	145.420000
292.076477	145.480000
292.169617	146.020000
292.262756	146.100000
292.355927	146.360000
292.449036	146.440000
292.542206	146.160000
292.635315	146.240000
292.728485	146.140000
292.821625	145.700000
292.914764	146.320000
293.007904	146.240000
293.101044	145.760000
293.194183	145.660000
293.287323	146.100000
293.380463	145.720000
293.473602	145.740000
293.566742	146.160000
293.659882	146.880000
293.753021	146.980000
293.846191	146.900000
293.939331	146.580000
294.032471	146.540000
294.125610	145.760000
294.218781	146.040000
294.311920	146.560000
294.405060	146.840000
294.498230	147.060000
294.591370	147.240000
294.684540	146.480000
294.777679	145.920000
294.870850	146.160000
294.963959	145.620000
295.057159	145.260000
295.150299	145.840000
295.243469	146.020000
295.336609	145.680000
295.429779	145.620000
295.522919	146.160000
295.616089	145.800000
295.709229	146.140000
295.802399	146.480000
295.895569	146.020000
295.988708	145.780000
296.081879	146.040000
296.175018	145.420000
296.268188	145.080000
296.361359	146.020000
296.454529	146.260000
296.547668	146.080000
296.640839	146.440000
296.734009	146.400000
296.827179	146.640000
296.920319	146.700000
297.013519	146.480000
297.106659	146.400000
297.199860	146.420000
297.292999	146.160000
297.386200	146.020000
297.479309	146.200000
297.572510	146.280000
297.665680	146.420000
297.758850	146.300000
297.852020	145.880000
297.945190	145.480000
298.038361	145.020000
298.131531	145.720000
298.224701	145.660000
298.317871	145.740000
298.411072	145.620000
298.504242	145.860000
298.597412	145.140000
298.690582	145.400000
298.783752	145.360000
298.876923	146.020000
298.970093	145.660000
299.063293	145.920000
299.156464	146.040000
299.249634	146.320000
299.342834	146.240000
299.436005	146.580000
299.529205	146.400000
299.622345	146.080000
299.715576	145.520000
299.808716	145.320000
299.901917	145.680000
299.995117	146.020000
300.088287	146.340000
300.181488	146.460000
300.274658	146.600000
300.367828	146.240000
300.461029	146.140000
300.554199	146.340000
300.647400	146.560000
300.740601	147.280000
300.833771	147.260000
300.926971	147.400000
301.020142	146.580000
301.113342	146.400000
301.206512	145.600000
301.299713	145.940000
301.392914	145.540000
301.486084	146.040000
301.579285	146.100000
301.672516	146.700000
301.765686	146.180000
301.858887	146.200000
301.952057	146.220000
302.045288	146.260000
302.138458	145.780000
302.231659	145.840000
302.324860	145.660000
302.418060	145.320000
302.511261	145.440000
302.604462	145.680000
302.697662	145.540000
302.790863	145.820000
302.884064	145.720000
302.977264	145.620000
303.070465	145.820000
303.163666	146.900000
303.256866	146.860000
303.350067	147.360000
303.443268	147.360000
303.536469	147.460000
303.629669	146.360000
303.722870	146.720000
303.816071	146.100000
303.909271	146.320000
304.002472	145.560000
304.095673	145.660000
304.188934	144.720000
304.282104	145.780000
304.375336	145.680000
304.468506	145.720000
304.561768	145.700000
304.654968	146.360000
304.748169	145.540000
304.841370	145.340000
304.934601	146.020000
305.027802	145.800000
305.121002	145.520000
305.214233	145.520000
305.307434	145.800000
305.400665	146.000000
305.493866	146.260000
