Model Number: SPM-002-B   
Serial Number: 70087108
Firmware Version: 004.15.4
Exposure Time: 100000.000000us
Data Taken on: 11-12-2020 18:53:34.841
Wavelength	Amplitude
221.570786	0.000000
221.663406	0.000000
221.756027	0.000000
221.848648	0.000000
221.941269	0.000000
222.033905	0.000000
222.126526	0.000000
222.219162	0.000000
222.311798	0.000000
222.404419	0.000000
222.497055	0.000000
222.589676	0.000000
222.682312	0.000000
222.774933	0.000000
222.867569	0.000000
222.960205	0.000000
223.052841	0.000000
223.145462	0.000000
223.238098	0.000000
223.330734	0.000000
223.423386	0.000000
223.516022	0.000000
223.608658	0.000000
223.701309	0.000000
223.793945	0.000000
223.886581	0.000000
223.979218	0.000000
224.071869	0.000000
224.164505	0.000000
224.257156	0.000000
224.349792	0.000000
224.442444	0.000000
224.535095	0.000000
224.627747	0.000000
224.720398	0.000000
224.813034	0.000000
224.905685	0.000000
224.998337	146.240000
225.090988	146.060000
225.183640	145.980000
225.276291	145.820000
225.368942	146.100000
225.461594	146.540000
225.554245	146.840000
225.646912	146.640000
225.739578	147.380000
225.832230	147.580000
225.924896	146.760000
226.017548	147.100000
226.110199	147.800000
226.202866	146.800000
226.295532	146.760000
226.388184	146.920000
226.480850	146.000000
226.573517	145.360000
226.666168	145.980000
226.758835	146.060000
226.851501	146.720000
226.944183	147.020000
227.036850	146.560000
227.129517	146.500000
227.222183	146.620000
227.314850	146.680000
227.407516	146.760000
227.500198	147.880000
227.592865	147.600000
227.685532	147.080000
227.778214	146.660000
227.870880	147.060000
227.963562	147.040000
228.056229	147.320000
228.148926	147.440000
228.241592	147.980000
228.334274	147.460000
228.426956	147.300000
228.519638	147.460000
228.612305	147.180000
228.704987	147.120000
228.797668	147.180000
228.890350	146.880000
228.983032	146.120000
229.075714	146.820000
229.168396	146.440000
229.261108	146.060000
229.353790	146.080000
229.446472	146.480000
229.539169	146.340000
229.631851	145.960000
229.724533	146.240000
229.817230	146.340000
229.909912	147.480000
230.002609	147.320000
230.095306	147.380000
230.187988	147.420000
230.280685	147.200000
230.373383	145.900000
230.466095	145.580000
230.558792	145.900000
230.651474	145.840000
230.744171	145.820000
230.836868	145.920000
230.929581	146.260000
231.022278	146.240000
231.114975	146.300000
231.207672	146.240000
231.300369	146.720000
231.393082	146.880000
231.485779	146.740000
231.578506	146.600000
231.671204	146.920000
231.763916	146.860000
231.856613	146.540000
231.949326	146.860000
232.042023	146.560000
232.134735	146.260000
232.227448	145.660000
232.320160	146.120000
232.412872	145.760000
232.505585	147.100000
232.598297	147.560000
232.691010	147.840000
232.783722	147.400000
232.876450	147.820000
232.969162	147.000000
233.061874	146.420000
233.154587	146.060000
233.247314	146.500000
233.340027	145.880000
233.432739	146.220000
233.525467	146.380000
233.618179	146.720000
233.710907	146.260000
233.803635	147.020000
233.896347	146.760000
233.989090	147.400000
234.081818	147.200000
234.174545	147.480000
234.267258	146.760000
234.359985	147.020000
234.452713	146.800000
234.545441	146.640000
234.638168	146.280000
234.730896	147.080000
234.823639	146.620000
234.916367	146.740000
235.009094	146.980000
235.101822	147.060000
235.194580	146.600000
235.287308	146.860000
235.380051	146.200000
235.472778	146.800000
235.565521	147.060000
235.658249	146.920000
235.750992	146.580000
235.843719	146.780000
235.936462	146.400000
236.029205	146.040000
236.121948	145.960000
236.214691	146.500000
236.307449	147.060000
236.400192	146.860000
236.492935	146.760000
236.585678	146.940000
236.678421	146.700000
236.771164	146.460000
236.863907	147.120000
236.956665	147.340000
237.049408	148.940000
237.142151	148.700000
237.234909	149.220000
237.327652	148.760000
237.420410	148.660000
237.513153	147.420000
237.605927	147.540000
237.698669	147.040000
237.791428	146.540000
237.884186	146.980000
237.976944	146.380000
238.069702	146.460000
238.162445	145.920000
238.255203	146.080000
238.347961	146.380000
238.440720	146.580000
238.533478	146.400000
238.626266	146.300000
238.719025	146.700000
238.811783	146.240000
238.904541	146.220000
238.997314	146.240000
239.090073	146.300000
239.182831	146.580000
239.275604	147.360000
239.368362	147.260000
239.461136	147.640000
239.553909	147.600000
239.646667	147.140000
239.739441	146.580000
239.832214	146.960000
239.925003	146.840000
240.017761	147.680000
240.110535	148.100000
240.203308	147.500000
240.296082	147.340000
240.388855	147.160000
240.481628	147.020000
240.574417	147.100000
240.667191	147.460000
240.759964	147.100000
240.852737	147.000000
240.945526	146.620000
241.038315	146.220000
241.131088	146.300000
241.223877	146.640000
241.316650	146.500000
241.409439	146.840000
241.502228	146.300000
241.595001	146.820000
241.687790	146.620000
241.780579	146.940000
241.873367	146.820000
241.966141	147.540000
242.058929	146.700000
242.151718	147.100000
242.244507	147.300000
242.337311	146.720000
242.430099	147.240000
242.522903	147.740000
242.615692	147.120000
242.708481	147.000000
242.801270	147.600000
242.894073	147.000000
242.986862	146.880000
243.079651	147.820000
243.172455	147.500000
243.265244	147.780000
243.358063	147.180000
243.450867	147.400000
243.543655	147.160000
243.636459	147.200000
243.729263	147.080000
243.822067	147.780000
243.914856	148.040000
244.007660	147.840000
244.100464	147.800000
244.193268	147.320000
244.286072	147.040000
244.378876	146.540000
244.471680	146.200000
244.564499	146.580000
244.657318	147.640000
244.750122	147.960000
244.842926	147.360000
244.935745	147.980000
245.028549	147.760000
245.121368	146.980000
245.214172	146.660000
245.306992	147.380000
245.399796	147.020000
245.492615	147.180000
245.585434	147.080000
245.678253	147.320000
245.771072	147.080000
245.863892	147.320000
245.956711	147.420000
246.049530	147.140000
246.142349	146.920000
246.235168	147.240000
246.327988	147.560000
246.420807	147.180000
246.513626	147.460000
246.606445	147.220000
246.699280	146.880000
246.792099	146.640000
246.884918	146.540000
246.977753	146.300000
247.070587	146.740000
247.163422	146.840000
247.256241	146.720000
247.349075	147.000000
247.441895	147.080000
247.534729	146.820000
247.627563	146.520000
247.720383	147.000000
247.813217	146.700000
247.906052	146.440000
247.998886	146.740000
248.091736	146.900000
248.184570	146.320000
248.277405	146.460000
248.370239	147.660000
248.463074	148.220000
248.555908	148.460000
248.648743	148.420000
248.741592	148.460000
248.834427	147.400000
248.927261	146.380000
249.020111	146.780000
249.112946	147.380000
249.205795	147.140000
249.298630	147.620000
249.391495	147.760000
249.484344	147.300000
249.577179	147.040000
249.670029	147.560000
249.762878	148.020000
249.855728	148.340000
249.948563	148.040000
250.041412	147.500000
250.134262	147.380000
250.227112	147.040000
250.319962	146.900000
250.412827	147.080000
250.505692	147.060000
250.598541	146.740000
250.691391	146.560000
250.784241	146.580000
250.877106	146.620000
250.969955	146.440000
251.062805	147.160000
251.155670	147.440000
251.248520	147.220000
251.341385	147.600000
251.434235	147.880000
251.527100	147.480000
251.619965	147.040000
251.712814	147.760000
251.805695	147.620000
251.898560	147.560000
251.991425	147.760000
252.084290	147.840000
252.177155	147.040000
252.270020	146.780000
252.362885	147.040000
252.455750	146.660000
252.548615	146.520000
252.641479	146.420000
252.734360	146.400000
252.827240	146.000000
252.920105	146.540000
253.012970	146.480000
253.105850	146.740000
253.198715	146.420000
253.291595	146.800000
253.384460	146.300000
253.477341	146.220000
253.570221	146.460000
253.663086	146.500000
253.755966	147.060000
253.848846	147.160000
253.941727	147.580000
254.034592	147.480000
254.127472	147.140000
254.220367	146.860000
254.313248	147.140000
254.406128	146.820000
254.499008	147.020000
254.591904	147.960000
254.684784	148.340000
254.777664	148.140000
254.870544	147.640000
254.963440	147.220000
255.056335	147.020000
255.149216	146.420000
255.242111	146.700000
255.334991	147.380000
255.427887	147.540000
255.520767	147.780000
255.613663	147.960000
255.706558	147.660000
255.799438	147.480000
255.892334	147.280000
255.985229	147.080000
256.078125	146.740000
256.171021	146.740000
256.263916	147.140000
256.356812	147.580000
256.449707	147.580000
256.542603	147.580000
256.635498	148.180000
256.728394	147.500000
256.821289	147.100000
256.914215	147.240000
257.007080	147.500000
257.100006	147.200000
257.192932	147.920000
257.285828	147.960000
257.378723	147.540000
257.471619	147.400000
257.564545	147.140000
257.657440	147.060000
257.750336	147.640000
257.843262	147.700000
257.936157	148.920000
258.029053	149.000000
258.121979	148.960000
258.214874	148.500000
258.307800	148.480000
258.400696	147.160000
258.493622	147.320000
258.586517	146.720000
258.679443	147.020000
258.772339	146.460000
258.865265	146.580000
258.958160	145.760000
259.051086	146.600000
259.144012	146.220000
259.236938	147.340000
259.329834	147.240000
259.422791	147.460000
259.515717	146.620000
259.608612	146.400000
259.701538	146.100000
259.794464	146.000000
259.887390	145.860000
259.980316	146.280000
260.073212	146.100000
260.166138	145.340000
260.259064	145.920000
260.351990	146.820000
260.444916	146.640000
260.537842	147.320000
260.630768	148.020000
260.723694	147.380000
260.816620	146.920000
260.909546	147.060000
261.002472	146.560000
261.095398	146.280000
261.188354	146.460000
261.281281	145.920000
261.374207	146.060000
261.467133	146.700000
261.560089	146.900000
261.653015	146.920000
261.745972	148.120000
261.838867	148.180000
261.931824	148.480000
262.024780	147.900000
262.117706	148.120000
262.210663	148.220000
262.303589	147.880000
262.396515	147.620000
262.489471	148.880000
262.582397	148.540000
262.675354	147.640000
262.768280	147.900000
262.861237	147.880000
262.954163	147.320000
263.047119	147.560000
263.140045	147.240000
263.233002	147.100000
263.325958	146.780000
263.418884	146.340000
263.511841	146.300000
263.604797	146.780000
263.697723	146.740000
263.790680	146.820000
263.883636	147.360000
263.976593	147.060000
264.069550	146.820000
264.162476	146.840000
264.255463	146.740000
264.348419	146.320000
264.441376	146.860000
264.534332	146.660000
264.627289	146.720000
264.720245	147.320000
264.813202	147.120000
264.906158	147.080000
264.999115	147.940000
265.092072	147.760000
265.185028	147.880000
265.277985	148.420000
265.370941	148.000000
265.463898	147.340000
265.556854	147.400000
265.649811	146.720000
265.742798	146.560000
265.835754	146.900000
265.928711	147.360000
266.021667	147.080000
266.114655	147.420000
266.207611	147.860000
266.300568	147.060000
266.393585	146.500000
266.486511	146.980000
266.579498	146.080000
266.672485	145.620000
266.765442	146.140000
266.858429	146.940000
266.951385	146.520000
267.044342	146.820000
267.137329	146.720000
267.230316	147.000000
267.323273	146.020000
267.416260	147.000000
267.509216	146.860000
267.602203	147.020000
267.695160	147.440000
267.788147	148.120000
267.881134	147.360000
267.974091	147.860000
268.067078	147.800000
268.160065	147.100000
268.253052	146.720000
268.346008	146.640000
268.438995	146.460000
268.531982	146.480000
268.624969	146.360000
268.717987	146.660000
268.810944	146.760000
268.903961	146.780000
268.996948	146.700000
269.089905	147.380000
269.182892	147.500000
269.275879	147.760000
269.368866	147.200000
269.461853	147.360000
269.554871	146.940000
269.647858	146.880000
269.740845	147.360000
269.833832	148.120000
269.926819	147.740000
270.019806	148.220000
270.112793	147.700000
270.205811	147.460000
270.298798	147.060000
270.391785	147.500000
270.484772	146.820000
270.577789	147.020000
270.670776	146.440000
270.763763	146.360000
270.856750	146.440000
270.949768	146.120000
271.042786	146.480000
271.135773	146.540000
271.228790	146.880000
271.321808	146.320000
271.414795	146.480000
271.507782	145.960000
271.600800	145.660000
271.693817	145.700000
271.786804	146.420000
271.879822	146.700000
271.972809	146.680000
272.065826	147.560000
272.158844	147.160000
272.251831	147.280000
272.344849	147.300000
272.437866	147.080000
272.530853	146.640000
272.623871	147.120000
272.716888	146.060000
272.809906	146.440000
272.902893	146.860000
272.995911	146.500000
273.088928	146.460000
273.181946	147.000000
273.274963	146.320000
273.367981	146.140000
273.460999	146.560000
273.554047	146.760000
273.647003	147.520000
273.740051	147.480000
273.833069	147.720000
273.926086	147.620000
274.019135	147.220000
274.112152	146.460000
274.205170	146.780000
274.298187	147.040000
274.391205	146.860000
274.484222	146.880000
274.577240	146.760000
274.670258	146.640000
274.763306	146.520000
274.856323	146.880000
274.949341	147.160000
275.042358	147.840000
275.135406	147.720000
275.228424	147.580000
275.321442	147.440000
275.414490	146.800000
275.507507	146.720000
275.600525	147.260000
275.693573	147.120000
275.786591	146.720000
275.879669	146.900000
275.972656	146.300000
276.065735	145.820000
276.158752	146.360000
276.251801	147.260000
276.344818	147.360000
276.437866	147.240000
276.530884	147.040000
276.623932	146.100000
276.716980	145.980000
276.809998	146.320000
276.903046	146.640000
276.996094	147.660000
277.089111	148.320000
277.182159	148.540000
277.275208	147.940000
277.368256	148.140000
277.461304	147.760000
277.554321	147.100000
277.647369	146.800000
277.740417	147.100000
277.833466	146.940000
277.926514	146.720000
278.019562	147.680000
278.112610	147.260000
278.205688	147.540000
278.298706	147.780000
278.391785	147.480000
278.484833	146.880000
278.577881	146.800000
278.670929	147.040000
278.763977	146.780000
278.857025	147.440000
278.950073	147.380000
279.043121	147.240000
279.136169	146.920000
279.229248	146.840000
279.322296	146.640000
279.415344	146.700000
279.508392	146.620000
279.601440	146.520000
279.694519	146.520000
279.787567	145.900000
279.880615	145.780000
279.973694	146.080000
280.066742	146.260000
280.159790	146.240000
280.252869	146.480000
280.345917	146.660000
280.438995	146.680000
280.532074	146.460000
280.625122	146.980000
280.718201	147.820000
280.811279	147.900000
280.904327	147.760000
280.997406	147.880000
281.090454	147.420000
281.183533	146.780000
281.276581	146.800000
281.369659	146.740000
281.462738	146.880000
281.555786	147.040000
281.648865	147.040000
281.741943	146.980000
281.835022	147.740000
281.928070	147.520000
282.021149	147.300000
282.114227	147.220000
282.207306	147.160000
282.300385	147.120000
282.393433	147.280000
282.486511	147.540000
282.579590	148.160000
282.672668	148.520000
282.765747	148.060000
282.858856	147.540000
282.951904	147.140000
283.045013	146.840000
283.138062	146.940000
283.231171	147.280000
283.324249	148.060000
283.417328	148.520000
283.510406	148.280000
283.603485	147.860000
283.696564	147.520000
283.789642	147.140000
283.882751	146.600000
283.975830	147.240000
284.068909	147.020000
284.161987	147.660000
284.255066	147.300000
284.348175	147.780000
284.441254	147.540000
284.534332	147.980000
284.627441	147.140000
284.720520	146.980000
284.813599	146.740000
284.906708	146.460000
284.999786	146.020000
285.092896	146.020000
285.185974	147.200000
285.279053	146.760000
285.372192	147.120000
285.465240	147.800000
285.558380	147.660000
285.651459	146.980000
285.744568	147.920000
285.837677	147.140000
285.930756	146.900000
286.023865	147.140000
286.116943	147.060000
286.210052	146.920000
286.303162	146.940000
286.396240	147.000000
286.489349	146.920000
286.582458	147.120000
286.675568	146.680000
286.768646	146.960000
286.861755	146.860000
286.954865	147.780000
287.047974	147.340000
287.141083	147.240000
287.234161	147.020000
287.327271	146.740000
287.420380	146.560000
287.513519	146.540000
287.606598	146.820000
287.699738	147.160000
287.792816	147.280000
287.885956	147.000000
287.979034	147.220000
288.072174	147.300000
288.165283	147.160000
288.258392	147.360000
288.351501	146.740000
288.444611	146.720000
288.537720	146.900000
288.630859	146.800000
288.723969	146.940000
288.817078	147.440000
288.910187	147.380000
289.003296	146.920000
289.096436	146.840000
289.189545	146.900000
289.282654	146.700000
289.375763	147.120000
289.468903	147.320000
289.562012	147.780000
289.655121	147.320000
289.748260	147.140000
289.841400	147.360000
289.934509	147.260000
290.027649	147.040000
290.120728	147.140000
290.213898	147.260000
290.306976	146.700000
290.400146	147.020000
290.493256	146.540000
290.586395	146.780000
290.679535	147.140000
290.772644	147.140000
290.865784	146.440000
290.958893	146.760000
291.052032	146.240000
291.145172	145.880000
291.238281	145.820000
291.331421	145.980000
291.424561	146.680000
291.517670	146.820000
291.610809	147.000000
291.703949	146.900000
291.797089	147.300000
291.890228	146.740000
291.983337	146.820000
292.076477	146.800000
292.169617	147.040000
292.262756	146.680000
292.355927	146.340000
292.449036	146.320000
292.542206	146.260000
292.635315	146.700000
292.728485	147.300000
292.821625	147.220000
292.914764	148.320000
293.007904	148.240000
293.101044	147.760000
293.194183	147.320000
293.287323	147.620000
293.380463	146.500000
293.473602	146.480000
293.566742	146.800000
293.659882	147.420000
293.753021	147.680000
293.846191	147.780000
293.939331	147.720000
294.032471	147.320000
294.125610	146.700000
294.218781	146.840000
294.311920	147.220000
294.405060	147.580000
294.498230	147.900000
294.591370	148.020000
294.684540	147.360000
294.777679	147.020000
294.870850	147.200000
294.963959	146.920000
295.057159	147.000000
295.150299	147.400000
295.243469	147.220000
295.336609	146.300000
295.429779	146.380000
295.522919	146.620000
295.616089	146.580000
295.709229	147.440000
295.802399	147.780000
295.895569	147.540000
295.988708	147.160000
296.081879	147.160000
296.175018	146.200000
296.268188	146.280000
296.361359	146.760000
296.454529	146.800000
296.547668	146.700000
296.640839	147.080000
296.734009	146.900000
296.827179	147.220000
296.920319	147.380000
297.013519	147.280000
297.106659	147.280000
297.199860	147.540000
297.292999	146.980000
297.386200	146.700000
297.479309	146.680000
297.572510	146.680000
297.665680	146.560000
297.758850	146.740000
297.852020	146.700000
297.945190	146.500000
298.038361	146.340000
298.131531	147.220000
298.224701	147.140000
298.317871	146.940000
298.411072	146.880000
298.504242	146.560000
298.597412	145.560000
298.690582	145.660000
298.783752	146.040000
298.876923	146.780000
298.970093	147.320000
299.063293	147.860000
299.156464	148.200000
299.249634	148.320000
299.342834	148.120000
299.436005	148.240000
299.529205	147.980000
299.622345	147.900000
299.715576	147.420000
299.808716	147.340000
299.901917	147.260000
299.995117	147.740000
300.088287	147.640000
300.181488	147.600000
300.274658	147.500000
300.367828	147.260000
300.461029	146.960000
300.554199	146.940000
300.647400	147.180000
300.740601	147.920000
300.833771	147.860000
300.926971	147.980000
301.020142	147.560000
301.113342	147.580000
301.206512	146.880000
301.299713	147.200000
301.392914	147.040000
301.486084	147.460000
301.579285	147.360000
301.672516	147.940000
301.765686	147.820000
301.858887	147.680000
301.952057	147.480000
302.045288	147.580000
302.138458	147.280000
302.231659	146.940000
302.324860	146.980000
302.418060	146.600000
302.511261	146.460000
302.604462	146.600000
302.697662	146.400000
302.790863	146.360000
302.884064	146.460000
302.977264	146.720000
303.070465	146.680000
303.163666	147.720000
303.256866	147.940000
303.350067	148.180000
303.443268	148.140000
303.536469	148.360000
303.629669	147.680000
303.722870	147.780000
303.816071	147.500000
303.909271	147.620000
304.002472	146.600000
304.095673	146.540000
304.188934	145.620000
304.282104	146.720000
304.375336	146.560000
304.468506	147.000000
304.561768	146.920000
304.654968	147.760000
304.748169	146.840000
304.841370	146.800000
304.934601	146.880000
305.027802	146.880000
305.121002	146.220000
305.214233	146.360000
305.307434	146.400000
305.400665	146.900000
305.493866	146.580000
