Model Number: SPM-002-B   
Serial Number: 70087108
Firmware Version: 004.15.4
Exposure Time: 100000.000000us
Data Taken on: 11-12-2020 18:53:49.483
Wavelength	Amplitude
221.570786	0.000000
221.663406	0.000000
221.756027	0.000000
221.848648	0.000000
221.941269	0.000000
222.033905	0.000000
222.126526	0.000000
222.219162	0.000000
222.311798	0.000000
222.404419	0.000000
222.497055	0.000000
222.589676	0.000000
222.682312	0.000000
222.774933	0.000000
222.867569	0.000000
222.960205	0.000000
223.052841	0.000000
223.145462	0.000000
223.238098	0.000000
223.330734	0.000000
223.423386	0.000000
223.516022	0.000000
223.608658	0.000000
223.701309	0.000000
223.793945	0.000000
223.886581	0.000000
223.979218	0.000000
224.071869	0.000000
224.164505	0.000000
224.257156	0.000000
224.349792	0.000000
224.442444	0.000000
224.535095	0.000000
224.627747	0.000000
224.720398	0.000000
224.813034	0.000000
224.905685	0.000000
224.998337	146.340000
225.090988	145.980000
225.183640	146.080000
225.276291	145.920000
225.368942	146.220000
225.461594	146.660000
225.554245	147.040000
225.646912	146.880000
225.739578	147.360000
225.832230	147.620000
225.924896	146.620000
226.017548	146.660000
226.110199	147.180000
226.202866	146.660000
226.295532	146.820000
226.388184	147.060000
226.480850	146.600000
226.573517	146.120000
226.666168	146.180000
226.758835	145.960000
226.851501	146.280000
226.944183	146.520000
227.036850	146.080000
227.129517	146.200000
227.222183	146.720000
227.314850	146.820000
227.407516	147.040000
227.500198	148.340000
227.592865	148.160000
227.685532	147.540000
227.778214	147.340000
227.870880	147.800000
227.963562	147.700000
228.056229	148.360000
228.148926	148.340000
228.241592	148.800000
228.334274	148.180000
228.426956	147.420000
228.519638	147.220000
228.612305	147.000000
228.704987	146.980000
228.797668	147.340000
228.890350	147.360000
228.983032	146.960000
229.075714	147.540000
229.168396	146.760000
229.261108	146.000000
229.353790	146.260000
229.446472	146.560000
229.539169	146.400000
229.631851	146.480000
229.724533	146.960000
229.817230	147.100000
229.909912	147.880000
230.002609	147.900000
230.095306	147.840000
230.187988	147.860000
230.280685	147.460000
230.373383	146.060000
230.466095	145.920000
230.558792	146.540000
230.651474	146.360000
230.744171	146.280000
230.836868	146.420000
230.929581	146.460000
231.022278	146.280000
231.114975	146.360000
231.207672	146.140000
231.300369	146.780000
231.393082	146.900000
231.485779	146.760000
231.578506	146.920000
231.671204	147.400000
231.763916	147.080000
231.856613	146.980000
231.949326	147.080000
232.042023	146.800000
232.134735	146.700000
232.227448	146.440000
232.320160	146.580000
232.412872	146.460000
232.505585	147.300000
232.598297	147.680000
232.691010	147.640000
232.783722	147.380000
232.876450	148.260000
232.969162	147.660000
233.061874	147.400000
233.154587	146.920000
233.247314	147.100000
233.340027	146.140000
233.432739	146.500000
233.525467	146.200000
233.618179	147.260000
233.710907	147.040000
233.803635	147.680000
233.896347	147.500000
233.989090	148.360000
234.081818	147.760000
234.174545	148.020000
234.267258	147.400000
234.359985	147.500000
234.452713	146.980000
234.545441	146.980000
234.638168	146.640000
234.730896	147.180000
234.823639	146.800000
234.916367	147.220000
235.009094	147.720000
235.101822	147.660000
235.194580	147.300000
235.287308	147.680000
235.380051	147.100000
235.472778	147.080000
235.565521	147.680000
235.658249	147.360000
235.750992	147.400000
235.843719	147.460000
235.936462	147.520000
236.029205	147.140000
236.121948	147.180000
236.214691	147.320000
236.307449	148.020000
236.400192	147.700000
236.492935	147.440000
236.585678	147.640000
236.678421	147.480000
236.771164	147.040000
236.863907	147.600000
236.956665	147.760000
237.049408	149.340000
237.142151	148.620000
237.234909	149.140000
237.327652	148.740000
237.420410	148.520000
237.513153	147.380000
237.605927	147.680000
237.698669	146.880000
237.791428	146.320000
237.884186	146.900000
237.976944	146.420000
238.069702	146.680000
238.162445	146.400000
238.255203	146.760000
238.347961	146.960000
238.440720	146.900000
238.533478	146.540000
238.626266	146.540000
238.719025	146.720000
238.811783	146.300000
238.904541	146.260000
238.997314	146.320000
239.090073	146.200000
239.182831	146.140000
239.275604	146.940000
239.368362	146.820000
239.461136	147.060000
239.553909	146.920000
239.646667	146.740000
239.739441	146.140000
239.832214	146.480000
239.925003	146.620000
240.017761	147.620000
240.110535	148.160000
240.203308	147.560000
240.296082	147.380000
240.388855	147.140000
240.481628	146.920000
240.574417	147.080000
240.667191	147.420000
240.759964	147.400000
240.852737	147.420000
240.945526	147.240000
241.038315	146.860000
241.131088	146.860000
241.223877	146.960000
241.316650	146.320000
241.409439	146.440000
241.502228	146.020000
241.595001	146.580000
241.687790	146.660000
241.780579	146.920000
241.873367	147.380000
241.966141	148.000000
242.058929	147.240000
242.151718	147.260000
242.244507	147.820000
242.337311	146.860000
242.430099	146.960000
242.522903	147.380000
242.615692	146.740000
242.708481	146.680000
242.801270	147.600000
242.894073	147.400000
242.986862	147.140000
243.079651	148.200000
243.172455	147.900000
243.265244	147.260000
243.358063	146.760000
243.450867	147.200000
243.543655	146.740000
243.636459	147.020000
243.729263	147.420000
243.822067	147.800000
243.914856	147.900000
244.007660	148.220000
244.100464	148.100000
244.193268	147.680000
244.286072	147.640000
244.378876	147.180000
244.471680	146.600000
244.564499	146.980000
244.657318	147.660000
244.750122	147.920000
244.842926	147.500000
244.935745	148.120000
245.028549	147.620000
245.121368	147.100000
245.214172	146.920000
245.306992	147.780000
245.399796	147.260000
245.492615	147.380000
245.585434	147.280000
245.678253	147.160000
245.771072	146.720000
245.863892	147.120000
245.956711	147.180000
246.049530	147.220000
246.142349	147.500000
246.235168	147.680000
246.327988	148.260000
246.420807	148.020000
246.513626	147.980000
246.606445	147.380000
246.699280	147.280000
246.792099	146.400000
246.884918	146.180000
246.977753	145.740000
247.070587	145.800000
247.163422	145.820000
247.256241	146.320000
247.349075	146.840000
247.441895	147.040000
247.534729	147.420000
247.627563	147.380000
247.720383	147.660000
247.813217	147.380000
247.906052	147.300000
247.998886	147.060000
248.091736	147.060000
248.184570	146.320000
248.277405	146.640000
248.370239	147.800000
248.463074	148.840000
248.555908	148.900000
248.648743	149.280000
248.741592	149.300000
248.834427	148.340000
248.927261	146.880000
249.020111	147.180000
249.112946	147.400000
249.205795	147.160000
249.298630	147.360000
249.391495	147.500000
249.484344	147.240000
249.577179	147.040000
249.670029	147.160000
249.762878	147.600000
249.855728	148.020000
249.948563	147.840000
250.041412	147.140000
250.134262	147.360000
250.227112	147.360000
250.319962	147.420000
250.412827	147.460000
250.505692	147.520000
250.598541	147.260000
250.691391	146.380000
250.784241	146.360000
250.877106	146.680000
250.969955	146.420000
251.062805	147.100000
251.155670	148.000000
251.248520	147.780000
251.341385	147.780000
251.434235	147.940000
251.527100	147.240000
251.619965	146.540000
251.712814	147.640000
251.805695	147.600000
251.898560	148.040000
251.991425	148.520000
252.084290	148.860000
252.177155	147.580000
252.270020	147.320000
252.362885	147.080000
252.455750	146.680000
252.548615	146.420000
252.641479	146.660000
252.734360	146.600000
252.827240	146.660000
252.920105	146.540000
253.012970	146.620000
253.105850	146.520000
253.198715	146.380000
253.291595	146.180000
253.384460	145.900000
253.477341	145.840000
253.570221	146.400000
253.663086	146.340000
253.755966	147.080000
253.848846	147.260000
253.941727	147.940000
254.034592	147.440000
254.127472	146.980000
254.220367	147.160000
254.313248	147.340000
254.406128	146.360000
254.499008	146.620000
254.591904	147.520000
254.684784	147.500000
254.777664	147.560000
254.870544	147.520000
254.963440	147.340000
255.056335	147.320000
255.149216	146.800000
255.242111	147.400000
255.334991	148.020000
255.427887	148.200000
255.520767	148.060000
255.613663	148.060000
255.706558	147.040000
255.799438	146.680000
255.892334	146.320000
255.985229	146.360000
256.078125	146.200000
256.171021	146.760000
256.263916	147.160000
256.356812	147.280000
256.449707	147.340000
256.542603	147.320000
256.635498	147.760000
256.728394	147.480000
256.821289	147.340000
256.914215	147.440000
257.007080	147.900000
257.100006	147.600000
257.192932	148.180000
257.285828	148.800000
257.378723	148.460000
257.471619	148.100000
257.564545	147.580000
257.657440	147.380000
257.750336	147.380000
257.843262	147.260000
257.936157	148.420000
258.029053	148.720000
258.121979	148.540000
258.214874	148.180000
258.307800	148.200000
258.400696	146.780000
258.493622	146.900000
258.586517	146.200000
258.679443	146.500000
258.772339	146.360000
258.865265	146.380000
258.958160	145.780000
259.051086	146.600000
259.144012	146.240000
259.236938	147.080000
259.329834	147.260000
259.422791	147.160000
259.515717	146.740000
259.608612	146.460000
259.701538	146.100000
259.794464	146.200000
259.887390	146.360000
259.980316	146.140000
260.073212	146.400000
260.166138	145.560000
260.259064	145.700000
260.351990	146.500000
260.444916	146.520000
260.537842	146.680000
260.630768	147.740000
260.723694	147.680000
260.816620	147.280000
260.909546	147.420000
261.002472	147.240000
261.095398	146.740000
261.188354	146.620000
261.281281	146.140000
261.374207	146.320000
261.467133	147.260000
261.560089	147.300000
261.653015	147.280000
261.745972	148.140000
261.838867	148.360000
261.931824	147.940000
262.024780	147.580000
262.117706	147.900000
262.210663	147.640000
262.303589	147.400000
262.396515	147.220000
262.489471	148.180000
262.582397	147.940000
262.675354	147.500000
262.768280	147.580000
262.861237	147.560000
262.954163	147.220000
263.047119	147.400000
263.140045	147.460000
263.233002	147.360000
263.325958	147.200000
263.418884	146.680000
263.511841	146.660000
263.604797	146.620000
263.697723	146.800000
263.790680	146.680000
263.883636	147.620000
263.976593	147.200000
264.069550	147.480000
264.162476	147.120000
264.255463	147.320000
264.348419	146.440000
264.441376	146.740000
264.534332	146.320000
264.627289	146.480000
264.720245	146.940000
264.813202	147.200000
264.906158	147.440000
264.999115	147.960000
265.092072	148.140000
265.185028	148.100000
265.277985	148.140000
265.370941	148.180000
265.463898	148.080000
265.556854	147.740000
265.649811	146.700000
265.742798	146.900000
265.835754	146.320000
265.928711	146.680000
266.021667	146.740000
266.114655	147.360000
266.207611	147.280000
266.300568	147.200000
266.393585	146.640000
266.486511	147.220000
266.579498	146.540000
266.672485	146.500000
266.765442	146.680000
266.858429	147.160000
266.951385	146.700000
267.044342	147.380000
267.137329	147.240000
267.230316	147.180000
267.323273	146.700000
267.416260	147.400000
267.509216	147.080000
267.602203	147.360000
267.695160	148.300000
267.788147	148.120000
267.881134	147.440000
267.974091	147.740000
268.067078	147.260000
268.160065	146.740000
268.253052	146.660000
268.346008	146.500000
268.438995	146.360000
268.531982	146.500000
268.624969	146.080000
268.717987	146.820000
268.810944	146.820000
268.903961	146.980000
268.996948	146.740000
269.089905	147.500000
269.182892	147.300000
269.275879	147.620000
269.368866	147.000000
269.461853	147.300000
269.554871	146.800000
269.647858	146.700000
269.740845	147.260000
269.833832	147.980000
269.926819	147.760000
270.019806	147.940000
270.112793	147.680000
270.205811	147.340000
270.298798	146.760000
270.391785	147.480000
270.484772	146.940000
270.577789	147.000000
270.670776	146.500000
270.763763	146.640000
270.856750	146.400000
270.949768	146.780000
271.042786	147.060000
271.135773	147.480000
271.228790	147.980000
271.321808	147.200000
271.414795	146.520000
271.507782	145.880000
271.600800	145.340000
271.693817	144.980000
271.786804	146.000000
271.879822	146.740000
271.972809	146.780000
272.065826	147.480000
272.158844	147.300000
272.251831	147.600000
272.344849	147.580000
272.437866	147.480000
272.530853	147.180000
272.623871	147.460000
272.716888	146.040000
272.809906	146.080000
272.902893	146.580000
272.995911	146.220000
273.088928	146.260000
273.181946	147.020000
273.274963	146.580000
273.367981	146.440000
273.460999	146.800000
273.554047	147.000000
273.647003	147.260000
273.740051	147.520000
273.833069	147.660000
273.926086	147.680000
274.019135	147.460000
274.112152	147.120000
274.205170	147.040000
274.298187	147.240000
274.391205	146.500000
274.484222	146.260000
274.577240	146.460000
274.670258	146.440000
274.763306	146.480000
274.856323	147.340000
274.949341	147.580000
275.042358	147.580000
275.135406	147.600000
275.228424	147.480000
275.321442	147.040000
275.414490	146.860000
275.507507	147.180000
275.600525	147.700000
275.693573	147.280000
275.786591	147.000000
275.879669	147.220000
275.972656	146.580000
276.065735	145.920000
276.158752	146.480000
276.251801	147.520000
276.344818	147.540000
276.437866	148.020000
276.530884	148.160000
276.623932	147.540000
276.716980	147.320000
276.809998	147.420000
276.903046	147.260000
276.996094	147.880000
277.089111	148.680000
277.182159	148.900000
277.275208	148.580000
277.368256	148.340000
277.461304	148.100000
277.554321	146.960000
277.647369	146.840000
277.740417	146.560000
277.833466	146.780000
277.926514	146.620000
278.019562	147.560000
278.112610	146.720000
278.205688	147.120000
278.298706	147.040000
278.391785	146.520000
278.484833	146.200000
278.577881	146.580000
278.670929	146.900000
278.763977	146.800000
278.857025	147.320000
278.950073	147.300000
279.043121	147.180000
279.136169	146.860000
279.229248	146.520000
279.322296	146.660000
279.415344	146.600000
279.508392	146.220000
279.601440	146.160000
279.694519	146.160000
279.787567	145.580000
279.880615	145.580000
279.973694	145.760000
280.066742	145.640000
280.159790	145.900000
280.252869	145.820000
280.345917	146.160000
280.438995	146.260000
280.532074	146.300000
280.625122	146.640000
280.718201	147.740000
280.811279	147.400000
280.904327	147.360000
280.997406	147.760000
281.090454	147.720000
281.183533	146.860000
281.276581	146.900000
281.369659	146.720000
281.462738	146.460000
281.555786	146.620000
281.648865	146.820000
281.741943	146.580000
281.835022	147.480000
281.928070	147.240000
282.021149	146.980000
282.114227	146.900000
282.207306	147.060000
282.300385	146.820000
282.393433	147.240000
282.486511	146.740000
282.579590	147.080000
282.672668	147.240000
282.765747	146.700000
282.858856	146.560000
282.951904	147.260000
283.045013	147.120000
283.138062	147.340000
283.231171	147.680000
283.324249	147.920000
283.417328	147.720000
283.510406	147.340000
283.603485	146.920000
283.696564	146.860000
283.789642	146.620000
283.882751	146.420000
283.975830	146.960000
284.068909	146.900000
284.161987	147.580000
284.255066	147.140000
284.348175	147.440000
284.441254	147.200000
284.534332	147.480000
284.627441	146.580000
284.720520	146.580000
284.813599	146.400000
284.906708	146.480000
284.999786	145.840000
285.092896	145.660000
285.185974	146.880000
285.279053	146.480000
285.372192	146.560000
285.465240	147.400000
285.558380	147.440000
285.651459	146.240000
285.744568	147.360000
285.837677	146.780000
285.930756	146.480000
286.023865	146.700000
286.116943	146.860000
286.210052	146.440000
286.303162	146.580000
286.396240	146.820000
286.489349	146.660000
286.582458	147.000000
286.675568	146.680000
286.768646	147.160000
286.861755	147.580000
286.954865	148.400000
287.047974	147.640000
287.141083	147.440000
287.234161	146.720000
287.327271	145.960000
287.420380	146.240000
287.513519	146.560000
287.606598	146.520000
287.699738	147.180000
287.792816	147.240000
287.885956	146.880000
287.979034	147.140000
288.072174	147.400000
288.165283	147.120000
288.258392	147.420000
288.351501	146.740000
288.444611	146.920000
288.537720	147.120000
288.630859	147.340000
288.723969	147.080000
288.817078	147.740000
288.910187	147.480000
289.003296	146.940000
289.096436	146.580000
289.189545	146.820000
289.282654	146.180000
289.375763	146.620000
289.468903	146.980000
289.562012	147.060000
289.655121	147.040000
289.748260	147.080000
289.841400	147.140000
289.934509	147.420000
290.027649	147.760000
290.120728	147.520000
290.213898	147.840000
290.306976	147.420000
290.400146	147.320000
290.493256	146.860000
290.586395	147.300000
290.679535	147.480000
290.772644	147.380000
290.865784	146.520000
290.958893	146.440000
291.052032	146.180000
291.145172	145.760000
291.238281	145.540000
291.331421	145.980000
291.424561	146.580000
291.517670	146.220000
291.610809	146.620000
291.703949	146.700000
291.797089	147.020000
291.890228	146.440000
291.983337	146.480000
292.076477	146.020000
292.169617	146.540000
292.262756	146.400000
292.355927	146.200000
292.449036	145.860000
292.542206	146.020000
292.635315	146.180000
292.728485	146.220000
292.821625	146.020000
292.914764	147.480000
293.007904	147.640000
293.101044	146.980000
293.194183	146.680000
293.287323	147.340000
293.380463	146.380000
293.473602	145.940000
293.566742	146.420000
293.659882	147.280000
293.753021	147.360000
293.846191	147.680000
293.939331	147.580000
294.032471	147.380000
294.125610	147.040000
294.218781	147.180000
294.311920	147.320000
294.405060	147.680000
294.498230	147.580000
294.591370	147.560000
294.684540	146.920000
294.777679	146.220000
294.870850	146.280000
294.963959	146.360000
295.057159	146.000000
295.150299	146.400000
295.243469	146.440000
295.336609	146.200000
295.429779	146.180000
295.522919	146.580000
295.616089	146.580000
295.709229	147.160000
295.802399	147.360000
295.895569	146.900000
295.988708	146.520000
296.081879	146.500000
296.175018	145.780000
296.268188	145.580000
296.361359	146.260000
296.454529	146.580000
296.547668	146.440000
296.640839	147.260000
296.734009	147.160000
296.827179	147.120000
296.920319	147.360000
297.013519	147.300000
297.106659	147.080000
297.199860	147.140000
297.292999	146.880000
297.386200	146.280000
297.479309	146.300000
297.572510	145.960000
297.665680	145.820000
297.758850	145.780000
297.852020	145.800000
297.945190	145.640000
298.038361	145.400000
298.131531	146.540000
298.224701	146.400000
298.317871	146.340000
298.411072	146.000000
298.504242	146.300000
298.597412	145.420000
298.690582	145.620000
298.783752	145.840000
298.876923	146.660000
298.970093	146.480000
299.063293	146.900000
299.156464	147.300000
299.249634	147.560000
299.342834	147.620000
299.436005	148.240000
299.529205	147.920000
299.622345	147.840000
299.715576	147.300000
299.808716	146.980000
299.901917	146.680000
299.995117	146.980000
300.088287	146.740000
300.181488	146.440000
300.274658	146.440000
300.367828	146.520000
300.461029	146.200000
300.554199	146.460000
300.647400	146.860000
300.740601	147.260000
300.833771	147.100000
300.926971	147.380000
301.020142	146.860000
301.113342	146.660000
301.206512	146.340000
301.299713	146.580000
301.392914	146.580000
301.486084	147.080000
301.579285	147.240000
301.672516	147.980000
301.765686	147.680000
301.858887	147.340000
301.952057	147.340000
302.045288	147.300000
302.138458	146.600000
302.231659	146.560000
302.324860	146.480000
302.418060	146.060000
302.511261	145.900000
302.604462	146.140000
302.697662	146.100000
302.790863	146.060000
302.884064	145.820000
302.977264	145.980000
303.070465	146.540000
303.163666	147.020000
303.256866	147.540000
303.350067	147.680000
303.443268	147.560000
303.536469	147.300000
303.629669	146.800000
303.722870	146.780000
303.816071	146.980000
303.909271	147.340000
304.002472	146.700000
304.095673	146.320000
304.188934	145.520000
304.282104	146.100000
304.375336	146.100000
304.468506	145.940000
304.561768	146.140000
304.654968	146.840000
304.748169	146.380000
304.841370	146.320000
304.934601	146.760000
305.027802	146.680000
305.121002	146.180000
305.214233	146.100000
305.307434	145.860000
305.400665	146.140000
305.493866	146.020000
