Model Number: SPM-002-B   
Serial Number: 70087108
Firmware Version: 004.15.4
Exposure Time: 100000.000000us
Data Taken on: 11-12-2020 18:53:57.206
Wavelength	Amplitude
221.570786	0.000000
221.663406	0.000000
221.756027	0.000000
221.848648	0.000000
221.941269	0.000000
222.033905	0.000000
222.126526	0.000000
222.219162	0.000000
222.311798	0.000000
222.404419	0.000000
222.497055	0.000000
222.589676	0.000000
222.682312	0.000000
222.774933	0.000000
222.867569	0.000000
222.960205	0.000000
223.052841	0.000000
223.145462	0.000000
223.238098	0.000000
223.330734	0.000000
223.423386	0.000000
223.516022	0.000000
223.608658	0.000000
223.701309	0.000000
223.793945	0.000000
223.886581	0.000000
223.979218	0.000000
224.071869	0.000000
224.164505	0.000000
224.257156	0.000000
224.349792	0.000000
224.442444	0.000000
224.535095	0.000000
224.627747	0.000000
224.720398	0.000000
224.813034	0.000000
224.905685	0.000000
224.998337	145.540000
225.090988	145.140000
225.183640	145.020000
225.276291	144.860000
225.368942	145.400000
225.461594	145.760000
225.554245	146.040000
225.646912	145.960000
225.739578	146.480000
225.832230	146.680000
225.924896	145.800000
226.017548	146.180000
226.110199	146.660000
226.202866	145.940000
226.295532	145.940000
226.388184	146.220000
226.480850	145.440000
226.573517	144.940000
226.666168	145.180000
226.758835	145.480000
226.851501	146.000000
226.944183	146.360000
227.036850	146.140000
227.129517	146.220000
227.222183	145.820000
227.314850	145.840000
227.407516	146.260000
227.500198	146.840000
227.592865	146.400000
227.685532	146.160000
227.778214	145.880000
227.870880	145.960000
227.963562	146.300000
228.056229	146.820000
228.148926	146.760000
228.241592	147.520000
228.334274	147.000000
228.426956	146.480000
228.519638	146.580000
228.612305	146.500000
228.704987	146.280000
228.797668	146.460000
228.890350	146.460000
228.983032	145.840000
229.075714	146.340000
229.168396	146.020000
229.261108	145.360000
229.353790	145.340000
229.446472	145.520000
229.539169	145.220000
229.631851	144.960000
229.724533	145.680000
229.817230	145.760000
229.909912	146.860000
230.002609	147.120000
230.095306	147.060000
230.187988	146.800000
230.280685	146.880000
230.373383	145.680000
230.466095	145.440000
230.558792	145.960000
230.651474	146.000000
230.744171	146.000000
230.836868	146.080000
230.929581	146.520000
231.022278	146.460000
231.114975	146.420000
231.207672	146.040000
231.300369	146.260000
231.393082	146.240000
231.485779	146.040000
231.578506	145.800000
231.671204	145.840000
231.763916	145.960000
231.856613	145.660000
231.949326	145.600000
232.042023	145.720000
232.134735	146.000000
232.227448	145.480000
232.320160	145.640000
232.412872	145.660000
232.505585	146.420000
232.598297	146.680000
232.691010	146.860000
232.783722	146.420000
232.876450	146.880000
232.969162	146.520000
233.061874	145.880000
233.154587	145.660000
233.247314	145.840000
233.340027	145.180000
233.432739	145.420000
233.525467	145.420000
233.618179	145.840000
233.710907	145.740000
233.803635	146.080000
233.896347	145.720000
233.989090	146.380000
234.081818	146.260000
234.174545	146.520000
234.267258	146.020000
234.359985	146.180000
234.452713	145.840000
234.545441	145.680000
234.638168	145.560000
234.730896	146.160000
234.823639	145.820000
234.916367	146.180000
235.009094	146.140000
235.101822	146.400000
235.194580	146.360000
235.287308	146.520000
235.380051	145.940000
235.472778	146.320000
235.565521	146.180000
235.658249	145.560000
235.750992	145.700000
235.843719	145.680000
235.936462	145.780000
236.029205	145.440000
236.121948	145.420000
236.214691	145.580000
236.307449	146.240000
236.400192	146.060000
236.492935	146.020000
236.585678	146.400000
236.678421	146.520000
236.771164	146.140000
236.863907	146.360000
236.956665	146.640000
237.049408	148.260000
237.142151	147.580000
237.234909	148.320000
237.327652	148.160000
237.420410	148.000000
237.513153	146.900000
237.605927	146.800000
237.698669	146.200000
237.791428	145.900000
237.884186	146.180000
237.976944	145.580000
238.069702	146.240000
238.162445	145.820000
238.255203	145.760000
238.347961	145.860000
238.440720	146.000000
238.533478	145.960000
238.626266	145.840000
238.719025	146.280000
238.811783	146.340000
238.904541	146.240000
238.997314	145.620000
239.090073	145.480000
239.182831	145.580000
239.275604	146.060000
239.368362	145.880000
239.461136	146.300000
239.553909	146.440000
239.646667	146.000000
239.739441	145.460000
239.832214	145.840000
239.925003	145.920000
240.017761	146.580000
240.110535	147.160000
240.203308	146.720000
240.296082	146.600000
240.388855	146.280000
240.481628	145.880000
240.574417	145.900000
240.667191	145.920000
240.759964	145.900000
240.852737	145.920000
240.945526	145.860000
241.038315	145.460000
241.131088	145.600000
241.223877	145.500000
241.316650	145.260000
241.409439	145.540000
241.502228	145.120000
241.595001	145.720000
241.687790	145.760000
241.780579	146.000000
241.873367	146.080000
241.966141	146.560000
242.058929	145.760000
242.151718	145.980000
242.244507	146.560000
242.337311	145.980000
242.430099	146.300000
242.522903	146.480000
242.615692	146.100000
242.708481	145.840000
242.801270	146.620000
242.894073	146.300000
242.986862	146.740000
243.079651	147.640000
243.172455	147.320000
243.265244	146.880000
243.358063	146.360000
243.450867	146.180000
243.543655	145.760000
243.636459	146.020000
243.729263	146.380000
243.822067	147.080000
243.914856	147.640000
244.007660	147.440000
244.100464	147.320000
244.193268	146.760000
244.286072	146.600000
244.378876	145.920000
244.471680	145.800000
244.564499	146.040000
244.657318	147.080000
244.750122	147.140000
244.842926	146.780000
244.935745	147.300000
245.028549	146.960000
245.121368	146.000000
245.214172	146.000000
245.306992	146.320000
245.399796	145.940000
245.492615	145.920000
245.585434	146.060000
245.678253	145.940000
245.771072	146.000000
245.863892	146.160000
245.956711	146.420000
246.049530	146.280000
246.142349	146.140000
246.235168	146.160000
246.327988	146.660000
246.420807	146.260000
246.513626	146.360000
246.606445	146.220000
246.699280	146.140000
246.792099	145.780000
246.884918	145.660000
246.977753	145.340000
247.070587	145.520000
247.163422	145.640000
247.256241	145.440000
247.349075	146.040000
247.441895	146.080000
247.534729	146.060000
247.627563	145.760000
247.720383	146.520000
247.813217	146.280000
247.906052	146.420000
247.998886	146.480000
248.091736	146.560000
248.184570	145.800000
248.277405	145.920000
248.370239	146.720000
248.463074	147.780000
248.555908	148.340000
248.648743	148.140000
248.741592	148.500000
248.834427	147.800000
248.927261	146.560000
249.020111	146.460000
249.112946	147.300000
249.205795	146.580000
249.298630	146.880000
249.391495	147.000000
249.484344	146.620000
249.577179	146.160000
249.670029	146.340000
249.762878	146.440000
249.855728	146.720000
249.948563	147.000000
250.041412	146.600000
250.134262	147.160000
250.227112	147.520000
250.319962	147.420000
250.412827	147.340000
250.505692	147.200000
250.598541	146.980000
250.691391	146.220000
250.784241	146.080000
250.877106	146.140000
250.969955	146.100000
251.062805	146.560000
251.155670	147.320000
251.248520	147.300000
251.341385	147.440000
251.434235	147.500000
251.527100	146.820000
251.619965	146.160000
251.712814	146.720000
251.805695	146.520000
251.898560	146.460000
251.991425	146.600000
252.084290	146.560000
252.177155	145.700000
252.270020	145.260000
252.362885	145.380000
252.455750	145.340000
252.548615	144.920000
252.641479	145.060000
252.734360	145.180000
252.827240	145.060000
252.920105	145.140000
253.012970	145.720000
253.105850	145.740000
253.198715	145.580000
253.291595	146.020000
253.384460	145.380000
253.477341	145.100000
253.570221	145.620000
253.663086	145.620000
253.755966	145.920000
253.848846	146.100000
253.941727	146.280000
254.034592	145.800000
254.127472	145.460000
254.220367	145.260000
254.313248	145.460000
254.406128	145.160000
254.499008	145.380000
254.591904	146.360000
254.684784	146.620000
254.777664	146.720000
254.870544	146.660000
254.963440	146.440000
255.056335	146.280000
255.149216	145.680000
255.242111	145.960000
255.334991	146.440000
255.427887	146.820000
255.520767	146.800000
255.613663	147.300000
255.706558	146.860000
255.799438	146.320000
255.892334	145.860000
255.985229	145.720000
256.078125	145.460000
256.171021	145.400000
256.263916	146.020000
256.356812	146.360000
256.449707	146.460000
256.542603	146.320000
256.635498	147.040000
256.728394	146.640000
256.821289	146.180000
256.914215	146.500000
257.007080	146.900000
257.100006	146.620000
257.192932	146.860000
257.285828	147.240000
257.378723	147.000000
257.471619	146.800000
257.564545	146.520000
257.657440	146.520000
257.750336	146.860000
257.843262	146.260000
257.936157	146.820000
258.029053	147.040000
258.121979	147.340000
258.214874	146.840000
258.307800	147.080000
258.400696	146.300000
258.493622	146.100000
258.586517	145.160000
258.679443	145.400000
258.772339	145.200000
258.865265	145.060000
258.958160	144.580000
259.051086	145.660000
259.144012	145.700000
259.236938	146.560000
259.329834	146.920000
259.422791	147.020000
259.515717	146.280000
259.608612	145.960000
259.701538	145.580000
259.794464	145.380000
259.887390	145.680000
259.980316	145.760000
260.073212	145.520000
260.166138	144.660000
260.259064	145.080000
260.351990	145.400000
260.444916	145.380000
260.537842	146.100000
260.630768	146.960000
260.723694	146.660000
260.816620	146.420000
260.909546	146.560000
261.002472	145.980000
261.095398	145.660000
261.188354	145.740000
261.281281	145.560000
261.374207	145.740000
261.467133	146.680000
261.560089	146.660000
261.653015	146.240000
261.745972	146.900000
261.838867	147.100000
261.931824	146.780000
262.024780	146.580000
262.117706	146.960000
262.210663	146.940000
262.303589	146.680000
262.396515	146.620000
262.489471	147.740000
262.582397	147.560000
262.675354	146.780000
262.768280	146.760000
262.861237	146.640000
262.954163	146.000000
263.047119	146.280000
263.140045	146.520000
263.233002	146.560000
263.325958	146.660000
263.418884	146.320000
263.511841	146.260000
263.604797	146.200000
263.697723	145.980000
263.790680	145.660000
263.883636	146.280000
263.976593	145.960000
264.069550	146.320000
264.162476	146.180000
264.255463	146.440000
264.348419	145.800000
264.441376	146.220000
264.534332	145.740000
264.627289	145.860000
264.720245	146.280000
264.813202	146.040000
264.906158	146.020000
264.999115	146.520000
265.092072	146.740000
265.185028	146.980000
265.277985	147.500000
265.370941	147.280000
265.463898	146.960000
265.556854	146.720000
265.649811	145.540000
265.742798	145.480000
265.835754	145.520000
265.928711	145.680000
266.021667	145.740000
266.114655	146.280000
266.207611	146.500000
266.300568	145.900000
266.393585	145.560000
266.486511	145.820000
266.579498	145.140000
266.672485	144.960000
266.765442	145.220000
266.858429	145.860000
266.951385	145.420000
267.044342	145.780000
267.137329	145.840000
267.230316	145.960000
267.323273	145.240000
267.416260	146.000000
267.509216	145.880000
267.602203	145.540000
267.695160	146.080000
267.788147	146.220000
267.881134	145.340000
267.974091	145.680000
268.067078	145.860000
268.160065	145.480000
268.253052	145.420000
268.346008	145.800000
268.438995	145.660000
268.531982	145.680000
268.624969	145.560000
268.717987	145.920000
268.810944	145.920000
268.903961	145.960000
268.996948	145.700000
269.089905	146.200000
269.182892	146.140000
269.275879	146.340000
269.368866	145.940000
269.461853	146.300000
269.554871	145.900000
269.647858	145.860000
269.740845	145.780000
269.833832	146.520000
269.926819	146.360000
270.019806	146.540000
270.112793	146.240000
270.205811	146.320000
270.298798	145.900000
270.391785	146.520000
270.484772	146.200000
270.577789	146.480000
270.670776	146.040000
270.763763	145.840000
270.856750	145.540000
270.949768	145.440000
271.042786	145.440000
271.135773	145.440000
271.228790	146.080000
271.321808	145.680000
271.414795	145.580000
271.507782	145.440000
271.600800	145.360000
271.693817	145.120000
271.786804	145.500000
271.879822	145.860000
271.972809	145.840000
272.065826	146.380000
272.158844	145.940000
272.251831	146.420000
272.344849	146.460000
272.437866	146.020000
272.530853	146.280000
272.623871	146.500000
272.716888	145.600000
272.809906	145.840000
272.902893	146.280000
272.995911	145.620000
273.088928	145.680000
273.181946	146.020000
273.274963	145.520000
273.367981	145.420000
273.460999	145.700000
273.554047	145.960000
273.647003	146.320000
273.740051	146.420000
273.833069	146.920000
273.926086	146.920000
274.019135	146.460000
274.112152	145.840000
274.205170	146.000000
274.298187	145.940000
274.391205	145.280000
274.484222	145.260000
274.577240	145.300000
274.670258	145.020000
274.763306	144.720000
274.856323	145.500000
274.949341	145.720000
275.042358	146.280000
275.135406	146.400000
275.228424	146.280000
275.321442	146.200000
275.414490	146.040000
275.507507	145.980000
275.600525	146.520000
275.693573	146.420000
275.786591	145.920000
275.879669	146.000000
275.972656	145.740000
276.065735	145.360000
276.158752	146.240000
276.251801	147.080000
276.344818	147.240000
276.437866	147.280000
276.530884	146.780000
276.623932	145.760000
276.716980	145.760000
276.809998	145.560000
276.903046	145.640000
276.996094	146.920000
277.089111	147.740000
277.182159	147.880000
277.275208	147.620000
277.368256	147.480000
277.461304	146.540000
277.554321	145.660000
277.647369	145.240000
277.740417	145.660000
277.833466	145.520000
277.926514	145.520000
278.019562	146.360000
278.112610	145.980000
278.205688	146.080000
278.298706	146.080000
278.391785	145.940000
278.484833	145.420000
278.577881	145.220000
278.670929	145.240000
278.763977	145.320000
278.857025	145.880000
278.950073	145.900000
279.043121	146.020000
279.136169	146.040000
279.229248	145.840000
279.322296	145.760000
279.415344	145.620000
279.508392	145.780000
279.601440	145.440000
279.694519	145.500000
279.787567	145.240000
279.880615	145.300000
279.973694	144.880000
280.066742	145.160000
280.159790	145.480000
280.252869	145.200000
280.345917	145.460000
280.438995	145.760000
280.532074	145.480000
280.625122	145.680000
280.718201	146.420000
280.811279	146.440000
280.904327	146.360000
280.997406	146.520000
281.090454	146.420000
281.183533	145.800000
281.276581	145.520000
281.369659	145.260000
281.462738	145.400000
281.555786	145.440000
281.648865	145.840000
281.741943	145.880000
281.835022	146.880000
281.928070	146.580000
282.021149	146.300000
282.114227	146.140000
282.207306	146.340000
282.300385	146.220000
282.393433	146.500000
282.486511	146.260000
282.579590	146.780000
282.672668	146.880000
282.765747	146.420000
282.858856	146.220000
282.951904	146.660000
283.045013	146.420000
283.138062	146.600000
283.231171	146.900000
283.324249	147.260000
283.417328	147.240000
283.510406	146.740000
283.603485	146.420000
283.696564	146.160000
283.789642	146.000000
283.882751	145.720000
283.975830	146.600000
284.068909	146.500000
284.161987	147.160000
284.255066	146.840000
284.348175	147.100000
284.441254	146.660000
284.534332	147.060000
284.627441	146.520000
284.720520	146.520000
284.813599	146.380000
284.906708	146.380000
284.999786	145.600000
285.092896	145.220000
285.185974	146.460000
285.279053	146.160000
285.372192	146.260000
285.465240	147.320000
285.558380	147.460000
285.651459	146.780000
285.744568	147.820000
285.837677	147.160000
285.930756	146.900000
286.023865	146.940000
286.116943	146.280000
286.210052	145.980000
286.303162	146.240000
286.396240	146.140000
286.489349	146.120000
286.582458	146.600000
286.675568	146.320000
286.768646	146.560000
286.861755	146.640000
286.954865	147.420000
287.047974	147.140000
287.141083	146.940000
287.234161	146.520000
287.327271	146.400000
287.420380	146.460000
287.513519	146.380000
287.606598	146.420000
287.699738	146.700000
287.792816	146.600000
287.885956	146.120000
287.979034	146.060000
288.072174	146.180000
288.165283	146.180000
288.258392	146.400000
288.351501	145.940000
288.444611	146.320000
288.537720	146.540000
288.630859	146.360000
288.723969	146.200000
288.817078	146.860000
288.910187	146.800000
289.003296	146.640000
289.096436	146.440000
289.189545	146.380000
289.282654	145.920000
289.375763	146.120000
289.468903	146.260000
289.562012	146.620000
289.655121	146.740000
289.748260	146.620000
289.841400	146.740000
289.934509	146.480000
290.027649	146.620000
290.120728	146.500000
290.213898	146.500000
290.306976	146.360000
290.400146	146.680000
290.493256	146.340000
290.586395	146.400000
290.679535	147.040000
290.772644	146.580000
290.865784	145.640000
290.958893	145.540000
291.052032	145.400000
291.145172	145.000000
291.238281	145.180000
291.331421	145.600000
291.424561	145.860000
291.517670	145.520000
291.610809	145.780000
291.703949	145.600000
291.797089	146.040000
291.890228	145.800000
291.983337	145.760000
292.076477	145.500000
292.169617	145.960000
292.262756	145.820000
292.355927	145.780000
292.449036	145.960000
292.542206	146.120000
292.635315	146.120000
292.728485	146.380000
292.821625	146.220000
292.914764	147.460000
293.007904	147.340000
293.101044	147.260000
293.194183	146.820000
293.287323	147.220000
293.380463	146.160000
293.473602	146.160000
293.566742	146.400000
293.659882	146.980000
293.753021	147.180000
293.846191	147.260000
293.939331	147.020000
294.032471	146.740000
294.125610	146.360000
294.218781	146.740000
294.311920	147.000000
294.405060	147.300000
294.498230	147.240000
294.591370	147.240000
294.684540	146.380000
294.777679	145.980000
294.870850	146.300000
294.963959	146.380000
295.057159	145.940000
295.150299	146.340000
295.243469	146.440000
295.336609	145.640000
295.429779	145.660000
295.522919	146.180000
295.616089	146.080000
295.709229	146.600000
295.802399	146.920000
295.895569	146.460000
295.988708	146.240000
296.081879	146.680000
296.175018	146.040000
296.268188	145.940000
296.361359	146.680000
296.454529	146.860000
296.547668	146.460000
296.640839	147.040000
296.734009	146.880000
296.827179	146.760000
296.920319	146.780000
297.013519	146.660000
297.106659	146.700000
297.199860	146.780000
297.292999	146.680000
297.386200	146.540000
297.479309	146.540000
297.572510	146.420000
297.665680	146.220000
297.758850	146.200000
297.852020	146.180000
297.945190	146.100000
298.038361	145.520000
298.131531	146.520000
298.224701	146.220000
298.317871	146.040000
298.411072	145.580000
298.504242	145.680000
298.597412	145.300000
298.690582	145.620000
298.783752	145.580000
298.876923	146.500000
298.970093	146.660000
299.063293	146.780000
299.156464	147.040000
299.249634	147.320000
299.342834	147.300000
299.436005	147.580000
299.529205	147.320000
299.622345	147.100000
299.715576	146.620000
299.808716	145.980000
299.901917	145.660000
299.995117	145.800000
300.088287	145.800000
300.181488	145.880000
300.274658	146.020000
300.367828	146.080000
300.461029	145.960000
300.554199	146.060000
300.647400	146.140000
300.740601	146.940000
300.833771	146.780000
300.926971	146.900000
301.020142	146.220000
301.113342	145.980000
301.206512	145.480000
301.299713	145.720000
301.392914	145.680000
301.486084	146.280000
301.579285	146.240000
301.672516	146.500000
301.765686	146.000000
301.858887	145.940000
301.952057	145.780000
302.045288	146.020000
302.138458	145.740000
302.231659	145.760000
302.324860	145.540000
302.418060	145.380000
302.511261	145.320000
302.604462	145.520000
302.697662	145.600000
302.790863	145.600000
302.884064	145.500000
302.977264	145.700000
303.070465	145.780000
303.163666	146.340000
303.256866	146.880000
303.350067	146.880000
303.443268	146.620000
303.536469	146.540000
303.629669	146.240000
303.722870	146.100000
303.816071	146.240000
303.909271	146.520000
304.002472	146.000000
304.095673	145.720000
304.188934	144.960000
304.282104	145.540000
304.375336	145.600000
304.468506	145.680000
304.561768	145.620000
304.654968	146.480000
304.748169	146.120000
304.841370	145.960000
304.934601	146.300000
305.027802	146.260000
305.121002	145.660000
305.214233	145.540000
305.307434	145.600000
305.400665	146.160000
305.493866	145.980000
