Model Number: SPM-001-M   
Serial Number: 10090201
Firmware Version: 004.17.6
Exposure Time: 300000.000000us
Data Taken on: 21-01-2021 14:32:49.975
Wavelength	Amplitude
733.770752	0.000000
733.808716	0.000000
733.846619	0.000000
733.884583	0.000000
733.922546	0.000000
733.960449	0.000000
733.998413	0.000000
734.036377	0.000000
734.074219	0.000000
734.112183	0.000000
734.150085	0.000000
734.188049	0.000000
734.226013	0.000000
734.263916	0.000000
734.301819	0.000000
734.339783	0.000000
734.377686	0.000000
734.415588	0.000000
734.453552	0.000000
734.491455	0.000000
734.529419	0.000000
734.567322	0.000000
734.605225	0.000000
734.643127	0.000000
734.681091	0.000000
734.718994	0.000000
734.756897	0.000000
734.794800	0.000000
734.832703	0.000000
734.870667	0.000000
734.908508	0.000000
734.946472	0.000000
734.984375	0.000000
735.022278	0.000000
735.060181	0.000000
735.098083	0.000000
735.135986	0.000000
735.173889	0.000000
735.211792	0.000000
735.249695	0.000000
735.287598	0.000000
735.325439	0.000000
735.363403	0.000000
735.401306	0.000000
735.439148	0.000000
735.477051	0.000000
735.515015	0.000000
735.552856	0.000000
735.590759	0.000000
735.628662	0.000000
735.666504	0.000000
735.704407	0.000000
735.742310	0.000000
735.780212	0.000000
735.818115	0.000000
735.856018	0.000000
735.893860	0.000000
735.931763	0.000000
735.969604	0.000000
736.007507	0.000000
736.045410	0.000000
736.083252	0.000000
736.121094	0.000000
736.158997	0.000000
736.196838	0.000000
736.234741	0.000000
736.272644	0.000000
736.310486	0.000000
736.348389	0.000000
736.386230	0.000000
736.424072	0.000000
736.461975	0.000000
736.499878	0.000000
736.537720	0.000000
736.575562	0.000000
736.613403	0.000000
736.651306	0.000000
736.689148	0.000000
736.726990	0.000000
736.764893	0.000000
736.802734	0.000000
736.840576	0.000000
736.878418	0.000000
736.916321	0.000000
736.954102	0.000000
736.992004	0.000000
737.029846	0.000000
737.067688	0.000000
737.105530	0.000000
737.143372	0.000000
737.181213	0.000000
737.219116	0.000000
737.256897	0.000000
737.294739	0.000000
737.332642	0.000000
737.370422	0.000000
737.408325	0.000000
737.446167	0.000000
737.483948	0.000000
737.521790	0.000000
737.559692	0.000000
737.597473	0.000000
737.635315	0.000000
737.673157	0.000000
737.710999	0.000000
737.748840	0.000000
737.786621	0.000000
737.824463	0.000000
737.862305	0.000000
737.900085	0.000000
737.937927	0.000000
737.975769	0.000000
738.013550	0.000000
738.051392	0.000000
738.089233	0.000000
738.127014	0.000000
738.164856	0.000000
738.202698	0.000000
738.240479	0.000000
738.278320	0.000000
738.316162	0.000000
738.353943	0.000000
738.391785	0.000000
738.429565	0.000000
738.467407	0.000000
738.505188	0.000000
738.542969	0.000000
738.580811	0.000000
738.618652	0.000000
738.656372	0.000000
738.694214	0.000000
738.732056	0.000000
738.769836	0.000000
738.807617	0.000000
738.845459	0.000000
738.883240	0.000000
738.921021	0.000000
738.958862	0.000000
738.996582	0.000000
739.034424	0.000000
739.072205	0.000000
739.109985	0.000000
739.147827	0.000000
739.185547	0.000000
739.223389	0.000000
739.261169	0.000000
739.298889	0.000000
739.336731	0.000000
739.374512	0.000000
739.412292	0.000000
739.450073	0.000000
739.487854	0.000000
739.525635	0.000000
739.563416	0.000000
739.601135	0.000000
739.638977	0.000000
739.676758	0.000000
739.714478	0.000000
739.752258	0.000000
739.790100	0.000000
739.827820	0.000000
739.865601	0.000000
739.903381	0.000000
739.941101	0.000000
739.978882	194.600000
740.016724	190.900000
740.054443	194.700000
740.092224	189.800000
740.130005	189.800000
740.167725	189.800000
740.205505	189.200000
740.243225	196.600000
740.281006	192.700000
740.318787	187.100000
740.356506	196.700000
740.394287	196.000000
740.432068	188.000000
740.469727	188.100000
740.507507	196.300000
740.545288	192.300000
740.583008	193.200000
740.620789	191.300000
740.658569	187.100000
740.696228	192.300000
740.734009	195.500000
740.771790	184.100000
740.809509	194.100000
740.847229	188.100000
740.884949	189.300000
740.922729	187.200000
740.960449	189.500000
740.998169	190.200000
741.035950	187.400000
741.073669	192.800000
741.111389	191.600000
741.149170	199.900000
741.186890	199.100000
741.224609	195.200000
741.262329	192.200000
741.300110	198.600000
741.337769	186.900000
741.375549	188.300000
741.413208	191.700000
741.450989	191.000000
741.488708	190.500000
741.526367	190.300000
741.564148	195.000000
741.601868	195.900000
741.639526	190.800000
741.677307	193.900000
741.715027	192.600000
741.752686	189.600000
741.790466	198.700000
741.828186	193.500000
741.865845	188.600000
741.903564	186.700000
741.941345	191.800000
741.979004	189.400000
742.016724	195.000000
742.054382	191.800000
742.092102	195.300000
742.129822	186.500000
742.167480	190.700000
742.205200	191.100000
742.242920	194.100000
742.280640	195.900000
742.318359	189.500000
742.356079	189.900000
742.393738	194.800000
742.431396	189.700000
742.469116	195.200000
742.506775	185.000000
742.544495	193.900000
742.582214	194.200000
742.619873	191.500000
742.657593	196.200000
742.695251	195.400000
742.732971	190.700000
742.770630	192.900000
742.808289	192.100000
742.846008	191.400000
742.883728	192.500000
742.921326	192.100000
742.959045	189.600000
742.996765	191.300000
743.034424	192.200000
743.072083	190.700000
743.109802	190.200000
743.147400	188.000000
743.185120	192.500000
743.222839	192.100000
743.260437	198.000000
743.298157	193.600000
743.335754	185.900000
743.373474	191.300000
743.411133	186.800000
743.448792	193.700000
743.486450	193.200000
743.524170	187.400000
743.561768	192.800000
743.599487	197.500000
743.637146	199.600000
743.674744	191.200000
743.712463	190.800000
743.750122	193.800000
743.787720	193.500000
743.825439	190.100000
743.863037	190.700000
743.900696	191.400000
743.938416	218.300000
743.976013	191.300000
744.013672	199.100000
744.051331	195.500000
744.088928	198.500000
744.126587	195.900000
744.164307	194.500000
744.201904	189.600000
744.239563	194.300000
744.277222	194.500000
744.314819	192.500000
744.352478	196.300000
744.390137	194.300000
744.427734	192.600000
744.465393	190.600000
744.502991	188.700000
744.540649	193.600000
744.578308	192.200000
744.615906	188.100000
744.653564	184.200000
744.691223	195.100000
744.728821	186.300000
744.766418	192.400000
744.804077	194.400000
744.841675	191.300000
744.879333	187.600000
744.916992	191.600000
744.954529	191.300000
744.992187	195.800000
745.029785	191.200000
745.067444	190.200000
745.105042	192.200000
745.142639	194.100000
745.180298	201.800000
745.217896	190.700000
745.255493	191.300000
745.293152	195.300000
745.330750	197.200000
745.368347	196.700000
745.405945	194.500000
745.443604	192.400000
745.481140	194.700000
745.518799	191.100000
745.556396	195.000000
745.593994	192.600000
745.631592	193.600000
745.669189	187.700000
745.706787	191.900000
745.744385	188.000000
745.781982	194.200000
745.819580	189.400000
745.857178	191.600000
745.894775	190.800000
745.932373	194.000000
745.969971	192.500000
746.007568	186.900000
746.045166	198.100000
746.082764	197.100000
746.120300	193.300000
746.157898	194.000000
746.195557	192.400000
746.233093	187.700000
746.270691	194.200000
746.308228	194.100000
746.345825	195.500000
746.383423	194.100000
746.420959	189.900000
746.458557	191.300000
746.496155	190.400000
746.533691	194.200000
746.571289	189.400000
746.608887	193.000000
746.646423	193.500000
746.684021	193.100000
746.721619	191.000000
746.759155	195.000000
746.796753	187.200000
746.834351	186.500000
746.871826	191.700000
746.909424	195.700000
746.946960	191.500000
746.984558	191.100000
747.022156	192.100000
747.059631	197.300000
747.097229	194.600000
747.134827	189.500000
747.172363	196.000000
747.209900	194.500000
747.247498	189.800000
747.285034	196.000000
747.322571	196.800000
747.360168	190.600000
747.397644	186.500000
747.435242	192.300000
747.472778	196.200000
747.510315	188.400000
747.547913	190.500000
747.585388	196.700000
747.622925	191.100000
747.660522	186.600000
747.697998	190.700000
747.735596	190.700000
747.773132	190.500000
747.810669	192.100000
747.848206	195.000000
747.885742	188.900000
747.923279	188.100000
747.960815	191.400000
747.998352	193.700000
748.035889	195.600000
748.073425	195.200000
748.110901	190.000000
748.148437	188.200000
748.185974	192.300000
748.223511	200.000000
748.261047	194.800000
748.298584	193.300000
748.336060	192.900000
748.373596	193.600000
748.411133	217.600000
748.448608	188.700000
748.486145	195.600000
748.523682	196.400000
748.561218	198.700000
748.598755	191.100000
748.636292	195.600000
748.673706	191.900000
748.711243	199.300000
748.748718	191.600000
748.786255	192.500000
748.823792	191.900000
748.861267	188.600000
748.898804	195.000000
748.936340	194.000000
748.973816	191.500000
749.011292	197.900000
749.048828	193.600000
749.086304	194.800000
749.123840	200.500000
749.161316	188.700000
749.198792	198.600000
749.236328	196.300000
749.273743	191.200000
749.311279	192.000000
749.348816	196.400000
749.386230	193.400000
749.423767	183.200000
749.461304	196.100000
749.498718	192.800000
749.536255	197.900000
749.573730	200.700000
749.611206	198.100000
749.648682	191.700000
749.686218	192.300000
749.723633	194.700000
749.761169	192.200000
749.798645	191.400000
749.836060	190.800000
749.873596	188.600000
749.911011	192.800000
749.948547	197.400000
749.986023	191.000000
750.023437	192.000000
750.060913	186.800000
750.098450	187.900000
750.135864	191.000000
750.173340	191.000000
750.210815	196.500000
750.248291	189.500000
750.285767	191.000000
750.323242	196.300000
750.360657	193.900000
750.398132	188.600000
750.435608	193.100000
750.473022	189.200000
750.510498	187.400000
750.547974	189.400000
750.585449	191.100000
750.622925	184.600000
750.660339	201.900000
750.697815	192.800000
750.735291	191.200000
750.772644	191.800000
750.810120	193.500000
750.847595	194.800000
750.885010	188.800000
750.922485	198.700000
750.959961	191.300000
750.997375	197.300000
751.034851	195.100000
751.072266	197.400000
751.109680	186.400000
751.147156	197.700000
751.184570	193.700000
751.221985	193.500000
751.259460	186.200000
751.296875	192.300000
751.334290	192.100000
751.371765	196.000000
751.409180	196.300000
751.446594	197.600000
751.484070	193.500000
751.521423	191.800000
751.558899	193.600000
751.596375	199.500000
751.633728	196.800000
751.671204	200.300000
751.708618	188.800000
751.746033	191.700000
751.783447	187.600000
751.820801	189.300000
751.858276	194.300000
751.895691	190.500000
751.933105	191.000000
751.970520	188.200000
752.007935	189.500000
752.045349	193.900000
752.082764	192.100000
752.120178	190.000000
752.157532	190.000000
752.195007	188.200000
752.232422	195.700000
752.269775	196.300000
752.307190	195.400000
752.344543	188.700000
752.382019	192.000000
752.419434	190.900000
752.456787	194.500000
752.494202	196.100000
752.531616	194.300000
752.568970	194.600000
752.606384	195.200000
752.643799	195.100000
752.681152	198.600000
752.718567	195.300000
752.755981	187.300000
752.793335	195.100000
752.830750	187.800000
752.868164	196.300000
752.905518	189.200000
752.942932	196.500000
752.980225	189.200000
753.017639	195.100000
753.055054	196.200000
753.092407	194.200000
753.129822	196.300000
753.167175	199.100000
753.204529	191.900000
753.241943	189.900000
753.279358	188.600000
753.316650	195.200000
753.354065	193.400000
753.391479	195.300000
753.428772	196.600000
753.466187	195.200000
753.503479	187.500000
753.540894	191.400000
753.578308	188.700000
753.615601	187.300000
753.653015	192.100000
753.690369	191.500000
753.727722	189.100000
753.765076	186.900000
753.802490	187.500000
753.839783	187.200000
753.877136	189.100000
753.914551	201.300000
753.951843	190.000000
753.989258	194.800000
754.026611	192.600000
754.063904	194.900000
754.101257	189.900000
754.138611	187.500000
754.175964	194.300000
754.213318	201.500000
754.250610	187.300000
754.288025	190.600000
754.325378	187.200000
754.362671	195.700000
754.400024	192.700000
754.437378	200.700000
754.474670	198.400000
754.512085	190.100000
754.549438	192.900000
754.586731	189.300000
754.624084	191.500000
754.661438	188.600000
754.698730	198.400000
754.736084	190.800000
754.773376	190.600000
754.810730	192.500000
754.848083	192.400000
754.885315	196.200000
754.922668	186.300000
754.960022	188.300000
754.997314	195.500000
755.034668	192.100000
755.072021	192.900000
755.109253	191.100000
755.146606	197.800000
755.183960	190.500000
755.221252	198.400000
755.258545	194.600000
755.295898	197.900000
755.333191	197.300000
755.370544	194.400000
755.407776	192.000000
755.445129	193.800000
755.482422	196.200000
755.519714	190.800000
755.557068	188.000000
755.594360	187.800000
755.631653	196.100000
755.668945	199.300000
755.706299	193.700000
755.743530	203.000000
755.780884	198.200000
755.818176	197.000000
755.855408	198.100000
755.892761	195.300000
755.930054	194.300000
755.967346	195.400000
756.004639	195.100000
756.041870	193.700000
756.079224	198.700000
756.116516	189.800000
756.153748	197.100000
756.191040	201.100000
756.228394	195.900000
756.265625	190.700000
756.302917	195.100000
756.340210	190.900000
756.377441	198.600000
756.414795	198.600000
756.452087	194.100000
756.489319	188.300000
756.526611	197.500000
756.563843	194.400000
756.601135	201.400000
756.638428	200.700000
756.675659	194.500000
756.712952	196.300000
756.750244	197.000000
756.787476	195.600000
756.824768	200.200000
756.862061	193.300000
756.899292	242.500000
756.936584	197.300000
756.973816	203.000000
757.011047	203.800000
757.048340	194.800000
757.085632	196.500000
757.122864	210.900000
757.160156	194.000000
757.197327	197.300000
757.234619	200.600000
757.271912	194.800000
757.309082	199.100000
757.346375	193.600000
757.383667	201.100000
757.420837	196.500000
757.458130	198.100000
757.495422	195.800000
757.532593	198.700000
757.569885	191.700000
757.607117	192.700000
757.644348	196.900000
757.681580	207.500000
757.718811	187.000000
757.756042	195.800000
757.793335	195.300000
757.830505	199.000000
757.867798	193.900000
757.905029	195.000000
757.942200	197.500000
757.979492	195.300000
758.016724	195.000000
758.053894	195.400000
758.091187	208.500000
758.128418	198.000000
758.165588	194.100000
758.202820	207.000000
758.240112	196.500000
758.277283	206.500000
758.314514	199.500000
758.351685	196.700000
758.388916	204.000000
758.426147	203.600000
758.463379	205.200000
758.500610	201.400000
758.537842	200.400000
758.575012	205.500000
758.612244	197.100000
758.649475	208.600000
758.686646	194.100000
758.723877	205.700000
758.761108	205.700000
758.798279	199.800000
758.835510	201.100000
758.872742	205.500000
758.909851	202.100000
758.947083	202.600000
758.984253	202.900000
759.021484	204.700000
759.058716	202.700000
759.095886	205.500000
759.133057	200.900000
759.170288	203.300000
759.207458	199.700000
759.244690	209.500000
759.281860	208.600000
759.319031	202.100000
759.356262	200.400000
759.393433	200.200000
759.430603	201.600000
759.467773	199.000000
759.505005	207.000000
759.542175	205.900000
759.579346	203.100000
759.616516	202.700000
759.653687	206.500000
759.690918	200.800000
759.728027	203.200000
759.765259	205.300000
759.802429	207.500000
759.839539	204.300000
759.876770	208.000000
759.913940	211.200000
759.951111	204.600000
759.988281	205.200000
760.025452	204.000000
760.062561	201.400000
760.099792	213.600000
760.136963	207.000000
760.174072	204.500000
760.211243	202.300000
760.248413	202.300000
760.285583	202.300000
760.322754	213.300000
760.359863	209.800000
760.397034	210.100000
760.434204	205.700000
760.471375	205.300000
760.508545	204.500000
760.545715	205.900000
760.582825	203.400000
760.619995	208.200000
760.657166	202.900000
760.694275	212.200000
760.731445	208.000000
760.768555	208.600000
760.805664	210.000000
760.842834	208.600000
760.879944	209.100000
760.917114	207.600000
760.954285	207.200000
760.991394	203.000000
761.028564	212.600000
761.065674	210.000000
761.102783	205.200000
761.139954	210.600000
761.177124	209.900000
761.214172	212.800000
761.251343	208.100000
761.288452	207.800000
761.325562	210.900000
761.362732	206.900000
761.399841	208.800000
761.436951	211.200000
761.474121	207.700000
761.511169	209.100000
761.548340	213.600000
761.585449	211.700000
761.622559	212.700000
761.659668	211.200000
761.696838	215.700000
761.733887	212.700000
761.771057	211.100000
761.808167	210.700000
761.845276	215.000000
761.882385	222.000000
761.919434	214.100000
761.956604	226.600000
761.993713	210.500000
762.030762	216.600000
762.067871	212.600000
762.105042	213.100000
762.142090	218.500000
762.179199	215.000000
762.216309	216.700000
762.253418	224.800000
762.290527	221.300000
762.327637	219.600000
762.364685	210.100000
762.401794	218.300000
762.438904	216.500000
762.475952	212.100000
762.513062	211.200000
762.550110	211.700000
762.587219	222.600000
762.624329	221.600000
762.661377	217.300000
762.698486	216.600000
762.735596	217.000000
762.772644	214.100000
762.809753	209.700000
762.846863	215.400000
762.883911	219.700000
762.921021	220.100000
762.958069	215.800000
762.995117	225.000000
763.032227	223.300000
763.069336	216.100000
763.106323	213.600000
763.143433	215.600000
763.180481	219.300000
763.217590	221.200000
763.254639	218.700000
763.291687	219.600000
763.328735	223.400000
763.365845	217.500000
763.402893	218.300000
763.439941	221.600000
763.477051	224.200000
763.514038	223.100000
763.551147	220.000000
763.588196	221.900000
763.625244	220.800000
763.662292	226.600000
763.699402	228.800000
763.736389	223.500000
763.773499	231.900000
763.810486	225.900000
763.847534	223.500000
763.884644	225.000000
763.921631	223.000000
763.958679	229.500000
763.995728	225.000000
764.032776	229.500000
764.069824	221.900000
764.106873	228.200000
764.143860	233.400000
764.180969	225.500000
764.218018	232.100000
764.255005	225.000000
764.292053	227.700000
764.329102	235.300000
764.366089	234.900000
764.403137	231.900000
764.440125	226.900000
764.477173	229.600000
764.514221	234.600000
764.551208	231.000000
764.588257	229.100000
764.625305	233.900000
764.662292	238.500000
764.699341	240.700000
764.736389	234.400000
764.773376	246.200000
764.810425	235.900000
764.847473	242.800000
764.884399	240.300000
764.921448	244.800000
764.958435	244.700000
764.995483	236.600000
765.032532	249.100000
765.069458	237.300000
765.106506	239.500000
765.143555	238.300000
765.180481	240.300000
765.217529	247.600000
765.254578	238.000000
765.291504	245.100000
765.328552	242.500000
765.365540	239.800000
765.402527	250.700000
765.439575	240.200000
765.476501	238.100000
765.513550	239.000000
765.550537	243.100000
765.587463	248.500000
765.624512	240.400000
765.661499	235.700000
765.698486	247.700000
765.735474	241.800000
765.772461	242.900000
765.809448	249.300000
765.846436	247.500000
765.883423	253.400000
765.920410	247.200000
765.957397	244.000000
765.994385	247.400000
766.031311	257.100000
766.068359	249.200000
766.105286	251.600000
766.142273	255.300000
766.179260	252.100000
766.216187	247.100000
766.253174	244.400000
766.290161	250.100000
766.327148	255.300000
766.364136	254.600000
766.401123	263.400000
766.438049	250.200000
766.475037	260.100000
766.512024	255.700000
766.548950	268.400000
766.585937	262.600000
766.622864	259.400000
766.659790	258.700000
766.696777	249.400000
766.733704	261.200000
766.770691	254.700000
766.807678	264.100000
766.844604	260.400000
766.881531	260.900000
766.918518	263.900000
766.955444	263.600000
766.992432	259.700000
767.029358	263.500000
767.066284	263.700000
767.103271	263.600000
767.140198	294.000000
767.177124	274.500000
767.214050	265.900000
767.251038	267.100000
767.287964	263.200000
767.324890	264.000000
767.361816	267.600000
767.398743	270.300000
767.435730	266.300000
767.472595	269.600000
767.509583	272.100000
767.546509	264.400000
767.583374	268.400000
767.620361	263.200000
767.657288	268.100000
767.694214	270.000000
767.731140	267.600000
767.768066	269.500000
767.804993	272.600000
767.841919	265.100000
767.878845	270.200000
767.915710	276.400000
767.952698	271.000000
767.989563	273.600000
768.026489	274.600000
