Model Number: SPM-001-M   
Serial Number: 10090201
Firmware Version: 004.17.6
Exposure Time: 300000.000000us
Data Taken on: 21-01-2021 14:20:18.782
Wavelength	Amplitude
733.770752	0.000000
733.808716	0.000000
733.846619	0.000000
733.884583	0.000000
733.922546	0.000000
733.960449	0.000000
733.998413	0.000000
734.036377	0.000000
734.074219	0.000000
734.112183	0.000000
734.150085	0.000000
734.188049	0.000000
734.226013	0.000000
734.263916	0.000000
734.301819	0.000000
734.339783	0.000000
734.377686	0.000000
734.415588	0.000000
734.453552	0.000000
734.491455	0.000000
734.529419	0.000000
734.567322	0.000000
734.605225	0.000000
734.643127	0.000000
734.681091	0.000000
734.718994	0.000000
734.756897	0.000000
734.794800	0.000000
734.832703	0.000000
734.870667	0.000000
734.908508	0.000000
734.946472	0.000000
734.984375	0.000000
735.022278	0.000000
735.060181	0.000000
735.098083	0.000000
735.135986	0.000000
735.173889	0.000000
735.211792	0.000000
735.249695	0.000000
735.287598	0.000000
735.325439	0.000000
735.363403	0.000000
735.401306	0.000000
735.439148	0.000000
735.477051	0.000000
735.515015	0.000000
735.552856	0.000000
735.590759	0.000000
735.628662	0.000000
735.666504	0.000000
735.704407	0.000000
735.742310	0.000000
735.780212	0.000000
735.818115	0.000000
735.856018	0.000000
735.893860	0.000000
735.931763	0.000000
735.969604	0.000000
736.007507	0.000000
736.045410	0.000000
736.083252	0.000000
736.121094	0.000000
736.158997	0.000000
736.196838	0.000000
736.234741	0.000000
736.272644	0.000000
736.310486	0.000000
736.348389	0.000000
736.386230	0.000000
736.424072	0.000000
736.461975	0.000000
736.499878	0.000000
736.537720	0.000000
736.575562	0.000000
736.613403	0.000000
736.651306	0.000000
736.689148	0.000000
736.726990	0.000000
736.764893	0.000000
736.802734	0.000000
736.840576	0.000000
736.878418	0.000000
736.916321	0.000000
736.954102	0.000000
736.992004	0.000000
737.029846	0.000000
737.067688	0.000000
737.105530	0.000000
737.143372	0.000000
737.181213	0.000000
737.219116	0.000000
737.256897	0.000000
737.294739	0.000000
737.332642	0.000000
737.370422	0.000000
737.408325	0.000000
737.446167	0.000000
737.483948	0.000000
737.521790	0.000000
737.559692	0.000000
737.597473	0.000000
737.635315	0.000000
737.673157	0.000000
737.710999	0.000000
737.748840	0.000000
737.786621	0.000000
737.824463	0.000000
737.862305	0.000000
737.900085	0.000000
737.937927	0.000000
737.975769	0.000000
738.013550	0.000000
738.051392	0.000000
738.089233	0.000000
738.127014	0.000000
738.164856	0.000000
738.202698	0.000000
738.240479	0.000000
738.278320	0.000000
738.316162	0.000000
738.353943	0.000000
738.391785	0.000000
738.429565	0.000000
738.467407	0.000000
738.505188	0.000000
738.542969	0.000000
738.580811	0.000000
738.618652	0.000000
738.656372	0.000000
738.694214	0.000000
738.732056	0.000000
738.769836	0.000000
738.807617	0.000000
738.845459	0.000000
738.883240	0.000000
738.921021	0.000000
738.958862	0.000000
738.996582	0.000000
739.034424	0.000000
739.072205	0.000000
739.109985	0.000000
739.147827	0.000000
739.185547	0.000000
739.223389	0.000000
739.261169	0.000000
739.298889	0.000000
739.336731	0.000000
739.374512	0.000000
739.412292	0.000000
739.450073	0.000000
739.487854	0.000000
739.525635	0.000000
739.563416	0.000000
739.601135	0.000000
739.638977	0.000000
739.676758	0.000000
739.714478	0.000000
739.752258	0.000000
739.790100	0.000000
739.827820	0.000000
739.865601	0.000000
739.903381	0.000000
739.941101	0.000000
739.978882	194.100000
740.016724	190.700000
740.054443	193.600000
740.092224	188.700000
740.130005	189.100000
740.167725	188.600000
740.205505	188.900000
740.243225	197.000000
740.281006	191.500000
740.318787	186.800000
740.356506	197.300000
740.394287	193.900000
740.432068	187.600000
740.469727	186.800000
740.507507	194.800000
740.545288	192.000000
740.583008	192.800000
740.620789	192.300000
740.658569	186.500000
740.696228	193.000000
740.734009	195.200000
740.771790	184.200000
740.809509	195.100000
740.847229	187.700000
740.884949	189.900000
740.922729	186.700000
740.960449	191.300000
740.998169	188.100000
741.035950	189.700000
741.073669	192.400000
741.111389	192.200000
741.149170	200.600000
741.186890	198.300000
741.224609	193.300000
741.262329	193.300000
741.300110	197.700000
741.337769	188.400000
741.375549	187.800000
741.413208	192.500000
741.450989	188.300000
741.488708	189.500000
741.526367	189.400000
741.564148	194.300000
741.601868	193.400000
741.639526	189.700000
741.677307	193.100000
741.715027	194.000000
741.752686	188.700000
741.790466	195.600000
741.828186	193.500000
741.865845	188.000000
741.903564	186.500000
741.941345	191.600000
741.979004	187.800000
742.016724	194.300000
742.054382	191.500000
742.092102	196.200000
742.129822	187.400000
742.167480	190.300000
742.205200	190.200000
742.242920	193.600000
742.280640	194.700000
742.318359	188.600000
742.356079	191.000000
742.393738	195.200000
742.431396	191.000000
742.469116	194.800000
742.506775	185.100000
742.544495	193.500000
742.582214	194.400000
742.619873	191.800000
742.657593	197.300000
742.695251	196.300000
742.732971	190.300000
742.770630	193.600000
742.808289	192.900000
742.846008	190.500000
742.883728	192.800000
742.921326	192.400000
742.959045	190.700000
742.996765	191.400000
743.034424	193.400000
743.072083	189.300000
743.109802	191.500000
743.147400	187.500000
743.185120	192.500000
743.222839	191.300000
743.260437	197.400000
743.298157	192.200000
743.335754	185.000000
743.373474	190.300000
743.411133	186.200000
743.448792	191.000000
743.486450	192.200000
743.524170	186.100000
743.561768	190.800000
743.599487	195.900000
743.637146	200.000000
743.674744	190.200000
743.712463	190.400000
743.750122	191.600000
743.787720	192.500000
743.825439	189.700000
743.863037	191.200000
743.900696	191.100000
743.938416	217.400000
743.976013	192.500000
744.013672	198.000000
744.051331	195.000000
744.088928	199.300000
744.126587	196.100000
744.164307	192.300000
744.201904	189.700000
744.239563	192.500000
744.277222	195.200000
744.314819	191.800000
744.352478	196.600000
744.390137	192.400000
744.427734	193.700000
744.465393	189.700000
744.502991	189.700000
744.540649	193.700000
744.578308	191.900000
744.615906	188.300000
744.653564	184.900000
744.691223	194.700000
744.728821	185.400000
744.766418	191.900000
744.804077	194.000000
744.841675	190.400000
744.879333	187.500000
744.916992	191.200000
744.954529	189.800000
744.992187	194.800000
745.029785	191.200000
745.067444	189.700000
745.105042	192.200000
745.142639	192.000000
745.180298	201.100000
745.217896	190.500000
745.255493	190.700000
745.293152	195.000000
745.330750	197.700000
745.368347	196.700000
745.405945	196.000000
745.443604	191.900000
745.481140	195.600000
745.518799	191.900000
745.556396	195.000000
745.593994	193.900000
745.631592	193.800000
745.669189	189.000000
745.706787	192.400000
745.744385	189.500000
745.781982	194.900000
745.819580	190.100000
745.857178	192.100000
745.894775	192.200000
745.932373	192.500000
745.969971	193.200000
746.007568	187.100000
746.045166	198.200000
746.082764	196.100000
746.120300	194.600000
746.157898	193.100000
746.195557	191.100000
746.233093	187.600000
746.270691	192.700000
746.308228	193.200000
746.345825	194.500000
746.383423	194.500000
746.420959	189.200000
746.458557	190.500000
746.496155	189.700000
746.533691	191.600000
746.571289	187.600000
746.608887	191.700000
746.646423	193.300000
746.684021	192.500000
746.721619	189.000000
746.759155	193.400000
746.796753	187.400000
746.834351	186.900000
746.871826	189.200000
746.909424	197.800000
746.946960	190.900000
746.984558	191.100000
747.022156	191.700000
747.059631	198.500000
747.097229	195.100000
747.134827	190.700000
747.172363	196.100000
747.209900	194.400000
747.247498	188.900000
747.285034	196.600000
747.322571	197.700000
747.360168	191.700000
747.397644	185.900000
747.435242	195.000000
747.472778	196.500000
747.510315	189.100000
747.547913	191.100000
747.585388	196.800000
747.622925	190.800000
747.660522	185.700000
747.697998	189.500000
747.735596	191.000000
747.773132	189.300000
747.810669	190.900000
747.848206	193.500000
747.885742	187.600000
747.923279	187.300000
747.960815	192.100000
747.998352	192.300000
748.035889	195.200000
748.073425	194.700000
748.110901	189.800000
748.148437	187.400000
748.185974	190.900000
748.223511	198.800000
748.261047	194.500000
748.298584	193.100000
748.336060	191.600000
748.373596	193.100000
748.411133	218.000000
748.448608	188.900000
748.486145	194.200000
748.523682	197.100000
748.561218	199.800000
748.598755	192.900000
748.636292	192.600000
748.673706	190.700000
748.711243	199.500000
748.748718	193.300000
748.786255	192.600000
748.823792	190.800000
748.861267	188.300000
748.898804	193.800000
748.936340	194.600000
748.973816	190.300000
749.011292	197.100000
749.048828	192.600000
749.086304	193.100000
749.123840	200.000000
749.161316	189.100000
749.198792	198.900000
749.236328	196.500000
749.273743	192.500000
749.311279	190.900000
749.348816	194.000000
749.386230	192.400000
749.423767	183.700000
749.461304	194.700000
749.498718	191.200000
749.536255	196.300000
749.573730	199.700000
749.611206	196.300000
749.648682	189.900000
749.686218	192.000000
749.723633	192.900000
749.761169	191.100000
749.798645	188.500000
749.836060	189.800000
749.873596	189.300000
749.911011	194.200000
749.948547	197.600000
749.986023	191.800000
750.023437	191.800000
750.060913	188.100000
750.098450	187.900000
750.135864	191.000000
750.173340	191.500000
750.210815	195.600000
750.248291	188.100000
750.285767	192.400000
750.323242	195.700000
750.360657	194.100000
750.398132	188.600000
750.435608	193.900000
750.473022	188.700000
750.510498	189.500000
750.547974	187.700000
750.585449	191.600000
750.622925	184.900000
750.660339	202.200000
750.697815	191.500000
750.735291	191.800000
750.772644	191.100000
750.810120	193.300000
750.847595	194.100000
750.885010	187.100000
750.922485	198.300000
750.959961	191.100000
750.997375	197.800000
751.034851	194.600000
751.072266	193.900000
751.109680	186.700000
751.147156	196.500000
751.184570	193.700000
751.221985	191.900000
751.259460	186.400000
751.296875	191.300000
751.334290	191.400000
751.371765	193.900000
751.409180	195.200000
751.446594	196.800000
751.484070	194.000000
751.521423	193.000000
751.558899	192.000000
751.596375	200.000000
751.633728	197.200000
751.671204	200.100000
751.708618	190.400000
751.746033	194.100000
751.783447	187.200000
751.820801	189.700000
751.858276	196.200000
751.895691	191.900000
751.933105	192.100000
751.970520	188.300000
752.007935	190.100000
752.045349	196.700000
752.082764	192.200000
752.120178	190.300000
752.157532	190.500000
752.195007	191.500000
752.232422	194.100000
752.269775	194.800000
752.307190	194.300000
752.344543	188.700000
752.382019	192.200000
752.419434	189.800000
752.456787	194.600000
752.494202	195.300000
752.531616	192.600000
752.568970	194.400000
752.606384	193.900000
752.643799	194.200000
752.681152	197.600000
752.718567	195.100000
752.755981	186.900000
752.793335	194.000000
752.830750	186.300000
752.868164	196.200000
752.905518	188.700000
752.942932	194.500000
752.980225	188.400000
753.017639	195.500000
753.055054	195.900000
753.092407	193.500000
753.129822	196.500000
753.167175	199.100000
753.204529	191.800000
753.241943	190.600000
753.279358	189.700000
753.316650	195.000000
753.354065	193.700000
753.391479	196.500000
753.428772	198.300000
753.466187	193.600000
753.503479	189.700000
753.540894	191.200000
753.578308	187.500000
753.615601	189.200000
753.653015	192.900000
753.690369	190.400000
753.727722	188.800000
753.765076	186.100000
753.802490	187.100000
753.839783	186.100000
753.877136	189.200000
753.914551	200.900000
753.951843	189.000000
753.989258	195.000000
754.026611	192.200000
754.063904	192.300000
754.101257	187.800000
754.138611	186.200000
754.175964	192.900000
754.213318	199.200000
754.250610	186.000000
754.288025	188.700000
754.325378	188.200000
754.362671	195.200000
754.400024	191.400000
754.437378	198.900000
754.474670	197.400000
754.512085	190.100000
754.549438	193.400000
754.586731	191.300000
754.624084	191.800000
754.661438	188.600000
754.698730	198.600000
754.736084	191.700000
754.773376	192.400000
754.810730	192.900000
754.848083	192.000000
754.885315	196.600000
754.922668	186.900000
754.960022	188.200000
754.997314	195.700000
755.034668	192.800000
755.072021	192.100000
755.109253	190.700000
755.146606	196.600000
755.183960	191.000000
755.221252	198.200000
755.258545	194.500000
755.295898	196.900000
755.333191	196.900000
755.370544	193.700000
755.407776	191.800000
755.445129	193.200000
755.482422	195.600000
755.519714	191.600000
755.557068	186.600000
755.594360	185.800000
755.631653	194.400000
755.668945	199.800000
755.706299	194.300000
755.743530	201.500000
755.780884	197.100000
755.818176	196.500000
755.855408	195.600000
755.892761	194.100000
755.930054	193.700000
755.967346	193.100000
756.004639	194.500000
756.041870	192.600000
756.079224	198.300000
756.116516	190.500000
756.153748	194.700000
756.191040	201.400000
756.228394	196.300000
756.265625	190.000000
756.302917	195.100000
756.340210	191.200000
756.377441	197.200000
756.414795	198.500000
756.452087	193.700000
756.489319	188.400000
756.526611	197.300000
756.563843	193.600000
756.601135	200.700000
756.638428	202.700000
756.675659	193.400000
756.712952	196.800000
756.750244	196.200000
756.787476	195.900000
756.824768	198.700000
756.862061	193.100000
756.899292	242.400000
756.936584	198.200000
756.973816	203.100000
757.011047	203.200000
757.048340	194.200000
757.085632	195.400000
757.122864	208.200000
757.160156	192.400000
757.197327	197.000000
757.234619	198.500000
757.271912	194.000000
757.309082	198.900000
757.346375	192.000000
757.383667	199.500000
757.420837	196.400000
757.458130	196.400000
757.495422	194.900000
757.532593	199.300000
757.569885	191.800000
757.607117	192.700000
757.644348	197.400000
757.681580	207.500000
757.718811	187.100000
757.756042	196.900000
757.793335	194.300000
757.830505	198.100000
757.867798	194.700000
757.905029	195.400000
757.942200	197.300000
757.979492	194.400000
758.016724	196.500000
758.053894	195.800000
758.091187	210.100000
758.128418	197.800000
758.165588	196.000000
758.202820	206.000000
758.240112	198.000000
758.277283	205.000000
758.314514	197.700000
758.351685	195.800000
758.388916	203.000000
758.426147	203.900000
758.463379	204.200000
758.500610	199.600000
758.537842	198.800000
758.575012	202.100000
758.612244	195.700000
758.649475	206.400000
758.686646	194.700000
758.723877	204.200000
758.761108	204.200000
758.798279	197.900000
758.835510	201.100000
758.872742	204.800000
758.909851	201.800000
758.947083	202.500000
758.984253	201.900000
759.021484	204.000000
759.058716	203.900000
759.095886	204.300000
759.133057	200.600000
759.170288	204.000000
759.207458	199.700000
759.244690	210.100000
759.281860	207.800000
759.319031	201.800000
759.356262	200.900000
759.393433	200.400000
759.430603	201.800000
759.467773	200.600000
759.505005	206.300000
759.542175	206.800000
759.579346	201.400000
759.616516	202.200000
759.653687	205.400000
759.690918	200.200000
759.728027	202.700000
759.765259	204.600000
759.802429	205.800000
759.839539	204.300000
759.876770	208.900000
759.913940	211.000000
759.951111	203.900000
759.988281	204.800000
760.025452	202.700000
760.062561	199.800000
760.099792	212.600000
760.136963	206.400000
760.174072	202.800000
760.211243	201.700000
760.248413	201.100000
760.285583	201.400000
760.322754	212.700000
760.359863	209.600000
760.397034	209.900000
760.434204	204.700000
760.471375	206.200000
760.508545	203.300000
760.545715	204.600000
760.582825	202.500000
760.619995	209.200000
760.657166	202.200000
760.694275	212.100000
760.731445	208.000000
760.768555	208.300000
760.805664	210.400000
760.842834	207.900000
760.879944	210.600000
760.917114	208.600000
760.954285	206.600000
760.991394	203.500000
761.028564	212.000000
761.065674	210.500000
761.102783	205.100000
761.139954	210.800000
761.177124	212.000000
761.214172	214.200000
761.251343	206.800000
761.288452	207.000000
761.325562	211.100000
761.362732	206.600000
761.399841	207.500000
761.436951	212.100000
761.474121	208.000000
761.511169	208.000000
761.548340	214.200000
761.585449	211.700000
761.622559	212.000000
761.659668	210.600000
761.696838	213.400000
761.733887	210.400000
761.771057	210.600000
761.808167	208.600000
761.845276	215.000000
761.882385	220.600000
761.919434	210.800000
761.956604	225.700000
761.993713	209.800000
762.030762	216.700000
762.067871	210.200000
762.105042	212.300000
762.142090	217.800000
762.179199	213.400000
762.216309	217.200000
762.253418	225.000000
762.290527	220.700000
762.327637	217.500000
762.364685	211.400000
762.401794	218.200000
762.438904	217.300000
762.475952	213.000000
762.513062	209.700000
762.550110	213.100000
762.587219	221.600000
762.624329	221.400000
762.661377	218.600000
762.698486	216.700000
762.735596	217.400000
762.772644	213.100000
762.809753	211.700000
762.846863	215.900000
762.883911	220.100000
762.921021	218.100000
762.958069	215.400000
762.995117	221.700000
763.032227	223.800000
763.069336	215.900000
763.106323	214.600000
763.143433	212.700000
763.180481	217.200000
763.217590	217.900000
763.254639	215.600000
763.291687	216.300000
763.328735	224.500000
763.365845	218.800000
763.402893	217.700000
763.439941	219.700000
763.477051	221.900000
763.514038	222.700000
763.551147	217.800000
763.588196	220.700000
763.625244	221.300000
763.662292	226.300000
763.699402	227.800000
763.736389	224.500000
763.773499	232.000000
763.810486	226.200000
763.847534	223.800000
763.884644	225.400000
763.921631	224.600000
763.958679	231.100000
763.995728	225.900000
764.032776	230.400000
764.069824	220.700000
764.106873	228.900000
764.143860	233.800000
764.180969	223.700000
764.218018	231.100000
764.255005	225.100000
764.292053	228.000000
764.329102	235.400000
764.366089	235.100000
764.403137	232.700000
764.440125	229.100000
764.477173	230.000000
764.514221	231.900000
764.551208	230.200000
764.588257	226.700000
764.625305	233.800000
764.662292	238.000000
764.699341	240.500000
764.736389	233.800000
764.773376	245.700000
764.810425	235.600000
764.847473	241.700000
764.884399	237.400000
764.921448	244.300000
764.958435	243.300000
764.995483	236.900000
765.032532	248.600000
765.069458	237.600000
765.106506	236.900000
765.143555	237.900000
765.180481	241.500000
765.217529	247.700000
765.254578	237.100000
765.291504	244.100000
765.328552	241.000000
765.365540	239.200000
765.402527	249.800000
765.439575	239.700000
765.476501	238.300000
765.513550	237.400000
765.550537	242.800000
765.587463	249.400000
765.624512	240.900000
765.661499	235.300000
765.698486	249.000000
765.735474	239.800000
765.772461	243.400000
765.809448	250.400000
765.846436	246.900000
765.883423	250.200000
765.920410	246.300000
765.957397	243.300000
765.994385	250.400000
766.031311	255.100000
766.068359	248.100000
766.105286	249.200000
766.142273	255.100000
766.179260	250.400000
766.216187	248.000000
766.253174	244.500000
766.290161	250.900000
766.327148	253.600000
766.364136	252.600000
766.401123	262.600000
766.438049	248.600000
766.475037	258.700000
766.512024	255.800000
766.548950	266.200000
766.585937	261.300000
766.622864	258.200000
766.659790	257.900000
766.696777	250.400000
766.733704	259.600000
766.770691	254.200000
766.807678	264.900000
766.844604	260.500000
766.881531	259.300000
766.918518	264.500000
766.955444	264.200000
766.992432	260.600000
767.029358	264.300000
767.066284	265.100000
767.103271	263.300000
767.140198	293.900000
767.177124	274.300000
767.214050	267.000000
767.251038	267.900000
767.287964	264.200000
767.324890	262.000000
767.361816	266.100000
767.398743	270.900000
767.435730	266.500000
767.472595	268.000000
767.509583	272.600000
767.546509	265.400000
767.583374	269.000000
767.620361	262.900000
767.657288	268.900000
767.694214	270.200000
767.731140	268.600000
767.768066	268.800000
767.804993	270.500000
767.841919	264.500000
767.878845	269.600000
767.915710	276.100000
767.952698	270.900000
767.989563	273.900000
768.026489	275.500000
