Model Number: SPM-001-M   
Serial Number: 10090201
Firmware Version: 004.17.6
Exposure Time: 300000.000000us
Data Taken on: 21-01-2021 14:52:04.663
Wavelength	Amplitude
733.770752	0.000000
733.808716	0.000000
733.846619	0.000000
733.884583	0.000000
733.922546	0.000000
733.960449	0.000000
733.998413	0.000000
734.036377	0.000000
734.074219	0.000000
734.112183	0.000000
734.150085	0.000000
734.188049	0.000000
734.226013	0.000000
734.263916	0.000000
734.301819	0.000000
734.339783	0.000000
734.377686	0.000000
734.415588	0.000000
734.453552	0.000000
734.491455	0.000000
734.529419	0.000000
734.567322	0.000000
734.605225	0.000000
734.643127	0.000000
734.681091	0.000000
734.718994	0.000000
734.756897	0.000000
734.794800	0.000000
734.832703	0.000000
734.870667	0.000000
734.908508	0.000000
734.946472	0.000000
734.984375	0.000000
735.022278	0.000000
735.060181	0.000000
735.098083	0.000000
735.135986	0.000000
735.173889	0.000000
735.211792	0.000000
735.249695	0.000000
735.287598	0.000000
735.325439	0.000000
735.363403	0.000000
735.401306	0.000000
735.439148	0.000000
735.477051	0.000000
735.515015	0.000000
735.552856	0.000000
735.590759	0.000000
735.628662	0.000000
735.666504	0.000000
735.704407	0.000000
735.742310	0.000000
735.780212	0.000000
735.818115	0.000000
735.856018	0.000000
735.893860	0.000000
735.931763	0.000000
735.969604	0.000000
736.007507	0.000000
736.045410	0.000000
736.083252	0.000000
736.121094	0.000000
736.158997	0.000000
736.196838	0.000000
736.234741	0.000000
736.272644	0.000000
736.310486	0.000000
736.348389	0.000000
736.386230	0.000000
736.424072	0.000000
736.461975	0.000000
736.499878	0.000000
736.537720	0.000000
736.575562	0.000000
736.613403	0.000000
736.651306	0.000000
736.689148	0.000000
736.726990	0.000000
736.764893	0.000000
736.802734	0.000000
736.840576	0.000000
736.878418	0.000000
736.916321	0.000000
736.954102	0.000000
736.992004	0.000000
737.029846	0.000000
737.067688	0.000000
737.105530	0.000000
737.143372	0.000000
737.181213	0.000000
737.219116	0.000000
737.256897	0.000000
737.294739	0.000000
737.332642	0.000000
737.370422	0.000000
737.408325	0.000000
737.446167	0.000000
737.483948	0.000000
737.521790	0.000000
737.559692	0.000000
737.597473	0.000000
737.635315	0.000000
737.673157	0.000000
737.710999	0.000000
737.748840	0.000000
737.786621	0.000000
737.824463	0.000000
737.862305	0.000000
737.900085	0.000000
737.937927	0.000000
737.975769	0.000000
738.013550	0.000000
738.051392	0.000000
738.089233	0.000000
738.127014	0.000000
738.164856	0.000000
738.202698	0.000000
738.240479	0.000000
738.278320	0.000000
738.316162	0.000000
738.353943	0.000000
738.391785	0.000000
738.429565	0.000000
738.467407	0.000000
738.505188	0.000000
738.542969	0.000000
738.580811	0.000000
738.618652	0.000000
738.656372	0.000000
738.694214	0.000000
738.732056	0.000000
738.769836	0.000000
738.807617	0.000000
738.845459	0.000000
738.883240	0.000000
738.921021	0.000000
738.958862	0.000000
738.996582	0.000000
739.034424	0.000000
739.072205	0.000000
739.109985	0.000000
739.147827	0.000000
739.185547	0.000000
739.223389	0.000000
739.261169	0.000000
739.298889	0.000000
739.336731	0.000000
739.374512	0.000000
739.412292	0.000000
739.450073	0.000000
739.487854	0.000000
739.525635	0.000000
739.563416	0.000000
739.601135	0.000000
739.638977	0.000000
739.676758	0.000000
739.714478	0.000000
739.752258	0.000000
739.790100	0.000000
739.827820	0.000000
739.865601	0.000000
739.903381	0.000000
739.941101	0.000000
739.978882	195.400000
740.016724	191.100000
740.054443	196.500000
740.092224	190.100000
740.130005	190.600000
740.167725	190.300000
740.205505	189.700000
740.243225	197.800000
740.281006	193.400000
740.318787	187.800000
740.356506	198.200000
740.394287	195.500000
740.432068	189.200000
740.469727	187.600000
740.507507	196.100000
740.545288	192.800000
740.583008	195.100000
740.620789	192.700000
740.658569	188.100000
740.696228	193.200000
740.734009	197.100000
740.771790	183.900000
740.809509	195.700000
740.847229	189.000000
740.884949	191.600000
740.922729	187.900000
740.960449	192.500000
740.998169	190.200000
741.035950	190.700000
741.073669	192.200000
741.111389	194.700000
741.149170	201.200000
741.186890	200.200000
741.224609	194.700000
741.262329	194.000000
741.300110	198.400000
741.337769	189.700000
741.375549	187.900000
741.413208	193.900000
741.450989	188.600000
741.488708	189.900000
741.526367	189.500000
741.564148	195.600000
741.601868	195.800000
741.639526	192.600000
741.677307	193.800000
741.715027	193.800000
741.752686	189.300000
741.790466	197.600000
741.828186	194.900000
741.865845	188.900000
741.903564	188.400000
741.941345	192.000000
741.979004	189.500000
742.016724	195.500000
742.054382	192.400000
742.092102	195.500000
742.129822	188.400000
742.167480	191.200000
742.205200	191.200000
742.242920	194.200000
742.280640	195.600000
742.318359	189.100000
742.356079	192.700000
742.393738	195.300000
742.431396	193.000000
742.469116	195.500000
742.506775	185.500000
742.544495	193.900000
742.582214	195.800000
742.619873	192.900000
742.657593	200.300000
742.695251	196.900000
742.732971	191.800000
742.770630	194.200000
742.808289	194.600000
742.846008	192.300000
742.883728	194.200000
742.921326	192.700000
742.959045	190.700000
742.996765	192.500000
743.034424	193.400000
743.072083	190.600000
743.109802	192.200000
743.147400	188.700000
743.185120	193.700000
743.222839	191.800000
743.260437	198.400000
743.298157	194.400000
743.335754	187.200000
743.373474	192.500000
743.411133	187.300000
743.448792	193.000000
743.486450	192.000000
743.524170	188.100000
743.561768	192.500000
743.599487	197.800000
743.637146	199.400000
743.674744	190.900000
743.712463	191.200000
743.750122	193.100000
743.787720	194.200000
743.825439	191.600000
743.863037	188.900000
743.900696	193.300000
743.938416	218.800000
743.976013	192.400000
744.013672	197.100000
744.051331	196.400000
744.088928	199.600000
744.126587	198.300000
744.164307	194.900000
744.201904	191.100000
744.239563	194.300000
744.277222	195.100000
744.314819	192.600000
744.352478	197.400000
744.390137	193.700000
744.427734	194.600000
744.465393	189.900000
744.502991	190.600000
744.540649	193.400000
744.578308	193.400000
744.615906	187.400000
744.653564	185.100000
744.691223	194.300000
744.728821	187.100000
744.766418	191.800000
744.804077	194.100000
744.841675	190.700000
744.879333	188.500000
744.916992	192.100000
744.954529	190.900000
744.992187	196.200000
745.029785	191.200000
745.067444	190.800000
745.105042	192.700000
745.142639	193.300000
745.180298	199.900000
745.217896	191.700000
745.255493	190.800000
745.293152	196.100000
745.330750	197.200000
745.368347	197.500000
745.405945	195.600000
745.443604	192.700000
745.481140	194.600000
745.518799	192.600000
745.556396	194.800000
745.593994	195.900000
745.631592	193.900000
745.669189	189.000000
745.706787	193.500000
745.744385	190.500000
745.781982	195.200000
745.819580	191.700000
745.857178	192.200000
745.894775	193.400000
745.932373	192.900000
745.969971	194.900000
746.007568	185.600000
746.045166	200.200000
746.082764	196.800000
746.120300	194.200000
746.157898	195.000000
746.195557	191.800000
746.233093	188.400000
746.270691	194.300000
746.308228	193.600000
746.345825	195.600000
746.383423	195.700000
746.420959	189.500000
746.458557	192.100000
746.496155	190.500000
746.533691	194.200000
746.571289	189.000000
746.608887	193.100000
746.646423	193.700000
746.684021	193.300000
746.721619	190.700000
746.759155	194.000000
746.796753	187.700000
746.834351	187.700000
746.871826	190.100000
746.909424	198.600000
746.946960	191.900000
746.984558	192.400000
747.022156	190.900000
747.059631	201.300000
747.097229	194.400000
747.134827	191.200000
747.172363	196.300000
747.209900	194.700000
747.247498	188.500000
747.285034	197.000000
747.322571	196.500000
747.360168	192.800000
747.397644	186.800000
747.435242	195.900000
747.472778	195.900000
747.510315	191.400000
747.547913	190.700000
747.585388	197.200000
747.622925	190.500000
747.660522	187.800000
747.697998	191.400000
747.735596	190.600000
747.773132	190.100000
747.810669	192.600000
747.848206	194.300000
747.885742	188.800000
747.923279	189.200000
747.960815	194.400000
747.998352	192.300000
748.035889	196.400000
748.073425	195.000000
748.110901	190.300000
748.148437	189.200000
748.185974	193.200000
748.223511	200.400000
748.261047	195.100000
748.298584	194.000000
748.336060	191.500000
748.373596	193.900000
748.411133	216.900000
748.448608	192.000000
748.486145	195.100000
748.523682	197.700000
748.561218	201.100000
748.598755	194.000000
748.636292	195.000000
748.673706	193.700000
748.711243	199.100000
748.748718	194.500000
748.786255	192.400000
748.823792	193.900000
748.861267	188.900000
748.898804	196.400000
748.936340	195.500000
748.973816	191.100000
749.011292	198.200000
749.048828	193.500000
749.086304	193.900000
749.123840	202.000000
749.161316	190.700000
749.198792	199.400000
749.236328	196.200000
749.273743	193.400000
749.311279	192.900000
749.348816	195.600000
749.386230	192.300000
749.423767	183.400000
749.461304	194.900000
749.498718	192.600000
749.536255	197.600000
749.573730	201.100000
749.611206	198.600000
749.648682	191.800000
749.686218	192.200000
749.723633	195.000000
749.761169	193.000000
749.798645	189.800000
749.836060	192.400000
749.873596	188.900000
749.911011	195.100000
749.948547	196.400000
749.986023	193.000000
750.023437	192.700000
750.060913	188.300000
750.098450	188.200000
750.135864	193.300000
750.173340	192.300000
750.210815	197.500000
750.248291	189.900000
750.285767	192.700000
750.323242	196.300000
750.360657	195.300000
750.398132	189.100000
750.435608	195.200000
750.473022	190.500000
750.510498	190.100000
750.547974	189.300000
750.585449	192.000000
750.622925	185.700000
750.660339	203.100000
750.697815	193.400000
750.735291	193.700000
750.772644	192.300000
750.810120	194.600000
750.847595	194.200000
750.885010	188.900000
750.922485	198.000000
750.959961	191.800000
750.997375	197.700000
751.034851	196.000000
751.072266	197.200000
751.109680	187.200000
751.147156	197.700000
751.184570	193.600000
751.221985	192.200000
751.259460	187.100000
751.296875	192.500000
751.334290	190.900000
751.371765	196.300000
751.409180	195.700000
751.446594	197.400000
751.484070	193.900000
751.521423	195.300000
751.558899	193.500000
751.596375	200.900000
751.633728	197.800000
751.671204	202.300000
751.708618	189.000000
751.746033	194.600000
751.783447	187.000000
751.820801	189.500000
751.858276	195.700000
751.895691	192.900000
751.933105	190.100000
751.970520	188.700000
752.007935	190.500000
752.045349	197.800000
752.082764	193.000000
752.120178	191.400000
752.157532	190.600000
752.195007	191.800000
752.232422	193.000000
752.269775	197.000000
752.307190	196.100000
752.344543	189.700000
752.382019	191.700000
752.419434	192.000000
752.456787	196.400000
752.494202	196.700000
752.531616	194.200000
752.568970	194.500000
752.606384	193.700000
752.643799	194.000000
752.681152	198.200000
752.718567	194.400000
752.755981	188.100000
752.793335	195.300000
752.830750	187.700000
752.868164	197.000000
752.905518	189.600000
752.942932	196.100000
752.980225	188.900000
753.017639	196.200000
753.055054	195.800000
753.092407	193.200000
753.129822	198.100000
753.167175	199.300000
753.204529	194.200000
753.241943	190.200000
753.279358	189.700000
753.316650	195.100000
753.354065	196.100000
753.391479	196.900000
753.428772	199.100000
753.466187	193.200000
753.503479	190.300000
753.540894	191.000000
753.578308	189.300000
753.615601	189.500000
753.653015	193.300000
753.690369	190.800000
753.727722	190.900000
753.765076	186.800000
753.802490	189.000000
753.839783	187.000000
753.877136	190.900000
753.914551	202.500000
753.951843	190.700000
753.989258	194.700000
754.026611	193.700000
754.063904	194.100000
754.101257	189.500000
754.138611	188.000000
754.175964	194.200000
754.213318	200.100000
754.250610	188.200000
754.288025	191.200000
754.325378	188.200000
754.362671	195.800000
754.400024	191.900000
754.437378	199.800000
754.474670	199.000000
754.512085	190.200000
754.549438	193.000000
754.586731	190.600000
754.624084	192.100000
754.661438	190.300000
754.698730	198.900000
754.736084	192.300000
754.773376	191.600000
754.810730	194.400000
754.848083	192.100000
754.885315	197.200000
754.922668	187.000000
754.960022	189.400000
754.997314	195.900000
755.034668	193.700000
755.072021	192.900000
755.109253	191.300000
755.146606	196.900000
755.183960	192.500000
755.221252	199.800000
755.258545	196.200000
755.295898	196.600000
755.333191	197.700000
755.370544	195.300000
755.407776	193.500000
755.445129	194.000000
755.482422	197.000000
755.519714	191.200000
755.557068	188.200000
755.594360	188.100000
755.631653	195.600000
755.668945	199.700000
755.706299	194.900000
755.743530	202.500000
755.780884	199.100000
755.818176	197.800000
755.855408	198.000000
755.892761	195.700000
755.930054	194.900000
755.967346	195.800000
756.004639	194.000000
756.041870	195.000000
756.079224	198.600000
756.116516	191.800000
756.153748	196.500000
756.191040	202.000000
756.228394	196.600000
756.265625	192.700000
756.302917	195.200000
756.340210	193.200000
756.377441	197.700000
756.414795	201.500000
756.452087	193.300000
756.489319	191.000000
756.526611	199.500000
756.563843	195.900000
756.601135	201.100000
756.638428	202.000000
756.675659	194.200000
756.712952	198.100000
756.750244	197.200000
756.787476	196.700000
756.824768	200.500000
756.862061	194.100000
756.899292	242.100000
756.936584	198.400000
756.973816	204.200000
757.011047	204.400000
757.048340	194.900000
757.085632	196.700000
757.122864	209.000000
757.160156	193.100000
757.197327	198.100000
757.234619	199.100000
757.271912	195.500000
757.309082	201.000000
757.346375	194.000000
757.383667	200.600000
757.420837	199.600000
757.458130	197.100000
757.495422	196.400000
757.532593	199.200000
757.569885	193.100000
757.607117	194.100000
757.644348	199.100000
757.681580	206.700000
757.718811	188.900000
757.756042	197.500000
757.793335	194.500000
757.830505	198.700000
757.867798	196.600000
757.905029	194.900000
757.942200	198.500000
757.979492	195.100000
758.016724	197.200000
758.053894	195.000000
758.091187	211.100000
758.128418	197.300000
758.165588	197.400000
758.202820	207.400000
758.240112	200.300000
758.277283	206.400000
758.314514	200.800000
758.351685	196.300000
758.388916	206.600000
758.426147	203.600000
758.463379	206.900000
758.500610	201.300000
758.537842	200.600000
758.575012	204.800000
758.612244	197.100000
758.649475	209.000000
758.686646	196.000000
758.723877	205.500000
758.761108	205.800000
758.798279	200.000000
758.835510	201.900000
758.872742	206.700000
758.909851	201.600000
758.947083	204.100000
758.984253	202.200000
759.021484	204.600000
759.058716	202.300000
759.095886	205.300000
759.133057	200.100000
759.170288	204.900000
759.207458	199.000000
759.244690	210.600000
759.281860	207.400000
759.319031	202.900000
759.356262	199.900000
759.393433	202.300000
759.430603	202.000000
759.467773	202.700000
759.505005	207.500000
759.542175	208.000000
759.579346	202.400000
759.616516	204.500000
759.653687	205.800000
759.690918	201.900000
759.728027	204.200000
759.765259	206.300000
759.802429	207.700000
759.839539	206.700000
759.876770	208.300000
759.913940	212.200000
759.951111	204.600000
759.988281	205.900000
760.025452	202.900000
760.062561	202.400000
760.099792	212.800000
760.136963	207.600000
760.174072	204.900000
760.211243	201.400000
760.248413	202.700000
760.285583	203.000000
760.322754	214.300000
760.359863	209.800000
760.397034	212.300000
760.434204	205.900000
760.471375	205.800000
760.508545	204.600000
760.545715	206.700000
760.582825	204.600000
760.619995	210.300000
760.657166	203.000000
760.694275	212.800000
760.731445	208.400000
760.768555	209.200000
760.805664	210.900000
760.842834	210.500000
760.879944	210.600000
760.917114	209.900000
760.954285	206.500000
760.991394	204.500000
761.028564	211.200000
761.065674	211.300000
761.102783	206.500000
761.139954	213.900000
761.177124	210.900000
761.214172	215.300000
761.251343	207.700000
761.288452	210.300000
761.325562	211.200000
761.362732	207.300000
761.399841	211.200000
761.436951	212.900000
761.474121	207.600000
761.511169	209.700000
761.548340	213.300000
761.585449	213.300000
761.622559	214.000000
761.659668	210.600000
761.696838	214.900000
761.733887	213.000000
761.771057	211.200000
761.808167	210.100000
761.845276	215.900000
761.882385	220.700000
761.919434	214.200000
761.956604	225.700000
761.993713	210.500000
762.030762	217.200000
762.067871	212.900000
762.105042	213.000000
762.142090	219.900000
762.179199	214.300000
762.216309	219.100000
762.253418	224.000000
762.290527	223.400000
762.327637	217.900000
762.364685	211.800000
762.401794	218.100000
762.438904	218.800000
762.475952	212.400000
762.513062	212.500000
762.550110	212.800000
762.587219	224.800000
762.624329	222.200000
762.661377	219.900000
762.698486	218.100000
762.735596	218.300000
762.772644	214.100000
762.809753	212.000000
762.846863	216.900000
762.883911	221.800000
762.921021	219.000000
762.958069	218.000000
762.995117	224.000000
763.032227	224.400000
763.069336	218.200000
763.106323	215.100000
763.143433	214.700000
763.180481	220.300000
763.217590	221.700000
763.254639	218.700000
763.291687	219.300000
763.328735	225.800000
763.365845	219.500000
763.402893	218.100000
763.439941	221.900000
763.477051	223.400000
763.514038	224.100000
763.551147	220.000000
763.588196	221.300000
763.625244	220.000000
763.662292	227.600000
763.699402	229.500000
763.736389	223.900000
763.773499	232.000000
763.810486	226.200000
763.847534	223.600000
763.884644	229.000000
763.921631	224.200000
763.958679	233.300000
763.995728	226.100000
764.032776	232.300000
764.069824	222.100000
764.106873	229.900000
764.143860	234.200000
764.180969	227.900000
764.218018	233.000000
764.255005	227.300000
764.292053	227.600000
764.329102	236.300000
764.366089	235.400000
764.403137	234.300000
764.440125	228.700000
764.477173	232.300000
764.514221	233.800000
764.551208	231.300000
764.588257	228.500000
764.625305	234.400000
764.662292	242.000000
764.699341	242.100000
764.736389	235.700000
764.773376	247.400000
764.810425	237.400000
764.847473	243.300000
764.884399	240.500000
764.921448	245.600000
764.958435	244.200000
764.995483	236.500000
765.032532	250.200000
765.069458	238.400000
765.106506	241.000000
765.143555	238.600000
765.180481	240.900000
765.217529	247.000000
765.254578	237.900000
765.291504	243.900000
765.328552	243.000000
765.365540	238.700000
765.402527	252.800000
765.439575	241.200000
765.476501	239.400000
765.513550	239.300000
765.550537	245.400000
765.587463	250.400000
765.624512	243.500000
765.661499	237.400000
765.698486	249.500000
765.735474	241.900000
765.772461	244.900000
765.809448	251.200000
765.846436	250.400000
765.883423	252.400000
765.920410	248.200000
765.957397	244.300000
765.994385	250.700000
766.031311	255.700000
766.068359	250.300000
766.105286	250.200000
766.142273	257.300000
766.179260	251.800000
766.216187	247.400000
766.253174	245.600000
766.290161	250.800000
766.327148	253.900000
766.364136	253.400000
766.401123	263.200000
766.438049	249.300000
766.475037	259.800000
766.512024	256.000000
766.548950	267.900000
766.585937	261.900000
766.622864	259.200000
766.659790	258.200000
766.696777	251.000000
766.733704	261.600000
766.770691	255.000000
766.807678	265.400000
766.844604	261.000000
766.881531	262.900000
766.918518	266.600000
766.955444	265.400000
766.992432	260.900000
767.029358	264.700000
767.066284	265.800000
767.103271	261.800000
767.140198	297.000000
767.177124	275.800000
767.214050	268.800000
767.251038	269.400000
767.287964	266.000000
767.324890	262.000000
767.361816	267.900000
767.398743	272.600000
767.435730	267.500000
767.472595	271.300000
767.509583	275.400000
767.546509	265.900000
767.583374	269.900000
767.620361	263.400000
767.657288	270.500000
767.694214	269.400000
767.731140	269.600000
767.768066	268.500000
767.804993	272.800000
767.841919	265.800000
767.878845	271.700000
767.915710	276.900000
767.952698	270.700000
767.989563	274.100000
768.026489	274.300000
