Model Number: SPM-001-M   
Serial Number: 10090201
Firmware Version: 004.17.6
Exposure Time: 300000.000000us
Data Taken on: 21-01-2021 14:12:37.687
Wavelength	Amplitude
733.770752	0.000000
733.808716	0.000000
733.846619	0.000000
733.884583	0.000000
733.922546	0.000000
733.960449	0.000000
733.998413	0.000000
734.036377	0.000000
734.074219	0.000000
734.112183	0.000000
734.150085	0.000000
734.188049	0.000000
734.226013	0.000000
734.263916	0.000000
734.301819	0.000000
734.339783	0.000000
734.377686	0.000000
734.415588	0.000000
734.453552	0.000000
734.491455	0.000000
734.529419	0.000000
734.567322	0.000000
734.605225	0.000000
734.643127	0.000000
734.681091	0.000000
734.718994	0.000000
734.756897	0.000000
734.794800	0.000000
734.832703	0.000000
734.870667	0.000000
734.908508	0.000000
734.946472	0.000000
734.984375	0.000000
735.022278	0.000000
735.060181	0.000000
735.098083	0.000000
735.135986	0.000000
735.173889	0.000000
735.211792	0.000000
735.249695	0.000000
735.287598	0.000000
735.325439	0.000000
735.363403	0.000000
735.401306	0.000000
735.439148	0.000000
735.477051	0.000000
735.515015	0.000000
735.552856	0.000000
735.590759	0.000000
735.628662	0.000000
735.666504	0.000000
735.704407	0.000000
735.742310	0.000000
735.780212	0.000000
735.818115	0.000000
735.856018	0.000000
735.893860	0.000000
735.931763	0.000000
735.969604	0.000000
736.007507	0.000000
736.045410	0.000000
736.083252	0.000000
736.121094	0.000000
736.158997	0.000000
736.196838	0.000000
736.234741	0.000000
736.272644	0.000000
736.310486	0.000000
736.348389	0.000000
736.386230	0.000000
736.424072	0.000000
736.461975	0.000000
736.499878	0.000000
736.537720	0.000000
736.575562	0.000000
736.613403	0.000000
736.651306	0.000000
736.689148	0.000000
736.726990	0.000000
736.764893	0.000000
736.802734	0.000000
736.840576	0.000000
736.878418	0.000000
736.916321	0.000000
736.954102	0.000000
736.992004	0.000000
737.029846	0.000000
737.067688	0.000000
737.105530	0.000000
737.143372	0.000000
737.181213	0.000000
737.219116	0.000000
737.256897	0.000000
737.294739	0.000000
737.332642	0.000000
737.370422	0.000000
737.408325	0.000000
737.446167	0.000000
737.483948	0.000000
737.521790	0.000000
737.559692	0.000000
737.597473	0.000000
737.635315	0.000000
737.673157	0.000000
737.710999	0.000000
737.748840	0.000000
737.786621	0.000000
737.824463	0.000000
737.862305	0.000000
737.900085	0.000000
737.937927	0.000000
737.975769	0.000000
738.013550	0.000000
738.051392	0.000000
738.089233	0.000000
738.127014	0.000000
738.164856	0.000000
738.202698	0.000000
738.240479	0.000000
738.278320	0.000000
738.316162	0.000000
738.353943	0.000000
738.391785	0.000000
738.429565	0.000000
738.467407	0.000000
738.505188	0.000000
738.542969	0.000000
738.580811	0.000000
738.618652	0.000000
738.656372	0.000000
738.694214	0.000000
738.732056	0.000000
738.769836	0.000000
738.807617	0.000000
738.845459	0.000000
738.883240	0.000000
738.921021	0.000000
738.958862	0.000000
738.996582	0.000000
739.034424	0.000000
739.072205	0.000000
739.109985	0.000000
739.147827	0.000000
739.185547	0.000000
739.223389	0.000000
739.261169	0.000000
739.298889	0.000000
739.336731	0.000000
739.374512	0.000000
739.412292	0.000000
739.450073	0.000000
739.487854	0.000000
739.525635	0.000000
739.563416	0.000000
739.601135	0.000000
739.638977	0.000000
739.676758	0.000000
739.714478	0.000000
739.752258	0.000000
739.790100	0.000000
739.827820	0.000000
739.865601	0.000000
739.903381	0.000000
739.941101	0.000000
739.978882	194.500000
740.016724	191.500000
740.054443	194.100000
740.092224	188.800000
740.130005	189.700000
740.167725	190.400000
740.205505	189.100000
740.243225	194.800000
740.281006	191.700000
740.318787	185.800000
740.356506	197.000000
740.394287	194.400000
740.432068	188.600000
740.469727	186.300000
740.507507	194.300000
740.545288	192.200000
740.583008	192.000000
740.620789	191.600000
740.658569	186.000000
740.696228	191.300000
740.734009	194.700000
740.771790	182.500000
740.809509	193.100000
740.847229	187.200000
740.884949	188.800000
740.922729	185.900000
740.960449	189.600000
740.998169	186.100000
741.035950	188.900000
741.073669	190.900000
741.111389	191.400000
741.149170	199.700000
741.186890	197.800000
741.224609	193.700000
741.262329	193.000000
741.300110	196.500000
741.337769	187.900000
741.375549	185.500000
741.413208	191.600000
741.450989	187.900000
741.488708	189.000000
741.526367	188.600000
741.564148	193.700000
741.601868	193.100000
741.639526	190.200000
741.677307	191.800000
741.715027	192.800000
741.752686	186.800000
741.790466	197.600000
741.828186	191.600000
741.865845	188.100000
741.903564	185.700000
741.941345	190.100000
741.979004	187.600000
742.016724	193.800000
742.054382	191.700000
742.092102	194.600000
742.129822	186.400000
742.167480	189.400000
742.205200	190.600000
742.242920	192.100000
742.280640	193.300000
742.318359	188.700000
742.356079	189.700000
742.393738	194.300000
742.431396	189.600000
742.469116	195.000000
742.506775	184.600000
742.544495	193.200000
742.582214	193.700000
742.619873	191.200000
742.657593	197.200000
742.695251	193.900000
742.732971	190.700000
742.770630	194.200000
742.808289	192.700000
742.846008	190.600000
742.883728	191.600000
742.921326	190.400000
742.959045	189.900000
742.996765	190.500000
743.034424	190.500000
743.072083	189.100000
743.109802	189.500000
743.147400	187.200000
743.185120	191.500000
743.222839	191.000000
743.260437	197.600000
743.298157	192.800000
743.335754	185.900000
743.373474	190.900000
743.411133	186.700000
743.448792	191.900000
743.486450	190.800000
743.524170	186.300000
743.561768	189.700000
743.599487	196.000000
743.637146	198.300000
743.674744	190.000000
743.712463	189.300000
743.750122	192.100000
743.787720	192.500000
743.825439	188.300000
743.863037	189.200000
743.900696	190.500000
743.938416	216.200000
743.976013	191.400000
744.013672	197.600000
744.051331	194.600000
744.088928	198.200000
744.126587	195.100000
744.164307	191.200000
744.201904	189.700000
744.239563	192.100000
744.277222	193.700000
744.314819	191.300000
744.352478	195.400000
744.390137	191.800000
744.427734	193.900000
744.465393	188.600000
744.502991	189.500000
744.540649	192.900000
744.578308	192.000000
744.615906	188.800000
744.653564	183.700000
744.691223	193.300000
744.728821	186.900000
744.766418	190.900000
744.804077	194.300000
744.841675	189.500000
744.879333	186.100000
744.916992	189.300000
744.954529	189.700000
744.992187	194.700000
745.029785	190.200000
745.067444	189.000000
745.105042	191.900000
745.142639	192.700000
745.180298	199.200000
745.217896	189.300000
745.255493	190.200000
745.293152	193.900000
745.330750	195.700000
745.368347	197.700000
745.405945	194.100000
745.443604	191.600000
745.481140	194.600000
745.518799	191.700000
745.556396	193.500000
745.593994	193.200000
745.631592	191.300000
745.669189	187.900000
745.706787	192.000000
745.744385	190.400000
745.781982	194.800000
745.819580	189.700000
745.857178	192.000000
745.894775	191.200000
745.932373	192.200000
745.969971	192.600000
746.007568	185.200000
746.045166	198.600000
746.082764	196.400000
746.120300	192.500000
746.157898	192.700000
746.195557	191.500000
746.233093	186.600000
746.270691	194.000000
746.308228	192.100000
746.345825	194.700000
746.383423	194.000000
746.420959	190.000000
746.458557	187.900000
746.496155	189.100000
746.533691	192.100000
746.571289	187.200000
746.608887	191.700000
746.646423	192.300000
746.684021	191.400000
746.721619	188.600000
746.759155	193.100000
746.796753	186.300000
746.834351	186.500000
746.871826	188.400000
746.909424	196.800000
746.946960	191.700000
746.984558	191.800000
747.022156	190.600000
747.059631	196.900000
747.097229	194.700000
747.134827	190.100000
747.172363	195.500000
747.209900	193.900000
747.247498	188.200000
747.285034	196.700000
747.322571	195.600000
747.360168	190.300000
747.397644	186.600000
747.435242	195.200000
747.472778	194.800000
747.510315	190.400000
747.547913	190.000000
747.585388	195.400000
747.622925	189.800000
747.660522	186.300000
747.697998	190.000000
747.735596	190.900000
747.773132	188.500000
747.810669	191.500000
747.848206	194.100000
747.885742	188.200000
747.923279	187.100000
747.960815	192.800000
747.998352	192.500000
748.035889	195.000000
748.073425	192.800000
748.110901	189.100000
748.148437	187.300000
748.185974	191.300000
748.223511	199.800000
748.261047	194.400000
748.298584	191.600000
748.336060	191.100000
748.373596	192.800000
748.411133	216.600000
748.448608	188.800000
748.486145	194.000000
748.523682	195.700000
748.561218	197.300000
748.598755	192.400000
748.636292	192.700000
748.673706	190.800000
748.711243	197.400000
748.748718	191.900000
748.786255	191.700000
748.823792	192.500000
748.861267	186.300000
748.898804	193.200000
748.936340	192.600000
748.973816	189.500000
749.011292	196.300000
749.048828	193.100000
749.086304	192.000000
749.123840	200.500000
749.161316	188.200000
749.198792	197.900000
749.236328	195.200000
749.273743	191.200000
749.311279	191.800000
749.348816	194.900000
749.386230	192.100000
749.423767	183.300000
749.461304	195.000000
749.498718	191.500000
749.536255	195.700000
749.573730	199.400000
749.611206	197.000000
749.648682	191.200000
749.686218	190.800000
749.723633	194.800000
749.761169	190.600000
749.798645	188.000000
749.836060	191.500000
749.873596	189.300000
749.911011	193.700000
749.948547	196.000000
749.986023	190.900000
750.023437	191.400000
750.060913	187.900000
750.098450	186.400000
750.135864	191.200000
750.173340	191.400000
750.210815	195.900000
750.248291	186.500000
750.285767	192.200000
750.323242	195.800000
750.360657	195.600000
750.398132	188.000000
750.435608	193.800000
750.473022	187.700000
750.510498	189.200000
750.547974	188.800000
750.585449	191.000000
750.622925	183.400000
750.660339	203.100000
750.697815	191.300000
750.735291	190.700000
750.772644	191.000000
750.810120	191.900000
750.847595	192.700000
750.885010	188.200000
750.922485	197.500000
750.959961	191.100000
750.997375	197.400000
751.034851	193.900000
751.072266	194.600000
751.109680	187.300000
751.147156	195.600000
751.184570	192.200000
751.221985	192.500000
751.259460	185.000000
751.296875	189.800000
751.334290	190.500000
751.371765	195.000000
751.409180	194.800000
751.446594	196.300000
751.484070	192.600000
751.521423	193.400000
751.558899	191.300000
751.596375	199.800000
751.633728	196.900000
751.671204	200.200000
751.708618	188.000000
751.746033	194.000000
751.783447	187.300000
751.820801	190.500000
751.858276	193.900000
751.895691	190.400000
751.933105	189.800000
751.970520	188.600000
752.007935	190.200000
752.045349	196.300000
752.082764	190.700000
752.120178	189.300000
752.157532	189.200000
752.195007	190.400000
752.232422	192.600000
752.269775	195.100000
752.307190	194.400000
752.344543	188.400000
752.382019	190.300000
752.419434	190.100000
752.456787	193.400000
752.494202	195.200000
752.531616	192.900000
752.568970	193.700000
752.606384	192.500000
752.643799	192.500000
752.681152	196.300000
752.718567	193.500000
752.755981	186.500000
752.793335	194.300000
752.830750	186.400000
752.868164	196.600000
752.905518	187.900000
752.942932	194.000000
752.980225	187.400000
753.017639	194.400000
753.055054	194.800000
753.092407	192.800000
753.129822	196.300000
753.167175	199.000000
753.204529	191.300000
753.241943	189.800000
753.279358	187.900000
753.316650	193.100000
753.354065	193.000000
753.391479	195.500000
753.428772	199.100000
753.466187	192.600000
753.503479	188.700000
753.540894	190.400000
753.578308	188.600000
753.615601	187.800000
753.653015	192.000000
753.690369	190.000000
753.727722	191.100000
753.765076	187.500000
753.802490	188.000000
753.839783	185.200000
753.877136	191.100000
753.914551	201.100000
753.951843	189.800000
753.989258	193.800000
754.026611	192.000000
754.063904	193.300000
754.101257	189.100000
754.138611	185.800000
754.175964	192.500000
754.213318	198.700000
754.250610	187.700000
754.288025	190.200000
754.325378	187.100000
754.362671	194.700000
754.400024	191.000000
754.437378	199.900000
754.474670	197.600000
754.512085	188.400000
754.549438	191.400000
754.586731	188.500000
754.624084	190.200000
754.661438	187.500000
754.698730	198.800000
754.736084	191.500000
754.773376	190.800000
754.810730	193.700000
754.848083	190.500000
754.885315	195.700000
754.922668	187.100000
754.960022	188.900000
754.997314	193.300000
755.034668	192.200000
755.072021	191.900000
755.109253	190.400000
755.146606	195.800000
755.183960	191.600000
755.221252	197.600000
755.258545	194.900000
755.295898	196.700000
755.333191	196.400000
755.370544	193.400000
755.407776	192.200000
755.445129	191.800000
755.482422	196.000000
755.519714	190.400000
755.557068	188.200000
755.594360	186.000000
755.631653	195.200000
755.668945	197.500000
755.706299	195.000000
755.743530	201.400000
755.780884	198.900000
755.818176	195.700000
755.855408	196.200000
755.892761	194.400000
755.930054	193.300000
755.967346	193.800000
756.004639	192.700000
756.041870	192.700000
756.079224	197.300000
756.116516	190.700000
756.153748	196.100000
756.191040	201.000000
756.228394	195.500000
756.265625	189.600000
756.302917	193.600000
756.340210	190.300000
756.377441	196.700000
756.414795	199.800000
756.452087	191.800000
756.489319	188.500000
756.526611	195.900000
756.563843	193.900000
756.601135	199.600000
756.638428	201.700000
756.675659	192.800000
756.712952	196.500000
756.750244	195.200000
756.787476	195.300000
756.824768	199.300000
756.862061	194.500000
756.899292	240.600000
756.936584	197.400000
756.973816	202.900000
757.011047	204.300000
757.048340	195.000000
757.085632	194.900000
757.122864	208.400000
757.160156	193.100000
757.197327	196.300000
757.234619	199.000000
757.271912	194.300000
757.309082	199.200000
757.346375	192.000000
757.383667	200.400000
757.420837	194.700000
757.458130	196.800000
757.495422	194.600000
757.532593	198.700000
757.569885	190.900000
757.607117	191.400000
757.644348	196.200000
757.681580	206.100000
757.718811	186.300000
757.756042	195.500000
757.793335	193.500000
757.830505	198.500000
757.867798	194.000000
757.905029	193.900000
757.942200	195.900000
757.979492	194.300000
758.016724	196.200000
758.053894	195.500000
758.091187	211.100000
758.128418	197.100000
758.165588	196.600000
758.202820	205.900000
758.240112	198.300000
758.277283	204.500000
758.314514	199.100000
758.351685	194.900000
758.388916	203.700000
758.426147	203.800000
758.463379	204.600000
758.500610	199.900000
758.537842	198.700000
758.575012	204.600000
758.612244	196.300000
758.649475	206.800000
758.686646	194.100000
758.723877	203.700000
758.761108	204.100000
758.798279	197.400000
758.835510	201.700000
758.872742	205.100000
758.909851	201.500000
758.947083	201.500000
758.984253	199.900000
759.021484	203.000000
759.058716	202.800000
759.095886	203.500000
759.133057	199.400000
759.170288	201.300000
759.207458	198.700000
759.244690	209.000000
759.281860	207.600000
759.319031	201.600000
759.356262	199.900000
759.393433	200.600000
759.430603	201.300000
759.467773	200.600000
759.505005	205.900000
759.542175	207.400000
759.579346	200.800000
759.616516	202.300000
759.653687	205.600000
759.690918	199.700000
759.728027	203.100000
759.765259	205.000000
759.802429	206.900000
759.839539	205.600000
759.876770	208.100000
759.913940	212.300000
759.951111	204.000000
759.988281	203.800000
760.025452	201.000000
760.062561	200.100000
760.099792	211.100000
760.136963	206.000000
760.174072	202.300000
760.211243	201.500000
760.248413	199.400000
760.285583	200.600000
760.322754	212.500000
760.359863	209.700000
760.397034	208.500000
760.434204	204.700000
760.471375	204.200000
760.508545	205.700000
760.545715	205.500000
760.582825	201.700000
760.619995	208.600000
760.657166	201.900000
760.694275	209.400000
760.731445	207.800000
760.768555	207.000000
760.805664	209.300000
760.842834	207.800000
760.879944	209.800000
760.917114	207.500000
760.954285	207.200000
760.991394	203.100000
761.028564	210.900000
761.065674	207.200000
761.102783	203.900000
761.139954	211.600000
761.177124	210.900000
761.214172	213.000000
761.251343	206.300000
761.288452	207.600000
761.325562	210.500000
761.362732	205.300000
761.399841	208.600000
761.436951	211.100000
761.474121	205.900000
761.511169	209.300000
761.548340	212.000000
761.585449	210.800000
761.622559	212.000000
761.659668	210.500000
761.696838	214.600000
761.733887	211.600000
761.771057	208.500000
761.808167	209.300000
761.845276	214.000000
761.882385	220.700000
761.919434	211.100000
761.956604	225.600000
761.993713	210.200000
762.030762	216.300000
762.067871	212.200000
762.105042	211.700000
762.142090	217.300000
762.179199	213.200000
762.216309	216.300000
762.253418	223.700000
762.290527	220.200000
762.327637	218.500000
762.364685	209.900000
762.401794	217.400000
762.438904	216.200000
762.475952	211.900000
762.513062	211.400000
762.550110	210.500000
762.587219	222.700000
762.624329	220.900000
762.661377	217.400000
762.698486	215.700000
762.735596	214.800000
762.772644	211.700000
762.809753	209.700000
762.846863	215.700000
762.883911	220.400000
762.921021	217.800000
762.958069	217.700000
762.995117	223.000000
763.032227	223.900000
763.069336	216.100000
763.106323	213.700000
763.143433	212.600000
763.180481	220.000000
763.217590	218.800000
763.254639	216.300000
763.291687	217.000000
763.328735	223.900000
763.365845	217.900000
763.402893	217.700000
763.439941	220.600000
763.477051	223.900000
763.514038	221.900000
763.551147	219.100000
763.588196	220.800000
763.625244	218.600000
763.662292	226.200000
763.699402	228.400000
763.736389	222.700000
763.773499	230.700000
763.810486	225.700000
763.847534	223.100000
763.884644	226.000000
763.921631	223.000000
763.958679	231.100000
763.995728	224.100000
764.032776	231.600000
764.069824	222.800000
764.106873	228.900000
764.143860	231.200000
764.180969	223.700000
764.218018	231.600000
764.255005	226.000000
764.292053	226.700000
764.329102	233.600000
764.366089	234.500000
764.403137	232.400000
764.440125	226.400000
764.477173	229.300000
764.514221	231.900000
764.551208	231.900000
764.588257	226.600000
764.625305	234.400000
764.662292	238.000000
764.699341	239.500000
764.736389	233.200000
764.773376	244.900000
764.810425	236.000000
764.847473	241.500000
764.884399	238.300000
764.921448	245.600000
764.958435	241.500000
764.995483	236.500000
765.032532	249.300000
765.069458	238.100000
765.106506	239.400000
765.143555	237.100000
765.180481	240.700000
765.217529	246.100000
765.254578	236.000000
765.291504	243.600000
765.328552	240.600000
765.365540	237.900000
765.402527	250.100000
765.439575	240.100000
765.476501	236.500000
765.513550	236.900000
765.550537	241.900000
765.587463	246.700000
765.624512	239.000000
765.661499	234.600000
765.698486	248.100000
765.735474	238.900000
765.772461	242.200000
765.809448	248.000000
765.846436	246.900000
765.883423	251.200000
765.920410	246.100000
765.957397	243.700000
765.994385	249.400000
766.031311	254.400000
766.068359	249.700000
766.105286	248.700000
766.142273	254.200000
766.179260	250.000000
766.216187	247.500000
766.253174	243.800000
766.290161	250.200000
766.327148	251.800000
766.364136	251.300000
766.401123	263.300000
766.438049	248.400000
766.475037	256.500000
766.512024	255.000000
766.548950	266.600000
766.585937	262.600000
766.622864	255.700000
766.659790	256.500000
766.696777	249.500000
766.733704	259.900000
766.770691	253.300000
766.807678	264.600000
766.844604	259.300000
766.881531	260.500000
766.918518	264.200000
766.955444	265.100000
766.992432	259.000000
767.029358	262.600000
767.066284	264.600000
767.103271	263.000000
767.140198	294.100000
767.177124	274.200000
767.214050	265.700000
767.251038	266.300000
767.287964	264.000000
767.324890	262.400000
767.361816	264.700000
767.398743	269.300000
767.435730	265.800000
767.472595	268.400000
767.509583	270.400000
767.546509	263.600000
767.583374	269.200000
767.620361	263.800000
767.657288	266.900000
767.694214	267.200000
767.731140	268.100000
767.768066	269.900000
767.804993	271.900000
767.841919	264.200000
767.878845	268.800000
767.915710	276.500000
767.952698	270.900000
767.989563	273.000000
768.026489	274.000000
