Model Number: SPM-002-B   
Serial Number: 70087108
Firmware Version: 004.15.4
Exposure Time: 100000.000000us
Data Taken on: 11-12-2020 18:42:23.557
Wavelength	Amplitude
221.570786	0.000000
221.663406	0.000000
221.756027	0.000000
221.848648	0.000000
221.941269	0.000000
222.033905	0.000000
222.126526	0.000000
222.219162	0.000000
222.311798	0.000000
222.404419	0.000000
222.497055	0.000000
222.589676	0.000000
222.682312	0.000000
222.774933	0.000000
222.867569	0.000000
222.960205	0.000000
223.052841	0.000000
223.145462	0.000000
223.238098	0.000000
223.330734	0.000000
223.423386	0.000000
223.516022	0.000000
223.608658	0.000000
223.701309	0.000000
223.793945	0.000000
223.886581	0.000000
223.979218	0.000000
224.071869	0.000000
224.164505	0.000000
224.257156	0.000000
224.349792	0.000000
224.442444	0.000000
224.535095	0.000000
224.627747	0.000000
224.720398	0.000000
224.813034	0.000000
224.905685	0.000000
224.998337	145.780000
225.090988	145.160000
225.183640	145.220000
225.276291	145.220000
225.368942	145.440000
225.461594	146.100000
225.554245	146.520000
225.646912	146.260000
225.739578	146.840000
225.832230	147.240000
225.924896	146.220000
226.017548	146.680000
226.110199	147.260000
226.202866	146.600000
226.295532	146.400000
226.388184	146.540000
226.480850	145.820000
226.573517	145.340000
226.666168	145.400000
226.758835	145.600000
226.851501	146.020000
226.944183	146.320000
227.036850	145.640000
227.129517	146.000000
227.222183	146.040000
227.314850	146.400000
227.407516	146.860000
227.500198	147.880000
227.592865	147.260000
227.685532	146.880000
227.778214	146.280000
227.870880	146.080000
227.963562	146.440000
228.056229	147.180000
228.148926	147.300000
228.241592	148.140000
228.334274	147.940000
228.426956	147.420000
228.519638	147.100000
228.612305	146.520000
228.704987	146.320000
228.797668	146.400000
228.890350	146.160000
228.983032	145.800000
229.075714	146.860000
229.168396	146.480000
229.261108	146.000000
229.353790	146.380000
229.446472	146.400000
229.539169	145.600000
229.631851	145.460000
229.724533	145.820000
229.817230	145.920000
229.909912	146.780000
230.002609	147.100000
230.095306	147.020000
230.187988	147.100000
230.280685	146.560000
230.373383	145.500000
230.466095	145.500000
230.558792	145.720000
230.651474	145.600000
230.744171	145.600000
230.836868	145.880000
230.929581	146.080000
231.022278	146.140000
231.114975	146.080000
231.207672	146.140000
231.300369	146.540000
231.393082	146.080000
231.485779	146.160000
231.578506	146.280000
231.671204	146.680000
231.763916	146.660000
231.856613	147.000000
231.949326	146.920000
232.042023	146.720000
232.134735	146.440000
232.227448	146.160000
232.320160	146.400000
232.412872	146.300000
232.505585	147.060000
232.598297	147.360000
232.691010	147.320000
232.783722	146.560000
232.876450	147.200000
232.969162	146.560000
233.061874	146.120000
233.154587	145.820000
233.247314	146.460000
233.340027	145.720000
233.432739	146.300000
233.525467	146.020000
233.618179	146.540000
233.710907	146.160000
233.803635	146.740000
233.896347	146.220000
233.989090	147.000000
234.081818	146.880000
234.174545	147.200000
234.267258	146.560000
234.359985	146.840000
234.452713	146.660000
234.545441	146.520000
234.638168	146.260000
234.730896	146.440000
234.823639	146.120000
234.916367	146.200000
235.009094	146.320000
235.101822	146.560000
235.194580	146.640000
235.287308	146.540000
235.380051	146.140000
235.472778	145.920000
235.565521	145.960000
235.658249	145.720000
235.750992	146.100000
235.843719	145.960000
235.936462	146.260000
236.029205	145.820000
236.121948	145.640000
236.214691	145.740000
236.307449	146.460000
236.400192	145.960000
236.492935	146.060000
236.585678	146.080000
236.678421	145.980000
236.771164	145.720000
236.863907	146.620000
236.956665	146.800000
237.049408	148.720000
237.142151	148.320000
237.234909	148.660000
237.327652	148.400000
237.420410	148.140000
237.513153	146.720000
237.605927	147.060000
237.698669	146.840000
237.791428	146.240000
237.884186	147.020000
237.976944	146.680000
238.069702	146.580000
238.162445	146.000000
238.255203	146.320000
238.347961	146.120000
238.440720	146.220000
238.533478	146.300000
238.626266	146.080000
238.719025	146.040000
238.811783	145.580000
238.904541	145.160000
238.997314	145.040000
239.090073	145.220000
239.182831	145.620000
239.275604	146.360000
239.368362	146.480000
239.461136	146.420000
239.553909	146.420000
239.646667	146.240000
239.739441	145.720000
239.832214	146.300000
239.925003	146.240000
240.017761	146.640000
240.110535	147.120000
240.203308	146.780000
240.296082	146.560000
240.388855	146.700000
240.481628	146.980000
240.574417	146.780000
240.667191	146.880000
240.759964	146.600000
240.852737	146.460000
240.945526	145.960000
241.038315	145.620000
241.131088	146.060000
241.223877	146.540000
241.316650	146.500000
241.409439	146.720000
241.502228	146.260000
241.595001	146.340000
241.687790	146.060000
241.780579	145.860000
241.873367	146.280000
241.966141	146.400000
242.058929	145.820000
242.151718	145.920000
242.244507	146.440000
242.337311	145.460000
242.430099	146.440000
242.522903	146.680000
242.615692	146.260000
242.708481	146.380000
242.801270	146.840000
242.894073	146.320000
242.986862	146.660000
243.079651	147.400000
243.172455	146.760000
243.265244	146.760000
243.358063	146.000000
243.450867	146.180000
243.543655	145.840000
243.636459	146.040000
243.729263	146.300000
243.822067	146.940000
243.914856	146.980000
244.007660	146.860000
244.100464	147.000000
244.193268	146.360000
244.286072	146.200000
244.378876	145.400000
244.471680	145.380000
244.564499	145.640000
244.657318	146.740000
244.750122	146.860000
244.842926	146.680000
244.935745	146.980000
245.028549	146.540000
245.121368	145.600000
245.214172	145.660000
245.306992	146.140000
245.399796	145.800000
245.492615	146.080000
245.585434	146.280000
245.678253	146.060000
245.771072	145.980000
245.863892	146.520000
245.956711	146.580000
246.049530	146.580000
246.142349	146.620000
246.235168	146.620000
246.327988	147.060000
246.420807	146.900000
246.513626	147.120000
246.606445	146.980000
246.699280	147.080000
246.792099	146.420000
246.884918	146.420000
246.977753	145.840000
247.070587	145.900000
247.163422	146.120000
247.256241	146.040000
247.349075	146.120000
247.441895	146.540000
247.534729	146.640000
247.627563	146.040000
247.720383	146.500000
247.813217	146.320000
247.906052	146.000000
247.998886	145.900000
248.091736	146.120000
248.184570	145.780000
248.277405	145.900000
248.370239	147.320000
248.463074	148.200000
248.555908	148.520000
248.648743	148.480000
248.741592	148.460000
248.834427	147.100000
248.927261	145.940000
249.020111	146.100000
249.112946	146.760000
249.205795	146.540000
249.298630	146.780000
249.391495	147.140000
249.484344	146.940000
249.577179	146.780000
249.670029	147.280000
249.762878	147.700000
249.855728	147.780000
249.948563	147.720000
250.041412	146.840000
250.134262	146.720000
250.227112	146.900000
250.319962	147.120000
250.412827	147.080000
250.505692	147.240000
250.598541	147.080000
250.691391	146.300000
250.784241	146.280000
250.877106	146.260000
250.969955	145.920000
251.062805	146.540000
251.155670	147.400000
251.248520	147.120000
251.341385	147.460000
251.434235	147.680000
251.527100	147.080000
251.619965	146.460000
251.712814	147.200000
251.805695	146.680000
251.898560	146.780000
251.991425	146.920000
252.084290	147.180000
252.177155	146.240000
252.270020	146.300000
252.362885	146.220000
252.455750	146.320000
252.548615	146.040000
252.641479	145.980000
252.734360	145.880000
252.827240	145.660000
252.920105	145.740000
253.012970	145.600000
253.105850	145.540000
253.198715	145.460000
253.291595	145.640000
253.384460	144.960000
253.477341	145.020000
253.570221	145.540000
253.663086	145.360000
253.755966	146.060000
253.848846	146.520000
253.941727	146.780000
254.034592	146.480000
254.127472	146.240000
254.220367	146.120000
254.313248	145.860000
254.406128	145.340000
254.499008	145.900000
254.591904	146.760000
254.684784	146.860000
254.777664	147.000000
254.870544	146.620000
254.963440	146.120000
255.056335	146.040000
255.149216	145.580000
255.242111	145.960000
255.334991	146.500000
255.427887	147.080000
255.520767	147.300000
255.613663	147.480000
255.706558	147.140000
255.799438	147.080000
255.892334	146.220000
255.985229	145.740000
256.078125	145.620000
256.171021	145.760000
256.263916	146.220000
256.356812	146.640000
256.449707	146.940000
256.542603	146.920000
256.635498	147.120000
256.728394	146.740000
256.821289	146.640000
256.914215	146.940000
257.007080	147.220000
257.100006	147.260000
257.192932	147.800000
257.285828	147.880000
257.378723	147.460000
257.471619	147.140000
257.564545	146.660000
257.657440	146.540000
257.750336	147.020000
257.843262	146.500000
257.936157	147.520000
258.029053	147.720000
258.121979	147.620000
258.214874	146.940000
258.307800	147.220000
258.400696	145.980000
258.493622	146.020000
258.586517	145.260000
258.679443	145.740000
258.772339	145.260000
258.865265	145.360000
258.958160	144.620000
259.051086	145.620000
259.144012	145.280000
259.236938	146.500000
259.329834	146.560000
259.422791	146.880000
259.515717	146.180000
259.608612	145.960000
259.701538	145.800000
259.794464	145.720000
259.887390	145.660000
259.980316	145.660000
260.073212	145.440000
260.166138	144.420000
260.259064	144.800000
260.351990	145.520000
260.444916	145.680000
260.537842	146.260000
260.630768	146.880000
260.723694	146.660000
260.816620	146.320000
260.909546	146.440000
261.002472	146.020000
261.095398	145.820000
261.188354	145.740000
261.281281	145.260000
261.374207	145.200000
261.467133	146.080000
261.560089	146.100000
261.653015	146.180000
261.745972	147.320000
261.838867	147.460000
261.931824	147.620000
262.024780	147.380000
262.117706	147.520000
262.210663	147.180000
262.303589	147.060000
262.396515	146.700000
262.489471	147.460000
262.582397	147.140000
262.675354	146.520000
262.768280	146.660000
262.861237	146.680000
262.954163	146.320000
263.047119	146.680000
263.140045	146.660000
263.233002	146.740000
263.325958	146.420000
263.418884	145.880000
263.511841	145.820000
263.604797	145.960000
263.697723	145.620000
263.790680	145.560000
263.883636	146.600000
263.976593	146.040000
264.069550	146.180000
264.162476	146.320000
264.255463	146.240000
264.348419	145.580000
264.441376	146.420000
264.534332	146.140000
264.627289	146.240000
264.720245	146.940000
264.813202	146.540000
264.906158	146.540000
264.999115	147.000000
265.092072	146.960000
265.185028	147.020000
265.277985	147.620000
265.370941	147.140000
265.463898	146.900000
265.556854	146.640000
265.649811	145.560000
265.742798	145.340000
265.835754	145.600000
265.928711	145.980000
266.021667	146.060000
266.114655	146.780000
266.207611	147.160000
266.300568	146.580000
266.393585	145.860000
266.486511	146.500000
266.579498	145.620000
266.672485	145.260000
266.765442	145.520000
266.858429	146.360000
266.951385	145.340000
267.044342	145.720000
267.137329	145.740000
267.230316	146.020000
267.323273	145.100000
267.416260	146.000000
267.509216	146.140000
267.602203	146.180000
267.695160	146.420000
267.788147	146.820000
267.881134	146.040000
267.974091	146.200000
268.067078	146.000000
268.160065	145.500000
268.253052	145.280000
268.346008	145.720000
268.438995	145.480000
268.531982	145.720000
268.624969	145.820000
268.717987	146.140000
268.810944	146.040000
268.903961	146.480000
268.996948	146.040000
269.089905	146.420000
269.182892	146.660000
269.275879	146.880000
269.368866	146.200000
269.461853	146.520000
269.554871	146.200000
269.647858	145.640000
269.740845	145.960000
269.833832	146.400000
269.926819	146.100000
270.019806	146.060000
270.112793	146.020000
270.205811	145.540000
270.298798	145.200000
270.391785	146.040000
270.484772	145.880000
270.577789	146.180000
270.670776	145.800000
270.763763	146.020000
270.856750	145.700000
270.949768	145.640000
271.042786	145.700000
271.135773	145.920000
271.228790	146.060000
271.321808	145.840000
271.414795	145.700000
271.507782	145.360000
271.600800	145.120000
271.693817	145.540000
271.786804	145.940000
271.879822	146.140000
271.972809	146.480000
272.065826	147.120000
272.158844	146.540000
272.251831	147.040000
272.344849	147.080000
272.437866	146.560000
272.530853	146.440000
272.623871	146.500000
272.716888	145.440000
272.809906	145.560000
272.902893	145.700000
272.995911	145.180000
273.088928	145.100000
273.181946	145.260000
273.274963	144.780000
273.367981	145.000000
273.460999	145.360000
273.554047	145.900000
273.647003	146.780000
273.740051	147.260000
273.833069	147.340000
273.926086	147.680000
274.019135	147.360000
274.112152	146.660000
274.205170	146.760000
274.298187	146.960000
274.391205	146.220000
274.484222	145.960000
274.577240	145.840000
274.670258	145.520000
274.763306	145.400000
274.856323	145.960000
274.949341	146.220000
275.042358	146.740000
275.135406	146.680000
275.228424	146.600000
275.321442	146.600000
275.414490	146.200000
275.507507	146.200000
275.600525	146.640000
275.693573	146.260000
275.786591	145.760000
275.879669	145.920000
275.972656	145.160000
276.065735	144.960000
276.158752	145.720000
276.251801	146.520000
276.344818	146.620000
276.437866	147.200000
276.530884	147.040000
276.623932	146.140000
276.716980	146.180000
276.809998	146.240000
276.903046	146.200000
276.996094	147.040000
277.089111	147.580000
277.182159	147.540000
277.275208	147.340000
277.368256	147.500000
277.461304	147.020000
277.554321	146.640000
277.647369	146.700000
277.740417	146.820000
277.833466	146.660000
277.926514	146.360000
278.019562	147.000000
278.112610	146.580000
278.205688	147.000000
278.298706	147.140000
278.391785	147.120000
278.484833	146.420000
278.577881	146.060000
278.670929	145.900000
278.763977	145.720000
278.857025	146.100000
278.950073	146.520000
279.043121	146.660000
279.136169	146.560000
279.229248	146.420000
279.322296	146.420000
279.415344	146.140000
279.508392	146.000000
279.601440	146.020000
279.694519	145.880000
279.787567	145.700000
279.880615	145.500000
279.973694	145.520000
280.066742	145.560000
280.159790	145.840000
280.252869	145.580000
280.345917	146.020000
280.438995	145.940000
280.532074	145.500000
280.625122	145.860000
280.718201	146.860000
280.811279	146.960000
280.904327	147.220000
280.997406	147.780000
281.090454	147.340000
281.183533	146.580000
281.276581	146.320000
281.369659	146.120000
281.462738	145.800000
281.555786	146.120000
281.648865	146.060000
281.741943	146.300000
281.835022	146.940000
281.928070	146.660000
282.021149	146.280000
282.114227	146.040000
282.207306	145.800000
282.300385	146.040000
282.393433	146.500000
282.486511	146.620000
282.579590	147.200000
282.672668	147.740000
282.765747	146.720000
282.858856	146.260000
282.951904	146.220000
283.045013	146.200000
283.138062	146.000000
283.231171	146.440000
283.324249	146.880000
283.417328	147.040000
283.510406	146.720000
283.603485	146.280000
283.696564	146.180000
283.789642	146.020000
283.882751	145.540000
283.975830	146.140000
284.068909	145.920000
284.161987	146.860000
284.255066	146.660000
284.348175	147.020000
284.441254	146.480000
284.534332	147.320000
284.627441	146.200000
284.720520	146.120000
284.813599	146.140000
284.906708	145.980000
284.999786	145.080000
285.092896	145.140000
285.185974	146.200000
285.279053	145.700000
285.372192	146.200000
285.465240	146.860000
285.558380	146.680000
285.651459	146.060000
285.744568	147.000000
285.837677	146.720000
285.930756	146.720000
286.023865	146.960000
286.116943	146.500000
286.210052	146.560000
286.303162	146.180000
286.396240	146.400000
286.489349	146.420000
286.582458	146.880000
286.675568	146.280000
286.768646	146.520000
286.861755	146.600000
286.954865	146.960000
287.047974	146.260000
287.141083	146.160000
287.234161	145.840000
287.327271	145.440000
287.420380	145.780000
287.513519	145.740000
287.606598	146.020000
287.699738	146.560000
287.792816	146.380000
287.885956	145.960000
287.979034	146.280000
288.072174	146.340000
288.165283	146.180000
288.258392	146.660000
288.351501	146.080000
288.444611	146.300000
288.537720	146.240000
288.630859	146.220000
288.723969	146.320000
288.817078	147.020000
288.910187	146.820000
289.003296	146.400000
289.096436	145.940000
289.189545	145.200000
289.282654	144.620000
289.375763	145.200000
289.468903	145.840000
289.562012	146.480000
289.655121	147.240000
289.748260	147.580000
289.841400	147.840000
289.934509	147.340000
290.027649	147.380000
290.120728	146.820000
290.213898	146.920000
290.306976	146.420000
290.400146	146.600000
290.493256	146.060000
290.586395	146.440000
290.679535	146.740000
290.772644	146.220000
290.865784	145.760000
290.958893	145.860000
291.052032	145.420000
291.145172	145.100000
291.238281	145.160000
291.331421	145.360000
291.424561	145.940000
291.517670	145.940000
291.610809	146.000000
291.703949	145.900000
291.797089	146.380000
291.890228	145.960000
291.983337	146.160000
292.076477	146.000000
292.169617	146.580000
292.262756	146.420000
292.355927	146.340000
292.449036	146.060000
292.542206	146.320000
292.635315	146.180000
292.728485	146.260000
292.821625	145.960000
292.914764	147.280000
293.007904	147.020000
293.101044	147.220000
293.194183	147.320000
293.287323	147.480000
293.380463	146.600000
293.473602	146.580000
293.566742	146.980000
293.659882	147.140000
293.753021	147.640000
293.846191	147.440000
293.939331	147.260000
294.032471	146.740000
294.125610	146.380000
294.218781	146.640000
294.311920	147.100000
294.405060	147.240000
294.498230	147.040000
294.591370	147.260000
294.684540	146.580000
294.777679	145.840000
294.870850	146.260000
294.963959	146.200000
295.057159	145.880000
295.150299	146.140000
295.243469	146.340000
295.336609	145.540000
295.429779	145.800000
295.522919	146.240000
295.616089	146.340000
295.709229	147.160000
295.802399	147.500000
295.895569	147.360000
295.988708	146.860000
296.081879	146.860000
296.175018	146.120000
296.268188	146.360000
296.361359	146.580000
296.454529	146.760000
296.547668	146.480000
296.640839	146.520000
296.734009	145.980000
296.827179	146.140000
296.920319	146.460000
297.013519	146.560000
297.106659	146.820000
297.199860	147.020000
297.292999	146.620000
297.386200	146.200000
297.479309	145.960000
297.572510	145.920000
297.665680	145.800000
297.758850	146.200000
297.852020	146.320000
297.945190	146.480000
298.038361	145.880000
298.131531	146.920000
298.224701	146.740000
298.317871	146.360000
298.411072	145.960000
298.504242	146.060000
298.597412	145.500000
298.690582	145.680000
298.783752	145.740000
298.876923	146.360000
298.970093	146.740000
299.063293	146.960000
299.156464	147.320000
299.249634	147.680000
299.342834	147.640000
299.436005	147.660000
299.529205	147.260000
299.622345	146.960000
299.715576	146.280000
299.808716	146.180000
299.901917	146.300000
299.995117	146.660000
300.088287	146.800000
300.181488	147.100000
300.274658	146.720000
300.367828	146.300000
300.461029	146.160000
300.554199	146.260000
300.647400	146.300000
300.740601	147.060000
300.833771	147.240000
300.926971	147.340000
301.020142	146.580000
301.113342	146.480000
301.206512	146.140000
301.299713	146.280000
301.392914	146.240000
301.486084	146.820000
301.579285	147.360000
301.672516	147.840000
301.765686	147.740000
301.858887	147.560000
301.952057	147.200000
302.045288	146.740000
302.138458	146.200000
302.231659	145.800000
302.324860	145.580000
302.418060	145.380000
302.511261	145.320000
302.604462	145.620000
302.697662	145.780000
302.790863	145.660000
302.884064	145.540000
302.977264	145.780000
303.070465	145.900000
303.163666	146.620000
303.256866	147.340000
303.350067	147.620000
303.443268	147.440000
303.536469	147.580000
303.629669	146.780000
303.722870	146.480000
303.816071	146.060000
303.909271	146.060000
304.002472	145.060000
304.095673	145.160000
304.188934	144.360000
304.282104	145.340000
304.375336	145.620000
304.468506	146.260000
304.561768	146.120000
304.654968	146.900000
304.748169	146.380000
304.841370	145.740000
304.934601	145.780000
305.027802	145.520000
305.121002	144.920000
305.214233	144.860000
305.307434	145.280000
305.400665	145.800000
305.493866	146.040000
