Model Number: SPM-002-B   
Serial Number: 70087108
Firmware Version: 004.15.4
Exposure Time: 100000.000000us
Data Taken on: 11-12-2020 18:42:49.964
Wavelength	Amplitude
221.570786	0.000000
221.663406	0.000000
221.756027	0.000000
221.848648	0.000000
221.941269	0.000000
222.033905	0.000000
222.126526	0.000000
222.219162	0.000000
222.311798	0.000000
222.404419	0.000000
222.497055	0.000000
222.589676	0.000000
222.682312	0.000000
222.774933	0.000000
222.867569	0.000000
222.960205	0.000000
223.052841	0.000000
223.145462	0.000000
223.238098	0.000000
223.330734	0.000000
223.423386	0.000000
223.516022	0.000000
223.608658	0.000000
223.701309	0.000000
223.793945	0.000000
223.886581	0.000000
223.979218	0.000000
224.071869	0.000000
224.164505	0.000000
224.257156	0.000000
224.349792	0.000000
224.442444	0.000000
224.535095	0.000000
224.627747	0.000000
224.720398	0.000000
224.813034	0.000000
224.905685	0.000000
224.998337	144.860000
225.090988	144.680000
225.183640	144.640000
225.276291	144.100000
225.368942	144.600000
225.461594	145.140000
225.554245	145.260000
225.646912	145.540000
225.739578	146.180000
225.832230	146.660000
225.924896	146.320000
226.017548	146.660000
226.110199	147.080000
226.202866	146.600000
226.295532	146.240000
226.388184	146.040000
226.480850	145.500000
226.573517	145.300000
226.666168	145.620000
226.758835	145.740000
226.851501	146.320000
226.944183	146.280000
227.036850	145.940000
227.129517	145.960000
227.222183	146.380000
227.314850	146.260000
227.407516	146.920000
227.500198	147.580000
227.592865	147.040000
227.685532	146.280000
227.778214	145.720000
227.870880	145.600000
227.963562	145.620000
228.056229	146.160000
228.148926	146.120000
228.241592	147.240000
228.334274	146.920000
228.426956	146.640000
228.519638	146.340000
228.612305	146.080000
228.704987	145.820000
228.797668	145.760000
228.890350	145.440000
228.983032	145.100000
229.075714	145.980000
229.168396	145.460000
229.261108	145.260000
229.353790	145.320000
229.446472	145.740000
229.539169	145.480000
229.631851	145.300000
229.724533	145.560000
229.817230	145.940000
229.909912	146.720000
230.002609	146.480000
230.095306	146.620000
230.187988	146.480000
230.280685	145.820000
230.373383	144.600000
230.466095	144.560000
230.558792	144.860000
230.651474	144.960000
230.744171	145.040000
230.836868	145.100000
230.929581	145.620000
231.022278	145.600000
231.114975	145.940000
231.207672	146.080000
231.300369	146.660000
231.393082	146.480000
231.485779	146.200000
231.578506	145.680000
231.671204	146.140000
231.763916	146.180000
231.856613	145.780000
231.949326	145.980000
232.042023	146.260000
232.134735	145.860000
232.227448	145.420000
232.320160	145.880000
232.412872	145.700000
232.505585	146.240000
232.598297	146.560000
232.691010	146.520000
232.783722	146.100000
232.876450	146.960000
232.969162	146.600000
233.061874	146.340000
233.154587	146.340000
233.247314	146.560000
233.340027	145.580000
233.432739	145.840000
233.525467	145.800000
233.618179	145.900000
233.710907	145.720000
233.803635	146.180000
233.896347	145.740000
233.989090	146.620000
234.081818	146.800000
234.174545	147.020000
234.267258	146.600000
234.359985	147.060000
234.452713	146.660000
234.545441	146.800000
234.638168	146.540000
234.730896	146.900000
234.823639	146.540000
234.916367	146.540000
235.009094	146.120000
235.101822	146.280000
235.194580	146.280000
235.287308	146.500000
235.380051	145.960000
235.472778	146.640000
235.565521	146.800000
235.658249	146.480000
235.750992	146.200000
235.843719	146.260000
235.936462	146.220000
236.029205	145.700000
236.121948	145.400000
236.214691	145.760000
236.307449	146.480000
236.400192	145.800000
236.492935	145.940000
236.585678	146.560000
236.678421	146.480000
236.771164	146.200000
236.863907	147.200000
236.956665	147.580000
237.049408	148.760000
237.142151	148.200000
237.234909	148.980000
237.327652	148.680000
237.420410	148.200000
237.513153	147.080000
237.605927	147.260000
237.698669	146.220000
237.791428	145.440000
237.884186	146.000000
237.976944	145.600000
238.069702	145.800000
238.162445	145.100000
238.255203	145.100000
238.347961	145.080000
238.440720	145.280000
238.533478	145.100000
238.626266	145.460000
238.719025	146.000000
238.811783	145.860000
238.904541	145.680000
238.997314	145.660000
239.090073	145.580000
239.182831	145.780000
239.275604	146.500000
239.368362	146.380000
239.461136	146.620000
239.553909	146.720000
239.646667	146.200000
239.739441	145.480000
239.832214	146.280000
239.925003	146.120000
240.017761	146.780000
240.110535	147.400000
240.203308	147.320000
240.296082	146.820000
240.388855	146.940000
240.481628	146.940000
240.574417	147.000000
240.667191	146.840000
240.759964	146.540000
240.852737	146.160000
240.945526	145.580000
241.038315	145.340000
241.131088	145.460000
241.223877	145.880000
241.316650	145.760000
241.409439	146.440000
241.502228	145.960000
241.595001	146.380000
241.687790	146.100000
241.780579	146.360000
241.873367	146.020000
241.966141	146.380000
242.058929	145.800000
242.151718	146.080000
242.244507	146.600000
242.337311	145.780000
242.430099	146.300000
242.522903	146.660000
242.615692	146.080000
242.708481	145.960000
242.801270	146.900000
242.894073	146.360000
242.986862	146.320000
243.079651	146.860000
243.172455	146.380000
243.265244	146.180000
243.358063	145.820000
243.450867	146.020000
243.543655	145.940000
243.636459	146.380000
243.729263	146.760000
243.822067	147.400000
243.914856	147.420000
244.007660	147.840000
244.100464	147.660000
244.193268	147.120000
244.286072	146.420000
244.378876	146.180000
244.471680	145.780000
244.564499	145.820000
244.657318	146.540000
244.750122	147.300000
244.842926	146.660000
244.935745	147.180000
245.028549	146.820000
245.121368	146.300000
245.214172	146.140000
245.306992	146.860000
245.399796	146.380000
245.492615	146.460000
245.585434	146.500000
245.678253	146.460000
245.771072	146.400000
245.863892	146.740000
245.956711	147.240000
246.049530	147.060000
246.142349	146.580000
246.235168	146.580000
246.327988	146.860000
246.420807	146.460000
246.513626	146.720000
246.606445	146.760000
246.699280	146.620000
246.792099	146.120000
246.884918	145.840000
246.977753	145.280000
247.070587	145.480000
247.163422	145.720000
247.256241	145.680000
247.349075	146.120000
247.441895	146.360000
247.534729	146.180000
247.627563	145.940000
247.720383	146.500000
247.813217	146.700000
247.906052	146.520000
247.998886	146.620000
248.091736	146.400000
248.184570	145.960000
248.277405	145.820000
248.370239	146.860000
248.463074	147.760000
248.555908	148.360000
248.648743	148.020000
248.741592	147.840000
248.834427	147.000000
248.927261	145.920000
249.020111	146.240000
249.112946	146.920000
249.205795	146.880000
249.298630	147.140000
249.391495	147.000000
249.484344	146.440000
249.577179	146.060000
249.670029	146.340000
249.762878	146.640000
249.855728	147.440000
249.948563	147.540000
250.041412	147.200000
250.134262	147.080000
250.227112	146.820000
250.319962	146.600000
250.412827	146.560000
250.505692	146.100000
250.598541	146.020000
250.691391	145.600000
250.784241	145.380000
250.877106	145.520000
250.969955	145.940000
251.062805	146.520000
251.155670	147.480000
251.248520	147.580000
251.341385	147.680000
251.434235	147.520000
251.527100	146.960000
251.619965	145.960000
251.712814	146.540000
251.805695	146.240000
251.898560	146.560000
251.991425	146.560000
252.084290	146.940000
252.177155	146.060000
252.270020	145.720000
252.362885	145.660000
252.455750	145.980000
252.548615	145.880000
252.641479	145.980000
252.734360	145.980000
252.827240	145.980000
252.920105	145.880000
253.012970	145.860000
253.105850	146.000000
253.198715	146.120000
253.291595	146.580000
253.384460	146.540000
253.477341	146.920000
253.570221	146.940000
253.663086	146.900000
253.755966	147.180000
253.848846	147.300000
253.941727	147.180000
254.034592	147.100000
254.127472	146.940000
254.220367	146.740000
254.313248	146.840000
254.406128	146.340000
254.499008	146.680000
254.591904	147.500000
254.684784	147.780000
254.777664	147.360000
254.870544	147.320000
254.963440	147.300000
255.056335	147.060000
255.149216	146.560000
255.242111	147.200000
255.334991	147.580000
255.427887	147.260000
255.520767	147.160000
255.613663	147.140000
255.706558	146.200000
255.799438	145.720000
255.892334	145.760000
255.985229	145.600000
256.078125	145.400000
256.171021	145.760000
256.263916	146.220000
256.356812	146.380000
256.449707	146.700000
256.542603	146.400000
256.635498	146.880000
256.728394	146.840000
256.821289	146.640000
256.914215	146.620000
257.007080	147.060000
257.100006	146.880000
257.192932	147.460000
257.285828	147.580000
257.378723	147.400000
257.471619	147.280000
257.564545	147.040000
257.657440	146.500000
257.750336	147.120000
257.843262	146.900000
257.936157	148.160000
258.029053	148.260000
258.121979	148.860000
258.214874	148.000000
258.307800	147.980000
258.400696	146.560000
258.493622	146.620000
258.586517	145.300000
258.679443	145.800000
258.772339	145.740000
258.865265	145.900000
258.958160	145.480000
259.051086	146.920000
259.144012	147.040000
259.236938	147.840000
259.329834	148.080000
259.422791	148.060000
259.515717	147.280000
259.608612	146.500000
259.701538	146.140000
259.794464	145.740000
259.887390	145.920000
259.980316	145.760000
260.073212	145.740000
260.166138	144.900000
260.259064	145.320000
260.351990	145.480000
260.444916	145.480000
260.537842	146.200000
260.630768	146.860000
260.723694	146.700000
260.816620	146.680000
260.909546	146.740000
261.002472	146.180000
261.095398	145.740000
261.188354	145.760000
261.281281	145.160000
261.374207	145.260000
261.467133	145.640000
261.560089	146.000000
261.653015	145.880000
261.745972	146.640000
261.838867	146.940000
261.931824	147.600000
262.024780	146.980000
262.117706	146.960000
262.210663	147.140000
262.303589	147.000000
262.396515	146.620000
262.489471	147.940000
262.582397	147.780000
262.675354	147.000000
262.768280	147.040000
262.861237	147.120000
262.954163	146.580000
263.047119	146.800000
263.140045	146.760000
263.233002	146.280000
263.325958	145.860000
263.418884	145.460000
263.511841	145.760000
263.604797	146.160000
263.697723	146.320000
263.790680	146.300000
263.883636	146.780000
263.976593	146.460000
264.069550	146.720000
264.162476	146.880000
264.255463	146.660000
264.348419	146.260000
264.441376	146.460000
264.534332	145.740000
264.627289	145.740000
264.720245	146.380000
264.813202	146.120000
264.906158	146.320000
264.999115	146.900000
265.092072	146.620000
265.185028	146.760000
265.277985	147.100000
265.370941	146.820000
265.463898	146.660000
265.556854	146.620000
265.649811	145.840000
265.742798	145.960000
265.835754	146.020000
265.928711	146.560000
266.021667	146.640000
266.114655	147.160000
266.207611	147.320000
266.300568	146.540000
266.393585	146.060000
266.486511	146.360000
266.579498	145.600000
266.672485	145.320000
266.765442	145.580000
266.858429	145.980000
266.951385	145.400000
267.044342	145.660000
267.137329	145.700000
267.230316	146.120000
267.323273	145.580000
267.416260	146.460000
267.509216	146.420000
267.602203	146.180000
267.695160	146.340000
267.788147	146.380000
267.881134	145.720000
267.974091	146.080000
268.067078	146.200000
268.160065	145.980000
268.253052	145.900000
268.346008	146.120000
268.438995	145.900000
268.531982	146.140000
268.624969	145.820000
268.717987	145.860000
268.810944	145.520000
268.903961	145.560000
268.996948	145.040000
269.089905	145.700000
269.182892	145.500000
269.275879	146.040000
269.368866	145.660000
269.461853	145.860000
269.554871	145.500000
269.647858	145.940000
269.740845	146.360000
269.833832	146.860000
269.926819	146.800000
270.019806	146.740000
270.112793	146.160000
270.205811	145.880000
270.298798	145.680000
270.391785	146.380000
270.484772	146.240000
270.577789	146.580000
270.670776	146.160000
270.763763	146.200000
270.856750	145.960000
270.949768	145.960000
271.042786	146.060000
271.135773	146.080000
271.228790	146.560000
271.321808	146.100000
271.414795	145.840000
271.507782	145.620000
271.600800	145.540000
271.693817	145.140000
271.786804	145.700000
271.879822	146.120000
271.972809	146.140000
272.065826	146.720000
272.158844	146.320000
272.251831	146.500000
272.344849	146.500000
272.437866	146.220000
272.530853	145.920000
272.623871	146.500000
272.716888	145.740000
272.809906	146.040000
272.902893	146.040000
272.995911	145.420000
273.088928	145.160000
273.181946	145.340000
273.274963	145.020000
273.367981	145.080000
273.460999	145.340000
273.554047	145.720000
273.647003	146.380000
273.740051	146.320000
273.833069	146.940000
273.926086	147.320000
274.019135	146.900000
274.112152	146.540000
274.205170	146.700000
274.298187	146.780000
274.391205	146.460000
274.484222	146.440000
274.577240	146.320000
274.670258	146.120000
274.763306	145.420000
274.856323	145.640000
274.949341	146.000000
275.042358	146.420000
275.135406	146.160000
275.228424	146.340000
275.321442	146.340000
275.414490	145.980000
275.507507	146.380000
275.600525	147.020000
275.693573	146.640000
275.786591	146.500000
275.879669	146.700000
275.972656	146.000000
276.065735	145.840000
276.158752	146.760000
276.251801	147.540000
276.344818	147.520000
276.437866	147.420000
276.530884	147.140000
276.623932	146.260000
276.716980	145.960000
276.809998	145.960000
276.903046	146.040000
276.996094	147.020000
277.089111	148.000000
277.182159	148.180000
277.275208	147.900000
277.368256	148.020000
277.461304	147.300000
277.554321	146.380000
277.647369	146.080000
277.740417	146.380000
277.833466	146.100000
277.926514	146.040000
278.019562	146.840000
278.112610	146.400000
278.205688	146.440000
278.298706	146.540000
278.391785	146.320000
278.484833	145.780000
278.577881	145.880000
278.670929	145.960000
278.763977	146.040000
278.857025	146.580000
278.950073	146.740000
279.043121	146.640000
279.136169	146.340000
279.229248	146.020000
279.322296	145.580000
279.415344	145.280000
279.508392	145.320000
279.601440	145.400000
279.694519	145.460000
279.787567	145.500000
279.880615	145.480000
279.973694	145.420000
280.066742	145.320000
280.159790	145.640000
280.252869	145.660000
280.345917	146.000000
280.438995	146.020000
280.532074	146.140000
280.625122	146.520000
280.718201	147.400000
280.811279	147.220000
280.904327	147.240000
280.997406	147.080000
281.090454	146.720000
281.183533	145.960000
281.276581	145.820000
281.369659	145.680000
281.462738	145.940000
281.555786	146.060000
281.648865	146.120000
281.741943	146.240000
281.835022	146.760000
281.928070	146.600000
282.021149	146.380000
282.114227	145.900000
282.207306	145.900000
282.300385	146.280000
282.393433	146.440000
282.486511	146.520000
282.579590	147.160000
282.672668	147.360000
282.765747	146.360000
282.858856	145.800000
282.951904	145.720000
283.045013	145.940000
283.138062	146.220000
283.231171	146.600000
283.324249	147.080000
283.417328	147.260000
283.510406	146.640000
283.603485	146.540000
283.696564	146.320000
283.789642	146.560000
283.882751	146.320000
283.975830	147.060000
284.068909	146.680000
284.161987	147.720000
284.255066	147.020000
284.348175	147.140000
284.441254	146.780000
284.534332	147.280000
284.627441	146.100000
284.720520	146.100000
284.813599	146.020000
284.906708	145.900000
284.999786	145.220000
285.092896	145.460000
285.185974	146.500000
285.279053	145.980000
285.372192	146.180000
285.465240	147.020000
285.558380	146.980000
285.651459	146.280000
285.744568	147.260000
285.837677	146.840000
285.930756	146.460000
286.023865	146.780000
286.116943	146.880000
286.210052	146.660000
286.303162	146.540000
286.396240	146.440000
286.489349	146.120000
286.582458	146.420000
286.675568	146.140000
286.768646	146.380000
286.861755	146.760000
286.954865	147.600000
287.047974	147.060000
287.141083	146.960000
287.234161	146.800000
287.327271	146.720000
287.420380	146.640000
287.513519	146.600000
287.606598	146.700000
287.699738	146.960000
287.792816	146.500000
287.885956	146.040000
287.979034	146.200000
288.072174	146.300000
288.165283	146.140000
288.258392	146.500000
288.351501	145.900000
288.444611	146.120000
288.537720	146.260000
288.630859	146.180000
288.723969	146.340000
288.817078	146.980000
288.910187	146.580000
289.003296	146.140000
289.096436	146.200000
289.189545	145.920000
289.282654	145.420000
289.375763	146.260000
289.468903	146.920000
289.562012	147.160000
289.655121	146.980000
289.748260	147.500000
289.841400	147.340000
289.934509	146.980000
290.027649	147.080000
290.120728	147.100000
290.213898	147.000000
290.306976	146.620000
290.400146	146.800000
290.493256	146.220000
290.586395	146.420000
290.679535	146.700000
290.772644	146.460000
290.865784	145.520000
290.958893	145.580000
291.052032	145.300000
291.145172	145.120000
291.238281	144.980000
291.331421	145.480000
291.424561	146.260000
291.517670	146.180000
291.610809	146.080000
291.703949	146.060000
291.797089	146.420000
291.890228	145.640000
291.983337	145.720000
292.076477	145.640000
292.169617	146.080000
292.262756	145.760000
292.355927	145.860000
292.449036	145.640000
292.542206	145.940000
292.635315	145.980000
292.728485	146.220000
292.821625	146.040000
292.914764	147.200000
293.007904	147.080000
293.101044	147.120000
293.194183	146.860000
293.287323	147.140000
293.380463	146.420000
293.473602	146.140000
293.566742	146.120000
293.659882	146.780000
293.753021	146.980000
293.846191	147.020000
293.939331	146.920000
294.032471	146.580000
294.125610	146.320000
294.218781	146.620000
294.311920	146.840000
294.405060	146.900000
294.498230	147.380000
294.591370	147.240000
294.684540	146.460000
294.777679	146.160000
294.870850	146.600000
294.963959	146.200000
295.057159	146.100000
295.150299	146.480000
295.243469	146.120000
295.336609	145.360000
295.429779	145.500000
295.522919	145.860000
295.616089	145.920000
295.709229	146.700000
295.802399	146.960000
295.895569	146.780000
295.988708	146.500000
296.081879	146.720000
296.175018	145.920000
296.268188	146.300000
296.361359	146.740000
296.454529	146.900000
296.547668	146.620000
296.640839	147.240000
296.734009	146.880000
296.827179	147.060000
296.920319	147.340000
297.013519	147.280000
297.106659	147.160000
297.199860	147.080000
297.292999	146.840000
297.386200	146.280000
297.479309	145.840000
297.572510	145.940000
297.665680	145.920000
297.758850	145.880000
297.852020	145.600000
297.945190	145.640000
298.038361	145.240000
298.131531	146.140000
298.224701	145.520000
298.317871	145.380000
298.411072	145.200000
298.504242	144.940000
298.597412	144.360000
298.690582	144.980000
298.783752	145.260000
298.876923	146.000000
298.970093	146.560000
299.063293	146.900000
299.156464	147.000000
299.249634	147.300000
299.342834	147.580000
299.436005	147.880000
299.529205	147.680000
299.622345	147.700000
299.715576	147.240000
299.808716	146.300000
299.901917	145.860000
299.995117	145.980000
300.088287	146.080000
300.181488	146.120000
300.274658	146.480000
300.367828	146.700000
300.461029	146.440000
300.554199	146.560000
300.647400	146.720000
300.740601	147.300000
300.833771	147.060000
300.926971	147.120000
301.020142	146.460000
301.113342	146.380000
301.206512	146.060000
301.299713	146.340000
301.392914	146.440000
301.486084	146.980000
301.579285	146.900000
301.672516	147.200000
301.765686	147.040000
301.858887	147.100000
301.952057	146.960000
302.045288	147.420000
302.138458	147.220000
302.231659	147.180000
302.324860	147.240000
302.418060	147.040000
302.511261	146.620000
302.604462	146.480000
302.697662	146.240000
302.790863	145.900000
302.884064	145.340000
302.977264	145.440000
303.070465	145.900000
303.163666	146.680000
303.256866	146.940000
303.350067	147.240000
303.443268	147.180000
303.536469	147.240000
303.629669	146.680000
303.722870	146.740000
303.816071	146.800000
303.909271	146.800000
304.002472	145.620000
304.095673	145.420000
304.188934	144.620000
304.282104	145.360000
304.375336	145.340000
304.468506	145.820000
304.561768	145.720000
304.654968	146.660000
304.748169	145.920000
304.841370	145.860000
304.934601	146.080000
305.027802	145.780000
305.121002	145.420000
305.214233	145.780000
305.307434	145.840000
305.400665	146.440000
305.493866	146.500000
