Model Number: SPM-002-B   
Serial Number: 70087108
Firmware Version: 004.15.4
Exposure Time: 100000.000000us
Data Taken on: 11-12-2020 18:43:02.079
Wavelength	Amplitude
221.570786	0.000000
221.663406	0.000000
221.756027	0.000000
221.848648	0.000000
221.941269	0.000000
222.033905	0.000000
222.126526	0.000000
222.219162	0.000000
222.311798	0.000000
222.404419	0.000000
222.497055	0.000000
222.589676	0.000000
222.682312	0.000000
222.774933	0.000000
222.867569	0.000000
222.960205	0.000000
223.052841	0.000000
223.145462	0.000000
223.238098	0.000000
223.330734	0.000000
223.423386	0.000000
223.516022	0.000000
223.608658	0.000000
223.701309	0.000000
223.793945	0.000000
223.886581	0.000000
223.979218	0.000000
224.071869	0.000000
224.164505	0.000000
224.257156	0.000000
224.349792	0.000000
224.442444	0.000000
224.535095	0.000000
224.627747	0.000000
224.720398	0.000000
224.813034	0.000000
224.905685	0.000000
224.998337	145.760000
225.090988	145.220000
225.183640	144.900000
225.276291	144.780000
225.368942	145.320000
225.461594	145.520000
225.554245	145.820000
225.646912	146.040000
225.739578	146.280000
225.832230	146.900000
225.924896	146.100000
226.017548	146.500000
226.110199	147.100000
226.202866	146.480000
226.295532	145.980000
226.388184	146.260000
226.480850	145.720000
226.573517	145.240000
226.666168	145.820000
226.758835	145.900000
226.851501	146.300000
226.944183	146.540000
227.036850	146.060000
227.129517	145.500000
227.222183	145.620000
227.314850	145.800000
227.407516	146.200000
227.500198	147.300000
227.592865	147.580000
227.685532	147.260000
227.778214	146.840000
227.870880	146.800000
227.963562	146.680000
228.056229	147.100000
228.148926	146.900000
228.241592	147.900000
228.334274	147.520000
228.426956	147.220000
228.519638	147.080000
228.612305	146.900000
228.704987	146.400000
228.797668	146.480000
228.890350	146.440000
228.983032	145.800000
229.075714	146.780000
229.168396	146.300000
229.261108	145.980000
229.353790	145.700000
229.446472	146.360000
229.539169	145.880000
229.631851	145.440000
229.724533	145.700000
229.817230	145.920000
229.909912	146.560000
230.002609	146.620000
230.095306	147.080000
230.187988	146.940000
230.280685	146.860000
230.373383	145.740000
230.466095	145.460000
230.558792	145.740000
230.651474	145.740000
230.744171	145.560000
230.836868	145.820000
230.929581	146.260000
231.022278	146.520000
231.114975	146.560000
231.207672	146.760000
231.300369	147.040000
231.393082	146.860000
231.485779	146.300000
231.578506	146.480000
231.671204	146.500000
231.763916	146.260000
231.856613	146.320000
231.949326	146.580000
232.042023	146.340000
232.134735	146.200000
232.227448	146.100000
232.320160	146.260000
232.412872	146.280000
232.505585	147.160000
232.598297	147.640000
232.691010	147.300000
232.783722	146.580000
232.876450	147.080000
232.969162	146.540000
233.061874	145.820000
233.154587	145.760000
233.247314	146.420000
233.340027	145.740000
233.432739	146.460000
233.525467	146.380000
233.618179	146.940000
233.710907	146.440000
233.803635	146.620000
233.896347	145.720000
233.989090	146.760000
234.081818	146.280000
234.174545	146.660000
234.267258	146.320000
234.359985	146.720000
234.452713	146.280000
234.545441	146.300000
234.638168	145.940000
234.730896	146.480000
234.823639	146.180000
234.916367	146.460000
235.009094	146.680000
235.101822	146.840000
235.194580	146.360000
235.287308	146.260000
235.380051	145.620000
235.472778	145.800000
235.565521	146.040000
235.658249	145.700000
235.750992	145.680000
235.843719	145.560000
235.936462	145.880000
236.029205	145.340000
236.121948	145.660000
236.214691	146.200000
236.307449	146.920000
236.400192	146.340000
236.492935	146.400000
236.585678	146.560000
236.678421	146.420000
236.771164	146.260000
236.863907	147.040000
236.956665	147.820000
237.049408	149.460000
237.142151	149.300000
237.234909	149.580000
237.327652	149.280000
237.420410	148.560000
237.513153	147.540000
237.605927	147.080000
237.698669	146.460000
237.791428	145.740000
237.884186	146.360000
237.976944	145.280000
238.069702	145.880000
238.162445	145.560000
238.255203	146.000000
238.347961	146.180000
238.440720	146.320000
238.533478	145.860000
238.626266	145.840000
238.719025	146.220000
238.811783	145.600000
238.904541	145.660000
238.997314	145.580000
239.090073	145.560000
239.182831	145.180000
239.275604	146.200000
239.368362	146.460000
239.461136	146.680000
239.553909	146.840000
239.646667	146.760000
239.739441	145.900000
239.832214	146.020000
239.925003	146.100000
240.017761	146.880000
240.110535	147.260000
240.203308	147.040000
240.296082	147.020000
240.388855	147.000000
240.481628	146.620000
240.574417	146.740000
240.667191	146.940000
240.759964	146.660000
240.852737	146.580000
240.945526	146.160000
241.038315	145.940000
241.131088	145.780000
241.223877	145.960000
241.316650	145.700000
241.409439	146.320000
241.502228	145.600000
241.595001	146.440000
241.687790	146.120000
241.780579	146.260000
241.873367	146.000000
241.966141	146.760000
242.058929	145.900000
242.151718	146.240000
242.244507	146.720000
242.337311	146.160000
242.430099	146.260000
242.522903	146.500000
242.615692	145.860000
242.708481	145.480000
242.801270	146.300000
242.894073	145.940000
242.986862	145.840000
243.079651	146.900000
243.172455	146.600000
243.265244	146.440000
243.358063	146.300000
243.450867	146.820000
243.543655	146.380000
243.636459	146.860000
243.729263	147.060000
243.822067	147.220000
243.914856	147.420000
244.007660	147.860000
244.100464	147.660000
244.193268	147.440000
244.286072	147.440000
244.378876	146.640000
244.471680	145.920000
244.564499	146.200000
244.657318	146.600000
244.750122	147.020000
244.842926	146.800000
244.935745	147.040000
245.028549	146.280000
245.121368	145.660000
245.214172	145.320000
245.306992	146.080000
245.399796	145.780000
245.492615	146.220000
245.585434	146.100000
245.678253	146.080000
245.771072	145.540000
245.863892	146.380000
245.956711	146.600000
246.049530	146.520000
246.142349	146.300000
246.235168	146.700000
246.327988	146.900000
246.420807	146.580000
246.513626	146.900000
246.606445	146.740000
246.699280	146.680000
246.792099	146.260000
246.884918	145.880000
246.977753	145.620000
247.070587	146.020000
247.163422	145.760000
247.256241	145.960000
247.349075	146.540000
247.441895	146.940000
247.534729	146.780000
247.627563	146.740000
247.720383	146.880000
247.813217	146.740000
247.906052	146.360000
247.998886	146.400000
248.091736	146.420000
248.184570	145.920000
248.277405	146.060000
248.370239	146.940000
248.463074	147.480000
248.555908	147.620000
248.648743	147.640000
248.741592	147.800000
248.834427	146.660000
248.927261	145.700000
249.020111	145.880000
249.112946	146.280000
249.205795	146.000000
249.298630	146.460000
249.391495	146.600000
249.484344	146.300000
249.577179	146.180000
249.670029	146.360000
249.762878	146.940000
249.855728	147.400000
249.948563	147.320000
250.041412	146.700000
250.134262	146.500000
250.227112	146.300000
250.319962	146.620000
250.412827	146.820000
250.505692	146.680000
250.598541	147.060000
250.691391	146.460000
250.784241	145.980000
250.877106	146.180000
250.969955	146.220000
251.062805	146.420000
251.155670	147.380000
251.248520	146.800000
251.341385	146.700000
251.434235	146.820000
251.527100	146.280000
251.619965	145.280000
251.712814	146.540000
251.805695	146.700000
251.898560	146.660000
251.991425	146.860000
252.084290	147.380000
252.177155	146.460000
252.270020	145.940000
252.362885	146.120000
252.455750	145.960000
252.548615	145.640000
252.641479	145.720000
252.734360	145.840000
252.827240	145.780000
252.920105	146.000000
253.012970	145.720000
253.105850	145.860000
253.198715	145.580000
253.291595	145.320000
253.384460	145.060000
253.477341	145.260000
253.570221	145.360000
253.663086	145.320000
253.755966	146.040000
253.848846	146.040000
253.941727	146.500000
254.034592	146.540000
254.127472	146.120000
254.220367	146.140000
254.313248	146.360000
254.406128	145.700000
254.499008	145.780000
254.591904	147.080000
254.684784	147.440000
254.777664	147.400000
254.870544	147.160000
254.963440	147.220000
255.056335	146.760000
255.149216	146.120000
255.242111	146.580000
255.334991	147.360000
255.427887	147.060000
255.520767	147.360000
255.613663	147.740000
255.706558	147.040000
255.799438	146.500000
255.892334	146.280000
255.985229	146.060000
256.078125	145.600000
256.171021	145.680000
256.263916	146.060000
256.356812	146.480000
256.449707	146.700000
256.542603	146.520000
256.635498	146.960000
256.728394	146.880000
256.821289	146.580000
256.914215	146.560000
257.007080	147.100000
257.100006	147.000000
257.192932	147.220000
257.285828	147.540000
257.378723	147.480000
257.471619	147.000000
257.564545	146.480000
257.657440	146.800000
257.750336	146.920000
257.843262	146.460000
257.936157	147.600000
258.029053	148.080000
258.121979	147.760000
258.214874	147.500000
258.307800	147.300000
258.400696	146.140000
258.493622	145.840000
258.586517	145.220000
258.679443	145.660000
258.772339	145.460000
258.865265	145.480000
258.958160	145.500000
259.051086	146.540000
259.144012	146.220000
259.236938	147.240000
259.329834	147.460000
259.422791	147.220000
259.515717	146.220000
259.608612	145.680000
259.701538	145.720000
259.794464	145.420000
259.887390	145.440000
259.980316	145.500000
260.073212	145.620000
260.166138	144.480000
260.259064	145.260000
260.351990	146.060000
260.444916	146.200000
260.537842	146.520000
260.630768	147.720000
260.723694	147.160000
260.816620	146.580000
260.909546	146.660000
261.002472	146.360000
261.095398	145.440000
261.188354	145.660000
261.281281	145.520000
261.374207	145.500000
261.467133	146.300000
261.560089	146.680000
261.653015	146.480000
261.745972	147.280000
261.838867	147.720000
261.931824	147.640000
262.024780	147.100000
262.117706	147.360000
262.210663	147.100000
262.303589	146.980000
262.396515	146.760000
262.489471	147.980000
262.582397	147.560000
262.675354	146.780000
262.768280	146.680000
262.861237	146.820000
262.954163	146.300000
263.047119	146.620000
263.140045	146.580000
263.233002	146.420000
263.325958	145.920000
263.418884	145.480000
263.511841	145.340000
263.604797	145.420000
263.697723	145.720000
263.790680	145.840000
263.883636	146.520000
263.976593	146.440000
264.069550	146.860000
264.162476	146.520000
264.255463	146.720000
264.348419	145.940000
264.441376	146.240000
264.534332	145.840000
264.627289	145.880000
264.720245	146.100000
264.813202	146.000000
264.906158	146.220000
264.999115	146.720000
265.092072	146.680000
265.185028	146.960000
265.277985	147.600000
265.370941	147.280000
265.463898	146.960000
265.556854	146.640000
265.649811	145.740000
265.742798	145.320000
265.835754	145.320000
265.928711	146.060000
266.021667	146.240000
266.114655	146.540000
266.207611	147.040000
266.300568	146.600000
266.393585	145.700000
266.486511	146.180000
266.579498	145.580000
266.672485	145.440000
266.765442	145.420000
266.858429	145.920000
266.951385	145.260000
267.044342	145.560000
267.137329	145.320000
267.230316	145.600000
267.323273	145.120000
267.416260	146.000000
267.509216	145.860000
267.602203	146.180000
267.695160	146.200000
267.788147	146.460000
267.881134	145.900000
267.974091	146.380000
268.067078	145.940000
268.160065	145.840000
268.253052	145.880000
268.346008	146.140000
268.438995	145.920000
268.531982	145.980000
268.624969	146.040000
268.717987	146.300000
268.810944	146.280000
268.903961	146.160000
268.996948	146.020000
269.089905	146.440000
269.182892	146.400000
269.275879	146.640000
269.368866	146.500000
269.461853	146.860000
269.554871	146.780000
269.647858	146.420000
269.740845	146.440000
269.833832	146.940000
269.926819	146.660000
270.019806	146.620000
270.112793	146.440000
270.205811	146.520000
270.298798	146.140000
270.391785	146.500000
270.484772	146.020000
270.577789	146.260000
270.670776	145.780000
270.763763	145.860000
270.856750	145.740000
270.949768	145.820000
271.042786	145.900000
271.135773	145.860000
271.228790	146.380000
271.321808	146.100000
271.414795	145.660000
271.507782	145.360000
271.600800	145.020000
271.693817	144.720000
271.786804	145.260000
271.879822	145.720000
271.972809	145.720000
272.065826	146.360000
272.158844	145.940000
272.251831	146.220000
272.344849	146.360000
272.437866	146.380000
272.530853	146.420000
272.623871	147.000000
272.716888	145.920000
272.809906	146.300000
272.902893	146.340000
272.995911	145.780000
273.088928	145.540000
273.181946	146.100000
273.274963	145.560000
273.367981	145.560000
273.460999	145.720000
273.554047	146.320000
273.647003	146.920000
273.740051	147.140000
273.833069	147.580000
273.926086	147.980000
274.019135	147.320000
274.112152	146.720000
274.205170	146.440000
274.298187	146.660000
274.391205	146.080000
274.484222	146.040000
274.577240	146.040000
274.670258	145.900000
274.763306	145.180000
274.856323	145.620000
274.949341	145.760000
275.042358	145.920000
275.135406	145.920000
275.228424	146.140000
275.321442	145.900000
275.414490	145.600000
275.507507	145.920000
275.600525	146.620000
275.693573	146.280000
275.786591	146.340000
275.879669	146.520000
275.972656	145.680000
276.065735	145.240000
276.158752	145.960000
276.251801	146.380000
276.344818	146.320000
276.437866	146.860000
276.530884	146.680000
276.623932	145.860000
276.716980	145.840000
276.809998	146.320000
276.903046	146.060000
276.996094	147.020000
277.089111	147.760000
277.182159	147.800000
277.275208	147.380000
277.368256	147.640000
277.461304	146.860000
277.554321	146.100000
277.647369	146.020000
277.740417	146.020000
277.833466	145.500000
277.926514	145.600000
278.019562	146.780000
278.112610	146.240000
278.205688	146.480000
278.298706	147.000000
278.391785	146.580000
278.484833	145.620000
278.577881	145.540000
278.670929	145.880000
278.763977	145.900000
278.857025	146.660000
278.950073	146.620000
279.043121	146.740000
279.136169	146.400000
279.229248	146.080000
279.322296	146.060000
279.415344	146.180000
279.508392	146.080000
279.601440	146.020000
279.694519	146.080000
279.787567	145.700000
279.880615	145.600000
279.973694	145.480000
280.066742	145.340000
280.159790	145.440000
280.252869	145.480000
280.345917	145.460000
280.438995	145.860000
280.532074	145.880000
280.625122	146.280000
280.718201	147.280000
280.811279	147.620000
280.904327	147.480000
280.997406	148.060000
281.090454	147.960000
281.183533	146.780000
281.276581	146.620000
281.369659	146.220000
281.462738	145.760000
281.555786	145.640000
281.648865	146.060000
281.741943	145.960000
281.835022	146.900000
281.928070	146.620000
282.021149	146.300000
282.114227	146.080000
282.207306	146.320000
282.300385	146.360000
282.393433	146.860000
282.486511	147.140000
282.579590	147.860000
282.672668	147.860000
282.765747	147.140000
282.858856	146.580000
282.951904	146.580000
283.045013	146.280000
283.138062	146.700000
283.231171	147.160000
283.324249	147.780000
283.417328	147.740000
283.510406	147.080000
283.603485	146.520000
283.696564	146.260000
283.789642	146.200000
283.882751	146.060000
283.975830	146.680000
284.068909	146.860000
284.161987	147.280000
284.255066	146.420000
284.348175	146.540000
284.441254	146.280000
284.534332	146.580000
284.627441	146.080000
284.720520	146.120000
284.813599	146.020000
284.906708	146.040000
284.999786	145.400000
285.092896	145.300000
285.185974	146.640000
285.279053	146.380000
285.372192	146.480000
285.465240	147.180000
285.558380	147.320000
285.651459	146.440000
285.744568	147.340000
285.837677	147.000000
285.930756	146.540000
286.023865	146.760000
286.116943	146.540000
286.210052	145.840000
286.303162	146.000000
286.396240	146.000000
286.489349	145.660000
286.582458	146.260000
286.675568	146.520000
286.768646	146.460000
286.861755	146.800000
286.954865	147.600000
287.047974	146.680000
287.141083	146.500000
287.234161	146.300000
287.327271	145.880000
287.420380	146.000000
287.513519	146.200000
287.606598	146.400000
287.699738	146.900000
287.792816	146.940000
287.885956	146.400000
287.979034	146.640000
288.072174	146.400000
288.165283	145.820000
288.258392	146.080000
288.351501	145.600000
288.444611	145.720000
288.537720	146.260000
288.630859	146.460000
288.723969	146.300000
288.817078	146.960000
288.910187	146.920000
289.003296	146.300000
289.096436	145.960000
289.189545	145.840000
289.282654	145.300000
289.375763	145.820000
289.468903	146.360000
289.562012	146.840000
289.655121	146.920000
289.748260	146.980000
289.841400	146.600000
289.934509	146.360000
290.027649	146.380000
290.120728	146.180000
290.213898	146.520000
290.306976	146.440000
290.400146	146.280000
290.493256	145.880000
290.586395	146.300000
290.679535	146.460000
290.772644	146.560000
290.865784	146.120000
290.958893	145.960000
291.052032	145.560000
291.145172	145.300000
291.238281	145.120000
291.331421	145.420000
291.424561	146.120000
291.517670	146.060000
291.610809	146.480000
291.703949	146.340000
291.797089	146.520000
291.890228	145.940000
291.983337	145.980000
292.076477	145.260000
292.169617	145.480000
292.262756	145.380000
292.355927	145.720000
292.449036	145.440000
292.542206	145.640000
292.635315	145.780000
292.728485	146.140000
292.821625	145.620000
292.914764	146.860000
293.007904	147.060000
293.101044	147.000000
293.194183	146.420000
293.287323	146.800000
293.380463	145.860000
293.473602	145.460000
293.566742	145.860000
293.659882	146.440000
293.753021	146.660000
293.846191	146.440000
293.939331	146.260000
294.032471	145.480000
294.125610	144.920000
294.218781	145.260000
294.311920	145.900000
294.405060	146.280000
294.498230	146.500000
294.591370	146.820000
294.684540	145.940000
294.777679	145.700000
294.870850	145.840000
294.963959	145.920000
295.057159	145.720000
295.150299	146.180000
295.243469	146.000000
295.336609	145.640000
295.429779	145.440000
295.522919	146.040000
295.616089	146.400000
295.709229	146.800000
295.802399	146.800000
295.895569	146.900000
295.988708	146.340000
296.081879	146.060000
296.175018	145.700000
296.268188	145.760000
296.361359	146.240000
296.454529	146.480000
296.547668	146.380000
296.640839	146.740000
296.734009	146.760000
296.827179	146.640000
296.920319	146.980000
297.013519	146.920000
297.106659	146.880000
297.199860	146.860000
297.292999	146.660000
297.386200	145.900000
297.479309	146.020000
297.572510	145.960000
297.665680	145.580000
297.758850	145.800000
297.852020	145.920000
297.945190	145.580000
298.038361	145.280000
298.131531	146.260000
298.224701	145.740000
298.317871	145.620000
298.411072	145.360000
298.504242	144.900000
298.597412	144.520000
298.690582	144.820000
298.783752	144.940000
298.876923	145.620000
298.970093	146.220000
299.063293	146.560000
299.156464	146.680000
299.249634	147.020000
299.342834	147.140000
299.436005	147.320000
299.529205	147.040000
299.622345	147.180000
299.715576	146.680000
299.808716	146.220000
299.901917	146.040000
299.995117	146.320000
300.088287	146.520000
300.181488	146.360000
300.274658	146.360000
300.367828	146.780000
300.461029	146.400000
300.554199	146.180000
300.647400	146.500000
300.740601	146.880000
300.833771	146.360000
300.926971	146.740000
301.020142	146.140000
301.113342	146.200000
301.206512	145.980000
301.299713	146.340000
301.392914	146.020000
301.486084	146.460000
301.579285	146.080000
301.672516	146.820000
301.765686	146.460000
301.858887	146.480000
301.952057	146.740000
302.045288	147.440000
302.138458	146.840000
302.231659	147.020000
302.324860	146.960000
302.418060	146.120000
302.511261	145.760000
302.604462	146.020000
302.697662	145.640000
302.790863	145.460000
302.884064	145.520000
302.977264	145.560000
303.070465	145.580000
303.163666	146.140000
303.256866	146.520000
303.350067	146.960000
303.443268	146.820000
303.536469	146.740000
303.629669	146.340000
303.722870	146.240000
303.816071	145.840000
303.909271	145.900000
304.002472	145.140000
304.095673	145.040000
304.188934	144.300000
304.282104	145.400000
304.375336	145.620000
304.468506	145.860000
304.561768	145.620000
304.654968	146.400000
304.748169	145.580000
304.841370	145.120000
304.934601	145.240000
305.027802	145.320000
305.121002	144.960000
305.214233	145.160000
305.307434	145.560000
305.400665	146.480000
305.493866	146.260000
