Model Number: SPM-002-B   
Serial Number: 70087108
Firmware Version: 004.15.4
Exposure Time: 100000.000000us
Data Taken on: 11-12-2020 18:43:26.267
Wavelength	Amplitude
221.570786	0.000000
221.663406	0.000000
221.756027	0.000000
221.848648	0.000000
221.941269	0.000000
222.033905	0.000000
222.126526	0.000000
222.219162	0.000000
222.311798	0.000000
222.404419	0.000000
222.497055	0.000000
222.589676	0.000000
222.682312	0.000000
222.774933	0.000000
222.867569	0.000000
222.960205	0.000000
223.052841	0.000000
223.145462	0.000000
223.238098	0.000000
223.330734	0.000000
223.423386	0.000000
223.516022	0.000000
223.608658	0.000000
223.701309	0.000000
223.793945	0.000000
223.886581	0.000000
223.979218	0.000000
224.071869	0.000000
224.164505	0.000000
224.257156	0.000000
224.349792	0.000000
224.442444	0.000000
224.535095	0.000000
224.627747	0.000000
224.720398	0.000000
224.813034	0.000000
224.905685	0.000000
224.998337	145.440000
225.090988	145.560000
225.183640	145.660000
225.276291	145.400000
225.368942	145.680000
225.461594	146.040000
225.554245	145.960000
225.646912	146.100000
225.739578	146.740000
225.832230	146.860000
225.924896	146.220000
226.017548	146.940000
226.110199	147.540000
226.202866	146.700000
226.295532	146.800000
226.388184	146.760000
226.480850	146.000000
226.573517	145.180000
226.666168	145.540000
226.758835	145.840000
226.851501	146.240000
226.944183	146.720000
227.036850	146.380000
227.129517	146.400000
227.222183	146.080000
227.314850	146.020000
227.407516	146.220000
227.500198	147.440000
227.592865	147.220000
227.685532	147.000000
227.778214	146.600000
227.870880	146.700000
227.963562	146.740000
228.056229	147.080000
228.148926	147.240000
228.241592	148.120000
228.334274	147.560000
228.426956	147.040000
228.519638	146.740000
228.612305	146.120000
228.704987	146.120000
228.797668	146.120000
228.890350	145.940000
228.983032	145.400000
229.075714	146.060000
229.168396	145.500000
229.261108	145.100000
229.353790	145.120000
229.446472	145.860000
229.539169	145.640000
229.631851	145.320000
229.724533	145.820000
229.817230	145.960000
229.909912	146.880000
230.002609	146.900000
230.095306	147.180000
230.187988	147.020000
230.280685	146.940000
230.373383	145.720000
230.466095	145.780000
230.558792	146.140000
230.651474	146.260000
230.744171	146.120000
230.836868	145.920000
230.929581	146.160000
231.022278	146.080000
231.114975	146.000000
231.207672	146.040000
231.300369	146.340000
231.393082	146.340000
231.485779	146.160000
231.578506	146.260000
231.671204	146.440000
231.763916	146.780000
231.856613	146.420000
231.949326	146.240000
232.042023	146.000000
232.134735	145.780000
232.227448	145.300000
232.320160	145.800000
232.412872	146.080000
232.505585	146.600000
232.598297	146.920000
232.691010	146.720000
232.783722	146.300000
232.876450	146.800000
232.969162	146.300000
233.061874	145.880000
233.154587	145.980000
233.247314	146.080000
233.340027	145.280000
233.432739	145.840000
233.525467	145.700000
233.618179	146.000000
233.710907	145.820000
233.803635	146.200000
233.896347	146.040000
233.989090	146.980000
234.081818	147.020000
234.174545	147.360000
234.267258	147.080000
234.359985	146.880000
234.452713	146.460000
234.545441	146.100000
234.638168	145.940000
234.730896	146.440000
234.823639	146.360000
234.916367	146.520000
235.009094	146.880000
235.101822	147.120000
235.194580	146.700000
235.287308	146.820000
235.380051	146.360000
235.472778	146.580000
235.565521	146.760000
235.658249	146.500000
235.750992	146.940000
235.843719	147.200000
235.936462	147.120000
236.029205	146.580000
236.121948	146.900000
236.214691	146.960000
236.307449	147.520000
236.400192	147.280000
236.492935	147.120000
236.585678	146.740000
236.678421	146.400000
236.771164	146.220000
236.863907	146.620000
236.956665	147.040000
237.049408	148.700000
237.142151	148.320000
237.234909	148.640000
237.327652	148.300000
237.420410	147.980000
237.513153	147.180000
237.605927	147.240000
237.698669	146.780000
237.791428	146.140000
237.884186	146.640000
237.976944	146.100000
238.069702	146.420000
238.162445	145.760000
238.255203	146.460000
238.347961	146.640000
238.440720	146.760000
238.533478	146.200000
238.626266	146.360000
238.719025	146.300000
238.811783	145.920000
238.904541	145.840000
238.997314	145.840000
239.090073	145.420000
239.182831	145.720000
239.275604	146.600000
239.368362	146.320000
239.461136	147.020000
239.553909	147.380000
239.646667	147.180000
239.739441	146.260000
239.832214	146.620000
239.925003	146.480000
240.017761	147.360000
240.110535	147.820000
240.203308	147.600000
240.296082	147.660000
240.388855	147.460000
240.481628	146.780000
240.574417	146.900000
240.667191	147.140000
240.759964	146.760000
240.852737	147.020000
240.945526	147.060000
241.038315	146.360000
241.131088	146.440000
241.223877	146.840000
241.316650	146.240000
241.409439	146.680000
241.502228	146.500000
241.595001	146.780000
241.687790	146.840000
241.780579	147.100000
241.873367	146.940000
241.966141	147.300000
242.058929	146.720000
242.151718	146.820000
242.244507	147.320000
242.337311	146.520000
242.430099	146.920000
242.522903	147.140000
242.615692	146.640000
242.708481	146.600000
242.801270	147.080000
242.894073	146.660000
242.986862	146.640000
243.079651	147.100000
243.172455	146.720000
243.265244	146.820000
243.358063	146.440000
243.450867	146.880000
243.543655	146.480000
243.636459	146.480000
243.729263	146.760000
243.822067	146.940000
243.914856	146.940000
244.007660	147.300000
244.100464	147.160000
244.193268	146.820000
244.286072	147.020000
244.378876	146.500000
244.471680	146.200000
244.564499	146.880000
244.657318	147.680000
244.750122	147.780000
244.842926	147.400000
244.935745	147.820000
245.028549	147.040000
245.121368	146.180000
245.214172	146.020000
245.306992	146.460000
245.399796	145.920000
245.492615	146.300000
245.585434	146.220000
245.678253	146.220000
245.771072	146.280000
245.863892	146.580000
245.956711	146.620000
246.049530	146.460000
246.142349	146.320000
246.235168	146.400000
246.327988	146.800000
246.420807	146.640000
246.513626	146.800000
246.606445	146.600000
246.699280	146.300000
246.792099	145.980000
246.884918	145.440000
246.977753	145.220000
247.070587	145.400000
247.163422	145.520000
247.256241	145.380000
247.349075	146.180000
247.441895	146.260000
247.534729	146.280000
247.627563	146.220000
247.720383	146.840000
247.813217	146.560000
247.906052	146.280000
247.998886	146.400000
248.091736	146.260000
248.184570	145.500000
248.277405	145.640000
248.370239	146.940000
248.463074	147.900000
248.555908	148.280000
248.648743	148.400000
248.741592	148.100000
248.834427	146.860000
248.927261	145.560000
249.020111	145.920000
249.112946	146.660000
249.205795	146.700000
249.298630	147.140000
249.391495	147.380000
249.484344	146.840000
249.577179	146.520000
249.670029	146.480000
249.762878	147.020000
249.855728	146.840000
249.948563	146.720000
250.041412	146.280000
250.134262	146.800000
250.227112	146.400000
250.319962	146.800000
250.412827	146.940000
250.505692	146.400000
250.598541	145.920000
250.691391	145.600000
250.784241	145.320000
250.877106	145.480000
250.969955	145.500000
251.062805	146.100000
251.155670	146.700000
251.248520	146.660000
251.341385	146.680000
251.434235	147.100000
251.527100	146.640000
251.619965	146.320000
251.712814	146.960000
251.805695	147.120000
251.898560	147.100000
251.991425	147.300000
252.084290	147.440000
252.177155	146.600000
252.270020	146.120000
252.362885	146.180000
252.455750	146.240000
252.548615	146.200000
252.641479	146.660000
252.734360	146.740000
252.827240	146.800000
252.920105	146.620000
253.012970	146.100000
253.105850	145.820000
253.198715	145.760000
253.291595	145.720000
253.384460	145.680000
253.477341	146.060000
253.570221	146.260000
253.663086	145.920000
253.755966	146.520000
253.848846	146.320000
253.941727	146.740000
254.034592	146.640000
254.127472	146.360000
254.220367	146.040000
254.313248	146.200000
254.406128	145.440000
254.499008	145.800000
254.591904	146.900000
254.684784	147.260000
254.777664	147.500000
254.870544	147.460000
254.963440	147.320000
255.056335	146.960000
255.149216	146.520000
255.242111	146.600000
255.334991	147.160000
255.427887	146.980000
255.520767	147.300000
255.613663	147.480000
255.706558	146.760000
255.799438	146.180000
255.892334	145.940000
255.985229	145.500000
256.078125	145.100000
256.171021	145.460000
256.263916	146.180000
256.356812	146.420000
256.449707	146.520000
256.542603	146.460000
256.635498	147.140000
256.728394	146.680000
256.821289	146.460000
256.914215	146.860000
257.007080	147.040000
257.100006	146.760000
257.192932	147.220000
257.285828	147.460000
257.378723	147.080000
257.471619	146.960000
257.564545	146.540000
257.657440	146.320000
257.750336	146.740000
257.843262	146.460000
257.936157	147.560000
258.029053	147.880000
258.121979	147.840000
258.214874	147.700000
258.307800	147.680000
258.400696	146.460000
258.493622	146.200000
258.586517	145.680000
258.679443	145.760000
258.772339	145.660000
258.865265	145.600000
258.958160	145.480000
259.051086	146.440000
259.144012	146.000000
259.236938	146.820000
259.329834	147.040000
259.422791	146.820000
259.515717	145.880000
259.608612	145.920000
259.701538	145.900000
259.794464	145.560000
259.887390	145.840000
259.980316	146.040000
260.073212	146.020000
260.166138	144.900000
260.259064	145.380000
260.351990	145.940000
260.444916	146.040000
260.537842	146.360000
260.630768	147.180000
260.723694	146.900000
260.816620	146.400000
260.909546	146.540000
261.002472	145.900000
261.095398	145.360000
261.188354	145.540000
261.281281	145.360000
261.374207	145.560000
261.467133	146.640000
261.560089	147.200000
261.653015	146.940000
261.745972	147.720000
261.838867	147.640000
261.931824	147.280000
262.024780	146.640000
262.117706	147.060000
262.210663	146.560000
262.303589	146.480000
262.396515	146.380000
262.489471	147.180000
262.582397	147.020000
262.675354	146.940000
262.768280	146.760000
262.861237	146.900000
262.954163	146.640000
263.047119	146.600000
263.140045	146.060000
263.233002	146.220000
263.325958	145.780000
263.418884	145.500000
263.511841	145.440000
263.604797	145.600000
263.697723	145.620000
263.790680	145.700000
263.883636	146.320000
263.976593	146.180000
264.069550	146.680000
264.162476	146.060000
264.255463	146.120000
264.348419	145.660000
264.441376	146.080000
264.534332	145.640000
264.627289	146.120000
264.720245	146.620000
264.813202	146.220000
264.906158	146.500000
264.999115	147.060000
265.092072	147.060000
265.185028	147.500000
265.277985	148.040000
265.370941	147.440000
265.463898	147.120000
265.556854	146.840000
265.649811	145.800000
265.742798	145.960000
265.835754	146.380000
265.928711	146.600000
266.021667	146.960000
266.114655	146.860000
266.207611	146.860000
266.300568	146.120000
266.393585	145.620000
266.486511	145.740000
266.579498	145.340000
266.672485	145.060000
266.765442	145.280000
266.858429	145.740000
266.951385	145.280000
267.044342	145.540000
267.137329	145.580000
267.230316	145.920000
267.323273	145.580000
267.416260	146.380000
267.509216	146.120000
267.602203	145.980000
267.695160	146.640000
267.788147	146.800000
267.881134	146.160000
267.974091	147.080000
268.067078	147.140000
268.160065	146.440000
268.253052	146.400000
268.346008	146.560000
268.438995	146.020000
268.531982	146.280000
268.624969	146.220000
268.717987	146.720000
268.810944	146.600000
268.903961	146.800000
268.996948	146.240000
269.089905	146.580000
269.182892	146.340000
269.275879	146.720000
269.368866	146.160000
269.461853	146.360000
269.554871	146.080000
269.647858	146.120000
269.740845	146.120000
269.833832	146.560000
269.926819	146.300000
270.019806	146.300000
270.112793	145.740000
270.205811	145.640000
270.298798	145.660000
270.391785	146.540000
270.484772	146.260000
270.577789	146.340000
270.670776	145.860000
270.763763	145.420000
270.856750	144.880000
270.949768	144.800000
271.042786	145.000000
271.135773	145.220000
271.228790	145.860000
271.321808	145.800000
271.414795	145.840000
271.507782	145.680000
271.600800	145.480000
271.693817	145.300000
271.786804	145.560000
271.879822	145.720000
271.972809	145.540000
272.065826	146.300000
272.158844	146.040000
272.251831	146.560000
272.344849	146.600000
272.437866	146.420000
272.530853	146.400000
272.623871	147.140000
272.716888	145.900000
272.809906	146.040000
272.902893	146.380000
272.995911	145.560000
273.088928	145.120000
273.181946	145.680000
273.274963	145.540000
273.367981	145.480000
273.460999	145.920000
273.554047	146.260000
273.647003	146.580000
273.740051	146.520000
273.833069	147.020000
273.926086	147.280000
274.019135	146.820000
274.112152	146.480000
274.205170	146.540000
274.298187	146.620000
274.391205	146.200000
274.484222	146.580000
274.577240	146.740000
274.670258	146.760000
274.763306	146.560000
274.856323	146.880000
274.949341	146.560000
275.042358	146.860000
275.135406	146.780000
275.228424	146.720000
275.321442	146.320000
275.414490	145.980000
275.507507	146.280000
275.600525	146.800000
275.693573	146.480000
275.786591	146.560000
275.879669	146.800000
275.972656	146.180000
276.065735	145.860000
276.158752	146.480000
276.251801	146.960000
276.344818	147.400000
276.437866	147.560000
276.530884	147.360000
276.623932	146.660000
276.716980	146.660000
276.809998	146.420000
276.903046	146.380000
276.996094	147.220000
277.089111	147.940000
277.182159	148.320000
277.275208	147.940000
277.368256	148.100000
277.461304	147.620000
277.554321	146.840000
277.647369	146.080000
277.740417	146.340000
277.833466	146.140000
277.926514	145.900000
278.019562	146.680000
278.112610	146.420000
278.205688	146.720000
278.298706	146.840000
278.391785	146.840000
278.484833	146.400000
278.577881	146.340000
278.670929	146.500000
278.763977	146.520000
278.857025	146.880000
278.950073	146.960000
279.043121	147.040000
279.136169	146.760000
279.229248	146.400000
279.322296	146.240000
279.415344	146.180000
279.508392	146.180000
279.601440	146.160000
279.694519	146.180000
279.787567	145.860000
279.880615	145.580000
279.973694	145.720000
280.066742	145.700000
280.159790	145.640000
280.252869	145.520000
280.345917	145.900000
280.438995	145.700000
280.532074	145.500000
280.625122	145.920000
280.718201	146.860000
280.811279	146.960000
280.904327	147.040000
280.997406	147.180000
281.090454	147.280000
281.183533	146.580000
281.276581	146.400000
281.369659	146.140000
281.462738	146.380000
281.555786	146.180000
281.648865	146.200000
281.741943	145.980000
281.835022	146.600000
281.928070	146.060000
282.021149	145.780000
282.114227	145.760000
282.207306	145.820000
282.300385	146.180000
282.393433	146.420000
282.486511	146.520000
282.579590	146.840000
282.672668	147.160000
282.765747	146.540000
282.858856	146.200000
282.951904	146.400000
283.045013	146.260000
283.138062	146.620000
283.231171	146.800000
283.324249	147.480000
283.417328	147.560000
283.510406	147.300000
283.603485	146.820000
283.696564	146.640000
283.789642	146.780000
283.882751	146.560000
283.975830	147.080000
284.068909	146.820000
284.161987	147.420000
284.255066	146.940000
284.348175	146.880000
284.441254	146.840000
284.534332	147.380000
284.627441	146.960000
284.720520	146.700000
284.813599	147.200000
284.906708	147.080000
284.999786	146.240000
285.092896	145.940000
285.185974	147.180000
285.279053	146.500000
285.372192	146.460000
285.465240	147.320000
285.558380	147.260000
285.651459	146.420000
285.744568	147.640000
285.837677	147.500000
285.930756	147.420000
286.023865	147.760000
286.116943	147.420000
286.210052	146.960000
286.303162	146.840000
286.396240	146.880000
286.489349	146.480000
286.582458	147.160000
286.675568	146.660000
286.768646	146.500000
286.861755	146.500000
286.954865	147.400000
287.047974	146.560000
287.141083	146.480000
287.234161	146.440000
287.327271	146.120000
287.420380	146.180000
287.513519	146.260000
287.606598	146.260000
287.699738	146.580000
287.792816	146.400000
287.885956	145.640000
287.979034	145.660000
288.072174	145.920000
288.165283	145.720000
288.258392	146.420000
288.351501	146.300000
288.444611	146.600000
288.537720	146.980000
288.630859	147.120000
288.723969	146.840000
288.817078	147.180000
288.910187	147.440000
289.003296	146.580000
289.096436	146.400000
289.189545	146.220000
289.282654	145.880000
289.375763	146.160000
289.468903	146.740000
289.562012	147.020000
289.655121	147.200000
289.748260	147.560000
289.841400	147.400000
289.934509	147.260000
290.027649	147.620000
290.120728	147.280000
290.213898	147.480000
290.306976	147.140000
290.400146	147.120000
290.493256	146.420000
290.586395	146.460000
290.679535	146.240000
290.772644	146.120000
290.865784	145.580000
290.958893	145.800000
291.052032	145.880000
291.145172	145.940000
291.238281	145.760000
291.331421	146.020000
291.424561	146.600000
291.517670	146.440000
291.610809	146.840000
291.703949	147.200000
291.797089	147.360000
291.890228	146.760000
291.983337	146.600000
292.076477	145.960000
292.169617	145.880000
292.262756	146.200000
292.355927	146.020000
292.449036	146.060000
292.542206	146.420000
292.635315	146.540000
292.728485	146.380000
292.821625	146.100000
292.914764	147.140000
293.007904	147.120000
293.101044	147.220000
293.194183	146.940000
293.287323	147.080000
293.380463	146.340000
293.473602	145.740000
293.566742	145.780000
293.659882	146.360000
293.753021	146.720000
293.846191	146.660000
293.939331	146.820000
294.032471	146.680000
294.125610	146.300000
294.218781	146.500000
294.311920	146.760000
294.405060	146.940000
294.498230	147.040000
294.591370	146.740000
294.684540	146.080000
294.777679	145.700000
294.870850	146.020000
294.963959	145.720000
295.057159	145.860000
295.150299	146.640000
295.243469	146.720000
295.336609	146.240000
295.429779	146.120000
295.522919	146.700000
295.616089	146.560000
295.709229	147.420000
295.802399	147.740000
295.895569	147.680000
295.988708	147.260000
296.081879	147.260000
296.175018	146.340000
296.268188	146.200000
296.361359	146.980000
296.454529	147.280000
296.547668	147.140000
296.640839	147.400000
296.734009	147.340000
296.827179	147.260000
296.920319	147.420000
297.013519	147.260000
297.106659	147.400000
297.199860	147.280000
297.292999	146.980000
297.386200	146.440000
297.479309	146.520000
297.572510	146.660000
297.665680	146.400000
297.758850	146.460000
297.852020	146.480000
297.945190	146.140000
298.038361	145.580000
298.131531	146.840000
298.224701	146.380000
298.317871	146.180000
298.411072	146.120000
298.504242	145.940000
298.597412	145.160000
298.690582	145.660000
298.783752	145.580000
298.876923	145.780000
298.970093	146.180000
299.063293	146.500000
299.156464	146.720000
299.249634	146.980000
299.342834	147.080000
299.436005	147.200000
299.529205	146.860000
299.622345	146.600000
299.715576	145.960000
299.808716	146.060000
299.901917	145.700000
299.995117	145.900000
300.088287	146.040000
300.181488	146.260000
300.274658	146.140000
300.367828	146.380000
300.461029	146.220000
300.554199	146.460000
300.647400	146.520000
300.740601	146.920000
300.833771	146.740000
300.926971	147.100000
301.020142	146.260000
301.113342	146.540000
301.206512	146.200000
301.299713	146.340000
301.392914	146.080000
301.486084	146.900000
301.579285	146.740000
301.672516	147.340000
301.765686	147.180000
301.858887	146.980000
301.952057	146.620000
302.045288	146.700000
302.138458	146.040000
302.231659	145.980000
302.324860	145.900000
302.418060	145.520000
302.511261	145.320000
302.604462	145.520000
302.697662	145.240000
302.790863	145.560000
302.884064	145.280000
302.977264	145.580000
303.070465	145.980000
303.163666	147.140000
303.256866	147.100000
303.350067	147.440000
303.443268	147.460000
303.536469	147.200000
303.629669	146.380000
303.722870	146.720000
303.816071	146.680000
303.909271	146.740000
304.002472	146.020000
304.095673	145.980000
304.188934	144.800000
304.282104	145.720000
304.375336	145.560000
304.468506	145.760000
304.561768	145.560000
304.654968	146.260000
304.748169	145.500000
304.841370	145.540000
304.934601	146.020000
305.027802	146.020000
305.121002	145.760000
305.214233	145.900000
305.307434	146.020000
305.400665	146.360000
305.493866	146.420000
