Model Number: SPM-002-B   
Serial Number: 70087108
Firmware Version: 004.15.4
Exposure Time: 100000.000000us
Data Taken on: 11-12-2020 18:44:50.500
Wavelength	Amplitude
221.570786	0.000000
221.663406	0.000000
221.756027	0.000000
221.848648	0.000000
221.941269	0.000000
222.033905	0.000000
222.126526	0.000000
222.219162	0.000000
222.311798	0.000000
222.404419	0.000000
222.497055	0.000000
222.589676	0.000000
222.682312	0.000000
222.774933	0.000000
222.867569	0.000000
222.960205	0.000000
223.052841	0.000000
223.145462	0.000000
223.238098	0.000000
223.330734	0.000000
223.423386	0.000000
223.516022	0.000000
223.608658	0.000000
223.701309	0.000000
223.793945	0.000000
223.886581	0.000000
223.979218	0.000000
224.071869	0.000000
224.164505	0.000000
224.257156	0.000000
224.349792	0.000000
224.442444	0.000000
224.535095	0.000000
224.627747	0.000000
224.720398	0.000000
224.813034	0.000000
224.905685	0.000000
224.998337	145.240000
225.090988	144.640000
225.183640	144.980000
225.276291	144.840000
225.368942	145.580000
225.461594	146.280000
225.554245	146.360000
225.646912	146.080000
225.739578	146.660000
225.832230	146.200000
225.924896	145.100000
226.017548	145.380000
226.110199	145.800000
226.202866	144.820000
226.295532	144.780000
226.388184	144.840000
226.480850	144.300000
226.573517	143.980000
226.666168	144.300000
226.758835	144.600000
226.851501	145.360000
226.944183	145.440000
227.036850	145.140000
227.129517	145.140000
227.222183	145.320000
227.314850	145.040000
227.407516	145.860000
227.500198	146.520000
227.592865	146.160000
227.685532	145.740000
227.778214	145.660000
227.870880	145.620000
227.963562	146.180000
228.056229	146.860000
228.148926	146.820000
228.241592	147.780000
228.334274	147.300000
228.426956	146.640000
228.519638	146.500000
228.612305	146.280000
228.704987	146.040000
228.797668	146.040000
228.890350	145.860000
228.983032	145.060000
229.075714	145.940000
229.168396	145.140000
229.261108	145.060000
229.353790	145.180000
229.446472	145.560000
229.539169	144.840000
229.631851	144.720000
229.724533	145.060000
229.817230	145.400000
229.909912	146.360000
230.002609	146.420000
230.095306	146.400000
230.187988	146.340000
230.280685	146.080000
230.373383	145.240000
230.466095	145.080000
230.558792	145.520000
230.651474	145.560000
230.744171	145.320000
230.836868	145.180000
230.929581	145.720000
231.022278	145.640000
231.114975	145.640000
231.207672	145.460000
231.300369	146.200000
231.393082	145.960000
231.485779	145.680000
231.578506	145.680000
231.671204	145.920000
231.763916	145.500000
231.856613	145.700000
231.949326	146.120000
232.042023	146.080000
232.134735	146.020000
232.227448	145.880000
232.320160	146.060000
232.412872	146.060000
232.505585	146.600000
232.598297	146.760000
232.691010	146.900000
232.783722	146.200000
232.876450	146.500000
232.969162	146.080000
233.061874	145.840000
233.154587	145.500000
233.247314	146.060000
233.340027	145.380000
233.432739	145.620000
233.525467	145.700000
233.618179	145.940000
233.710907	145.680000
233.803635	146.280000
233.896347	146.040000
233.989090	146.820000
234.081818	146.720000
234.174545	146.740000
234.267258	146.160000
234.359985	146.100000
234.452713	145.600000
234.545441	145.660000
234.638168	145.560000
234.730896	146.000000
234.823639	145.900000
234.916367	146.440000
235.009094	146.540000
235.101822	146.620000
235.194580	146.680000
235.287308	146.800000
235.380051	146.180000
235.472778	146.560000
235.565521	146.820000
235.658249	146.200000
235.750992	146.240000
235.843719	146.020000
235.936462	145.720000
236.029205	145.580000
236.121948	145.380000
236.214691	145.760000
236.307449	146.500000
236.400192	146.160000
236.492935	145.800000
236.585678	146.160000
236.678421	145.860000
236.771164	145.460000
236.863907	146.020000
236.956665	146.420000
237.049408	147.880000
237.142151	147.460000
237.234909	148.020000
237.327652	147.760000
237.420410	147.420000
237.513153	146.520000
237.605927	146.240000
237.698669	145.660000
237.791428	145.040000
237.884186	145.260000
237.976944	144.740000
238.069702	145.620000
238.162445	145.100000
238.255203	145.380000
238.347961	145.780000
238.440720	145.960000
238.533478	145.840000
238.626266	145.940000
238.719025	146.480000
238.811783	146.260000
238.904541	146.020000
238.997314	145.600000
239.090073	145.440000
239.182831	145.380000
239.275604	145.820000
239.368362	146.040000
239.461136	146.120000
239.553909	146.300000
239.646667	145.900000
239.739441	145.340000
239.832214	145.520000
239.925003	146.080000
240.017761	146.780000
240.110535	147.520000
240.203308	147.300000
240.296082	147.320000
240.388855	146.920000
240.481628	146.820000
240.574417	146.620000
240.667191	147.100000
240.759964	146.960000
240.852737	147.080000
240.945526	146.580000
241.038315	146.320000
241.131088	145.960000
241.223877	146.040000
241.316650	145.280000
241.409439	145.760000
241.502228	145.160000
241.595001	145.760000
241.687790	145.520000
241.780579	145.920000
241.873367	145.820000
241.966141	146.460000
242.058929	145.560000
242.151718	145.800000
242.244507	145.940000
242.337311	145.100000
242.430099	145.720000
242.522903	146.040000
242.615692	145.360000
242.708481	145.620000
242.801270	146.420000
242.894073	145.940000
242.986862	146.320000
243.079651	147.160000
243.172455	146.680000
243.265244	146.880000
243.358063	146.000000
243.450867	145.940000
243.543655	145.880000
243.636459	146.220000
243.729263	146.020000
243.822067	146.920000
243.914856	147.240000
244.007660	147.260000
244.100464	147.340000
244.193268	146.900000
244.286072	146.520000
244.378876	145.760000
244.471680	145.380000
244.564499	145.380000
244.657318	146.380000
244.750122	146.680000
244.842926	146.060000
244.935745	146.800000
245.028549	146.460000
245.121368	145.780000
245.214172	145.580000
245.306992	146.640000
245.399796	145.700000
245.492615	145.840000
245.585434	145.760000
245.678253	145.940000
245.771072	145.640000
245.863892	145.980000
245.956711	146.160000
246.049530	146.300000
246.142349	146.100000
246.235168	146.260000
246.327988	147.280000
246.420807	146.920000
246.513626	147.000000
246.606445	146.760000
246.699280	146.540000
246.792099	145.720000
246.884918	145.900000
246.977753	145.480000
247.070587	145.700000
247.163422	145.740000
247.256241	145.620000
247.349075	145.620000
247.441895	145.660000
247.534729	145.900000
247.627563	145.880000
247.720383	146.500000
247.813217	146.340000
247.906052	146.220000
247.998886	146.120000
248.091736	146.220000
248.184570	145.720000
248.277405	146.160000
248.370239	147.220000
248.463074	147.900000
248.555908	148.080000
248.648743	148.020000
248.741592	147.960000
248.834427	147.040000
248.927261	146.060000
249.020111	146.220000
249.112946	146.660000
249.205795	146.180000
249.298630	146.460000
249.391495	146.580000
249.484344	146.320000
249.577179	146.140000
249.670029	146.600000
249.762878	147.000000
249.855728	147.100000
249.948563	146.900000
250.041412	146.320000
250.134262	146.540000
250.227112	146.540000
250.319962	146.280000
250.412827	146.860000
250.505692	146.640000
250.598541	146.340000
250.691391	145.560000
250.784241	145.840000
250.877106	145.500000
250.969955	145.720000
251.062805	146.480000
251.155670	147.300000
251.248520	147.280000
251.341385	147.580000
251.434235	147.620000
251.527100	146.880000
251.619965	146.320000
251.712814	146.940000
251.805695	146.680000
251.898560	146.760000
251.991425	146.880000
252.084290	147.040000
252.177155	146.340000
252.270020	145.980000
252.362885	145.820000
252.455750	145.640000
252.548615	145.300000
252.641479	145.360000
252.734360	145.420000
252.827240	145.340000
252.920105	145.620000
253.012970	145.860000
253.105850	145.520000
253.198715	145.220000
253.291595	145.560000
253.384460	145.100000
253.477341	144.700000
253.570221	145.440000
253.663086	145.340000
253.755966	145.700000
253.848846	145.800000
253.941727	146.340000
254.034592	145.940000
254.127472	145.840000
254.220367	145.680000
254.313248	145.880000
254.406128	145.440000
254.499008	145.640000
254.591904	146.700000
254.684784	147.220000
254.777664	147.100000
254.870544	147.000000
254.963440	146.700000
255.056335	146.340000
255.149216	145.600000
255.242111	146.240000
255.334991	146.780000
255.427887	146.880000
255.520767	146.880000
255.613663	147.120000
255.706558	146.280000
255.799438	145.940000
255.892334	145.600000
255.985229	145.580000
256.078125	145.740000
256.171021	146.160000
256.263916	146.960000
256.356812	147.420000
256.449707	147.460000
256.542603	146.840000
256.635498	147.160000
256.728394	146.580000
256.821289	146.400000
256.914215	146.640000
257.007080	147.200000
257.100006	146.840000
257.192932	147.020000
257.285828	147.120000
257.378723	146.720000
257.471619	146.440000
257.564545	146.360000
257.657440	146.300000
257.750336	146.760000
257.843262	146.620000
257.936157	147.520000
258.029053	147.840000
258.121979	148.020000
258.214874	147.500000
258.307800	147.440000
258.400696	146.460000
258.493622	146.300000
258.586517	145.400000
258.679443	145.700000
258.772339	145.420000
258.865265	145.420000
258.958160	144.960000
259.051086	146.120000
259.144012	145.900000
259.236938	147.020000
259.329834	147.240000
259.422791	147.240000
259.515717	146.580000
259.608612	146.380000
259.701538	146.040000
259.794464	145.940000
259.887390	146.240000
259.980316	146.100000
260.073212	145.920000
260.166138	145.040000
260.259064	145.360000
260.351990	145.400000
260.444916	145.560000
260.537842	146.080000
260.630768	146.880000
260.723694	146.540000
260.816620	146.440000
260.909546	146.480000
261.002472	146.080000
261.095398	145.740000
261.188354	145.600000
261.281281	145.500000
261.374207	145.760000
261.467133	146.580000
261.560089	146.800000
261.653015	146.680000
261.745972	147.300000
261.838867	147.500000
261.931824	147.400000
262.024780	147.020000
262.117706	147.420000
262.210663	147.180000
262.303589	146.740000
262.396515	146.700000
262.489471	147.600000
262.582397	147.460000
262.675354	147.140000
262.768280	147.000000
262.861237	146.840000
262.954163	146.480000
263.047119	146.480000
263.140045	146.140000
263.233002	146.180000
263.325958	145.880000
263.418884	145.480000
263.511841	145.520000
263.604797	145.820000
263.697723	146.120000
263.790680	146.020000
263.883636	146.720000
263.976593	146.320000
264.069550	146.500000
264.162476	146.160000
264.255463	146.340000
264.348419	145.620000
264.441376	146.160000
264.534332	145.760000
264.627289	145.880000
264.720245	146.220000
264.813202	146.160000
264.906158	146.220000
264.999115	146.640000
265.092072	146.620000
265.185028	146.800000
265.277985	147.240000
265.370941	147.160000
265.463898	146.920000
265.556854	146.840000
265.649811	146.060000
265.742798	145.680000
265.835754	145.540000
265.928711	146.120000
266.021667	146.080000
266.114655	146.480000
266.207611	147.060000
266.300568	146.780000
266.393585	146.040000
266.486511	146.420000
266.579498	145.680000
266.672485	145.060000
266.765442	144.880000
266.858429	145.380000
266.951385	144.940000
267.044342	145.360000
267.137329	145.600000
267.230316	146.100000
267.323273	145.740000
267.416260	146.460000
267.509216	146.600000
267.602203	146.600000
267.695160	146.900000
267.788147	147.020000
267.881134	146.240000
267.974091	146.500000
268.067078	146.280000
268.160065	145.860000
268.253052	145.800000
268.346008	145.940000
268.438995	145.720000
268.531982	145.820000
268.624969	145.680000
268.717987	145.780000
268.810944	145.800000
268.903961	145.840000
268.996948	145.340000
269.089905	145.780000
269.182892	146.120000
269.275879	146.480000
269.368866	145.860000
269.461853	146.400000
269.554871	146.160000
269.647858	145.540000
269.740845	145.640000
269.833832	146.500000
269.926819	146.340000
270.019806	146.580000
270.112793	146.200000
270.205811	145.980000
270.298798	145.440000
270.391785	145.780000
270.484772	145.120000
270.577789	145.600000
270.670776	145.100000
270.763763	145.020000
270.856750	144.840000
270.949768	144.900000
271.042786	144.980000
271.135773	145.640000
271.228790	146.120000
271.321808	146.000000
271.414795	145.680000
271.507782	145.420000
271.600800	144.940000
271.693817	145.000000
271.786804	145.220000
271.879822	145.980000
271.972809	146.040000
272.065826	146.380000
272.158844	145.720000
272.251831	146.280000
272.344849	146.000000
272.437866	145.960000
272.530853	145.980000
272.623871	146.460000
272.716888	145.520000
272.809906	146.000000
272.902893	146.160000
272.995911	145.700000
273.088928	145.780000
273.181946	146.120000
273.274963	145.640000
273.367981	145.620000
273.460999	145.940000
273.554047	146.120000
273.647003	146.540000
273.740051	146.760000
273.833069	147.240000
273.926086	147.420000
274.019135	146.940000
274.112152	146.480000
274.205170	146.460000
274.298187	146.620000
274.391205	146.120000
274.484222	146.420000
274.577240	146.600000
274.670258	146.360000
274.763306	145.900000
274.856323	146.380000
274.949341	146.340000
275.042358	146.500000
275.135406	146.540000
275.228424	146.300000
275.321442	146.440000
275.414490	146.280000
275.507507	146.460000
275.600525	147.080000
275.693573	147.200000
275.786591	146.380000
275.879669	146.680000
275.972656	146.160000
276.065735	145.560000
276.158752	146.140000
276.251801	147.300000
276.344818	147.200000
276.437866	147.580000
276.530884	147.340000
276.623932	146.420000
276.716980	146.080000
276.809998	146.260000
276.903046	146.180000
276.996094	147.380000
277.089111	148.200000
277.182159	148.560000
277.275208	148.180000
277.368256	148.200000
277.461304	147.760000
277.554321	146.880000
277.647369	146.540000
277.740417	146.560000
277.833466	146.560000
277.926514	146.120000
278.019562	146.520000
278.112610	146.180000
278.205688	146.260000
278.298706	146.320000
278.391785	146.340000
278.484833	145.960000
278.577881	145.940000
278.670929	146.160000
278.763977	146.020000
278.857025	146.340000
278.950073	146.740000
279.043121	146.340000
279.136169	146.180000
279.229248	146.060000
279.322296	145.980000
279.415344	145.880000
279.508392	146.180000
279.601440	146.240000
279.694519	145.980000
279.787567	145.880000
279.880615	145.880000
279.973694	145.680000
280.066742	145.660000
280.159790	146.000000
280.252869	145.580000
280.345917	145.860000
280.438995	146.120000
280.532074	145.980000
280.625122	146.380000
280.718201	147.620000
280.811279	147.520000
280.904327	147.600000
280.997406	147.920000
281.090454	147.420000
281.183533	146.160000
281.276581	146.040000
281.369659	145.740000
281.462738	145.460000
281.555786	146.000000
281.648865	146.340000
281.741943	146.560000
281.835022	147.320000
281.928070	147.120000
282.021149	146.320000
282.114227	146.020000
282.207306	145.720000
282.300385	145.460000
282.393433	145.760000
282.486511	146.220000
282.579590	147.040000
282.672668	147.200000
282.765747	146.800000
282.858856	146.720000
282.951904	146.480000
283.045013	146.240000
283.138062	146.560000
283.231171	147.140000
283.324249	147.520000
283.417328	147.800000
283.510406	147.480000
283.603485	147.220000
283.696564	146.500000
283.789642	146.420000
283.882751	146.060000
283.975830	146.580000
284.068909	146.440000
284.161987	147.420000
284.255066	146.620000
284.348175	146.940000
284.441254	146.480000
284.534332	146.800000
284.627441	146.100000
284.720520	146.260000
284.813599	146.160000
284.906708	146.460000
284.999786	145.780000
285.092896	145.700000
285.185974	146.740000
285.279053	146.600000
285.372192	146.800000
285.465240	147.720000
285.558380	147.580000
285.651459	147.060000
285.744568	147.760000
285.837677	147.020000
285.930756	146.720000
286.023865	146.980000
286.116943	146.780000
286.210052	146.800000
286.303162	146.880000
286.396240	146.600000
286.489349	146.600000
286.582458	146.860000
286.675568	146.220000
286.768646	146.700000
286.861755	146.860000
286.954865	147.240000
287.047974	146.540000
287.141083	146.380000
287.234161	146.080000
287.327271	145.840000
287.420380	146.160000
287.513519	146.440000
287.606598	146.760000
287.699738	146.740000
287.792816	146.860000
287.885956	146.440000
287.979034	146.160000
288.072174	145.940000
288.165283	146.060000
288.258392	146.300000
288.351501	145.560000
288.444611	146.060000
288.537720	146.560000
288.630859	146.400000
288.723969	146.280000
288.817078	147.000000
288.910187	146.920000
289.003296	146.280000
289.096436	146.240000
289.189545	145.920000
289.282654	145.400000
289.375763	145.620000
289.468903	145.880000
289.562012	145.980000
289.655121	146.360000
289.748260	146.580000
289.841400	146.640000
289.934509	146.380000
290.027649	146.640000
290.120728	146.360000
290.213898	146.420000
290.306976	146.280000
290.400146	146.540000
290.493256	145.860000
290.586395	146.080000
290.679535	146.400000
290.772644	145.860000
290.865784	145.320000
290.958893	145.400000
291.052032	145.200000
291.145172	144.880000
291.238281	145.040000
291.331421	145.340000
291.424561	145.840000
291.517670	145.740000
291.610809	145.580000
291.703949	145.560000
291.797089	145.940000
291.890228	145.520000
291.983337	145.340000
292.076477	145.780000
292.169617	146.140000
292.262756	145.980000
292.355927	145.820000
292.449036	145.860000
292.542206	145.620000
292.635315	145.500000
292.728485	145.620000
292.821625	145.520000
292.914764	146.920000
293.007904	146.880000
293.101044	146.900000
293.194183	146.340000
293.287323	146.620000
293.380463	145.580000
293.473602	145.700000
293.566742	145.860000
293.659882	146.660000
293.753021	147.020000
293.846191	146.760000
293.939331	145.900000
294.032471	145.720000
294.125610	145.160000
294.218781	145.580000
294.311920	146.220000
294.405060	147.100000
294.498230	146.960000
294.591370	147.240000
294.684540	146.100000
294.777679	145.380000
294.870850	145.380000
294.963959	145.440000
295.057159	144.960000
295.150299	145.640000
295.243469	145.780000
295.336609	145.120000
295.429779	145.040000
295.522919	145.740000
295.616089	145.600000
295.709229	146.300000
295.802399	146.680000
295.895569	146.580000
295.988708	146.060000
296.081879	146.100000
296.175018	145.280000
296.268188	145.140000
296.361359	145.840000
296.454529	146.040000
296.547668	145.860000
296.640839	146.300000
296.734009	146.260000
296.827179	146.120000
296.920319	146.340000
297.013519	146.140000
297.106659	146.180000
297.199860	146.360000
297.292999	145.920000
297.386200	145.680000
297.479309	145.680000
297.572510	145.460000
297.665680	145.380000
297.758850	145.400000
297.852020	145.380000
297.945190	145.460000
298.038361	145.160000
298.131531	146.060000
298.224701	146.120000
298.317871	145.900000
298.411072	145.780000
298.504242	145.920000
298.597412	145.040000
298.690582	145.220000
298.783752	145.520000
298.876923	146.040000
298.970093	146.160000
299.063293	146.540000
299.156464	146.840000
299.249634	146.680000
299.342834	146.620000
299.436005	147.000000
299.529205	146.920000
299.622345	147.000000
299.715576	146.460000
299.808716	146.160000
299.901917	145.960000
299.995117	146.200000
300.088287	146.220000
300.181488	146.440000
300.274658	146.840000
300.367828	146.780000
300.461029	146.660000
300.554199	146.680000
300.647400	146.960000
300.740601	147.180000
300.833771	147.040000
300.926971	147.120000
301.020142	146.540000
301.113342	146.400000
301.206512	145.800000
301.299713	146.160000
301.392914	145.940000
301.486084	146.260000
301.579285	146.500000
301.672516	147.320000
301.765686	146.900000
301.858887	146.880000
301.952057	146.960000
302.045288	147.040000
302.138458	146.340000
302.231659	146.240000
302.324860	146.180000
302.418060	145.800000
302.511261	145.320000
302.604462	145.660000
302.697662	145.660000
302.790863	145.360000
302.884064	145.080000
302.977264	145.480000
303.070465	145.720000
303.163666	146.820000
303.256866	147.200000
303.350067	147.200000
303.443268	146.960000
303.536469	146.840000
303.629669	146.160000
303.722870	146.280000
303.816071	146.400000
303.909271	146.640000
304.002472	146.080000
304.095673	145.720000
304.188934	145.060000
304.282104	146.220000
304.375336	146.400000
304.468506	146.420000
304.561768	146.280000
304.654968	147.120000
304.748169	145.980000
304.841370	145.520000
304.934601	145.800000
305.027802	145.700000
305.121002	145.240000
305.214233	145.580000
305.307434	145.860000
305.400665	146.300000
305.493866	146.440000
