Model Number: SPM-002-B   
Serial Number: 70087108
Firmware Version: 004.15.4
Exposure Time: 100000.000000us
Data Taken on: 11-12-2020 18:45:01.584
Wavelength	Amplitude
221.570786	0.000000
221.663406	0.000000
221.756027	0.000000
221.848648	0.000000
221.941269	0.000000
222.033905	0.000000
222.126526	0.000000
222.219162	0.000000
222.311798	0.000000
222.404419	0.000000
222.497055	0.000000
222.589676	0.000000
222.682312	0.000000
222.774933	0.000000
222.867569	0.000000
222.960205	0.000000
223.052841	0.000000
223.145462	0.000000
223.238098	0.000000
223.330734	0.000000
223.423386	0.000000
223.516022	0.000000
223.608658	0.000000
223.701309	0.000000
223.793945	0.000000
223.886581	0.000000
223.979218	0.000000
224.071869	0.000000
224.164505	0.000000
224.257156	0.000000
224.349792	0.000000
224.442444	0.000000
224.535095	0.000000
224.627747	0.000000
224.720398	0.000000
224.813034	0.000000
224.905685	0.000000
224.998337	145.200000
225.090988	144.940000
225.183640	144.880000
225.276291	144.160000
225.368942	144.700000
225.461594	145.360000
225.554245	145.440000
225.646912	145.620000
225.739578	146.440000
225.832230	146.680000
225.924896	145.800000
226.017548	146.260000
226.110199	146.600000
226.202866	146.200000
226.295532	146.000000
226.388184	145.920000
226.480850	145.240000
226.573517	144.660000
226.666168	144.940000
226.758835	145.060000
226.851501	145.860000
226.944183	146.160000
227.036850	145.960000
227.129517	145.960000
227.222183	145.840000
227.314850	145.440000
227.407516	145.780000
227.500198	146.700000
227.592865	146.460000
227.685532	146.400000
227.778214	146.260000
227.870880	146.540000
227.963562	146.520000
228.056229	146.820000
228.148926	146.800000
228.241592	147.320000
228.334274	146.820000
228.426956	146.640000
228.519638	146.540000
228.612305	146.320000
228.704987	146.600000
228.797668	146.800000
228.890350	146.520000
228.983032	145.940000
229.075714	146.540000
229.168396	145.920000
229.261108	145.520000
229.353790	145.420000
229.446472	146.160000
229.539169	145.980000
229.631851	145.680000
229.724533	145.820000
229.817230	146.220000
229.909912	146.640000
230.002609	146.640000
230.095306	146.840000
230.187988	146.740000
230.280685	146.300000
230.373383	145.620000
230.466095	145.300000
230.558792	145.580000
230.651474	145.600000
230.744171	145.600000
230.836868	145.200000
230.929581	145.880000
231.022278	145.800000
231.114975	146.000000
231.207672	146.080000
231.300369	146.700000
231.393082	146.380000
231.485779	146.260000
231.578506	146.000000
231.671204	145.820000
231.763916	145.800000
231.856613	145.780000
231.949326	145.740000
232.042023	145.840000
232.134735	146.260000
232.227448	145.740000
232.320160	146.040000
232.412872	146.300000
232.505585	147.040000
232.598297	147.300000
232.691010	147.460000
232.783722	146.820000
232.876450	147.300000
232.969162	146.640000
233.061874	145.760000
233.154587	145.660000
233.247314	145.860000
233.340027	145.060000
233.432739	145.700000
233.525467	145.740000
233.618179	146.160000
233.710907	145.960000
233.803635	146.700000
233.896347	146.060000
233.989090	146.720000
234.081818	146.500000
234.174545	147.000000
234.267258	146.200000
234.359985	146.340000
234.452713	146.140000
234.545441	146.140000
234.638168	145.620000
234.730896	146.100000
234.823639	145.880000
234.916367	146.340000
235.009094	146.260000
235.101822	146.480000
235.194580	146.060000
235.287308	146.180000
235.380051	145.620000
235.472778	145.920000
235.565521	146.320000
235.658249	146.420000
235.750992	146.620000
235.843719	146.560000
235.936462	146.760000
236.029205	146.300000
236.121948	146.200000
236.214691	146.300000
236.307449	147.020000
236.400192	146.720000
236.492935	146.680000
236.585678	146.900000
236.678421	146.720000
236.771164	146.440000
236.863907	146.740000
236.956665	147.020000
237.049408	148.540000
237.142151	148.180000
237.234909	148.680000
237.327652	148.540000
237.420410	148.200000
237.513153	147.280000
237.605927	147.400000
237.698669	146.780000
237.791428	146.000000
237.884186	146.640000
237.976944	145.900000
238.069702	146.360000
238.162445	146.060000
238.255203	146.380000
238.347961	146.420000
238.440720	146.600000
238.533478	146.200000
238.626266	146.080000
238.719025	146.320000
238.811783	145.800000
238.904541	145.600000
238.997314	145.820000
239.090073	145.580000
239.182831	145.920000
239.275604	146.980000
239.368362	146.900000
239.461136	146.700000
239.553909	147.100000
239.646667	146.600000
239.739441	145.980000
239.832214	146.260000
239.925003	146.300000
240.017761	146.800000
240.110535	147.460000
240.203308	146.960000
240.296082	146.980000
240.388855	146.840000
240.481628	146.740000
240.574417	146.560000
240.667191	146.800000
240.759964	146.540000
240.852737	146.740000
240.945526	146.140000
241.038315	145.920000
241.131088	145.940000
241.223877	146.500000
241.316650	146.120000
241.409439	146.900000
241.502228	146.540000
241.595001	147.060000
241.687790	146.520000
241.780579	146.740000
241.873367	146.560000
241.966141	147.080000
242.058929	146.160000
242.151718	146.540000
242.244507	146.940000
242.337311	146.260000
242.430099	146.620000
242.522903	147.000000
242.615692	146.700000
242.708481	146.600000
242.801270	147.040000
242.894073	146.580000
242.986862	146.660000
243.079651	147.040000
243.172455	146.600000
243.265244	146.860000
243.358063	146.180000
243.450867	146.780000
243.543655	146.600000
243.636459	147.080000
243.729263	147.200000
243.822067	147.680000
243.914856	147.560000
244.007660	147.600000
244.100464	147.300000
244.193268	146.640000
244.286072	146.820000
244.378876	146.160000
244.471680	145.860000
244.564499	146.160000
244.657318	146.880000
244.750122	147.020000
244.842926	146.820000
244.935745	147.360000
245.028549	146.920000
245.121368	146.580000
245.214172	146.180000
245.306992	146.620000
245.399796	146.280000
245.492615	146.560000
245.585434	146.300000
245.678253	146.780000
245.771072	146.640000
245.863892	146.900000
245.956711	147.280000
246.049530	147.320000
246.142349	146.720000
246.235168	146.760000
246.327988	146.980000
246.420807	146.360000
246.513626	146.480000
246.606445	146.480000
246.699280	146.500000
246.792099	146.280000
246.884918	146.120000
246.977753	145.560000
247.070587	145.880000
247.163422	145.680000
247.256241	145.380000
247.349075	145.860000
247.441895	146.100000
247.534729	145.900000
247.627563	145.800000
247.720383	146.480000
247.813217	146.300000
247.906052	146.500000
247.998886	146.360000
248.091736	146.140000
248.184570	145.700000
248.277405	145.580000
248.370239	146.420000
248.463074	147.400000
248.555908	148.000000
248.648743	147.720000
248.741592	147.800000
248.834427	147.080000
248.927261	145.860000
249.020111	146.140000
249.112946	146.740000
249.205795	146.720000
249.298630	146.800000
249.391495	147.120000
249.484344	146.580000
249.577179	146.380000
249.670029	146.360000
249.762878	146.760000
249.855728	147.400000
249.948563	147.220000
250.041412	146.660000
250.134262	147.220000
250.227112	147.080000
250.319962	146.640000
250.412827	147.080000
250.505692	146.960000
250.598541	146.740000
250.691391	146.440000
250.784241	146.400000
250.877106	146.580000
250.969955	146.720000
251.062805	146.740000
251.155670	147.080000
251.248520	146.860000
251.341385	146.840000
251.434235	146.760000
251.527100	146.440000
251.619965	145.920000
251.712814	146.840000
251.805695	146.720000
251.898560	147.100000
251.991425	147.680000
252.084290	148.160000
252.177155	147.260000
252.270020	147.020000
252.362885	146.980000
252.455750	146.700000
252.548615	146.420000
252.641479	146.520000
252.734360	146.260000
252.827240	146.180000
252.920105	146.320000
253.012970	145.800000
253.105850	145.700000
253.198715	145.880000
253.291595	146.380000
253.384460	145.920000
253.477341	146.020000
253.570221	146.460000
253.663086	146.380000
253.755966	146.540000
253.848846	146.800000
253.941727	147.520000
254.034592	147.340000
254.127472	146.840000
254.220367	146.580000
254.313248	146.720000
254.406128	146.140000
254.499008	146.400000
254.591904	147.700000
254.684784	147.860000
254.777664	147.420000
254.870544	146.980000
254.963440	146.760000
255.056335	146.340000
255.149216	145.700000
255.242111	146.540000
255.334991	147.300000
255.427887	147.120000
255.520767	147.120000
255.613663	147.500000
255.706558	146.640000
255.799438	146.480000
255.892334	146.480000
255.985229	146.100000
256.078125	146.020000
256.171021	145.920000
256.263916	146.280000
256.356812	146.340000
256.449707	146.620000
256.542603	146.500000
256.635498	147.280000
256.728394	146.880000
256.821289	146.800000
256.914215	147.000000
257.007080	147.260000
257.100006	147.320000
257.192932	147.740000
257.285828	147.860000
257.378723	147.500000
257.471619	147.120000
257.564545	146.300000
257.657440	146.320000
257.750336	146.700000
257.843262	146.280000
257.936157	147.120000
258.029053	147.580000
258.121979	147.360000
258.214874	147.060000
258.307800	147.220000
258.400696	146.180000
258.493622	146.060000
258.586517	145.360000
258.679443	145.480000
258.772339	145.480000
258.865265	145.480000
258.958160	145.200000
259.051086	146.180000
259.144012	145.980000
259.236938	146.440000
259.329834	146.660000
259.422791	146.440000
259.515717	145.680000
259.608612	145.500000
259.701538	145.820000
259.794464	145.920000
259.887390	146.140000
259.980316	146.260000
260.073212	146.160000
260.166138	145.260000
260.259064	145.480000
260.351990	146.060000
260.444916	146.420000
260.537842	147.100000
260.630768	147.740000
260.723694	147.780000
260.816620	147.500000
260.909546	147.240000
261.002472	146.500000
261.095398	145.880000
261.188354	145.880000
261.281281	145.620000
261.374207	145.500000
261.467133	146.300000
261.560089	146.620000
261.653015	146.140000
261.745972	146.860000
261.838867	147.580000
261.931824	147.700000
262.024780	147.400000
262.117706	147.800000
262.210663	147.540000
262.303589	147.100000
262.396515	146.980000
262.489471	147.800000
262.582397	147.280000
262.675354	146.900000
262.768280	146.720000
262.861237	146.560000
262.954163	146.460000
263.047119	146.920000
263.140045	146.820000
263.233002	147.020000
263.325958	146.780000
263.418884	146.080000
263.511841	146.120000
263.604797	145.920000
263.697723	146.060000
263.790680	145.880000
263.883636	146.240000
263.976593	145.760000
264.069550	146.120000
264.162476	145.560000
264.255463	145.680000
264.348419	145.640000
264.441376	146.260000
264.534332	145.960000
264.627289	146.540000
264.720245	146.940000
264.813202	146.440000
264.906158	146.440000
264.999115	146.980000
265.092072	146.580000
265.185028	146.980000
265.277985	147.380000
265.370941	147.260000
265.463898	147.040000
265.556854	146.900000
265.649811	145.720000
265.742798	146.040000
265.835754	145.940000
265.928711	146.240000
266.021667	146.360000
266.114655	146.780000
266.207611	146.920000
266.300568	146.560000
266.393585	145.900000
266.486511	146.280000
266.579498	145.920000
266.672485	145.580000
266.765442	145.600000
266.858429	146.220000
266.951385	145.620000
267.044342	145.680000
267.137329	145.520000
267.230316	145.900000
267.323273	145.280000
267.416260	146.320000
267.509216	146.340000
267.602203	146.400000
267.695160	146.720000
267.788147	147.120000
267.881134	146.180000
267.974091	146.360000
268.067078	146.220000
268.160065	145.860000
268.253052	145.540000
268.346008	145.580000
268.438995	145.460000
268.531982	145.740000
268.624969	145.640000
268.717987	146.080000
268.810944	146.460000
268.903961	146.840000
268.996948	146.600000
269.089905	146.960000
269.182892	146.780000
269.275879	146.500000
269.368866	145.840000
269.461853	146.000000
269.554871	145.480000
269.647858	145.720000
269.740845	146.220000
269.833832	146.760000
269.926819	146.380000
270.019806	146.680000
270.112793	146.380000
270.205811	146.280000
270.298798	146.140000
270.391785	146.940000
270.484772	146.660000
270.577789	146.700000
270.670776	146.380000
270.763763	146.440000
270.856750	146.100000
270.949768	145.880000
271.042786	145.760000
271.135773	145.800000
271.228790	145.980000
271.321808	145.780000
271.414795	145.700000
271.507782	145.640000
271.600800	145.400000
271.693817	145.680000
271.786804	146.400000
271.879822	146.900000
271.972809	146.840000
272.065826	147.480000
272.158844	146.960000
272.251831	146.980000
272.344849	146.820000
272.437866	146.820000
272.530853	146.580000
272.623871	146.780000
272.716888	145.820000
272.809906	146.100000
272.902893	145.940000
272.995911	145.400000
273.088928	145.200000
273.181946	145.540000
273.274963	144.960000
273.367981	145.120000
273.460999	145.680000
273.554047	146.200000
273.647003	146.860000
273.740051	147.160000
273.833069	147.400000
273.926086	147.580000
274.019135	147.160000
274.112152	146.720000
274.205170	146.580000
274.298187	146.640000
274.391205	146.260000
274.484222	146.220000
274.577240	146.080000
274.670258	146.300000
274.763306	146.200000
274.856323	146.340000
274.949341	146.360000
275.042358	146.900000
275.135406	146.880000
275.228424	146.960000
275.321442	146.640000
275.414490	146.520000
275.507507	146.380000
275.600525	146.700000
275.693573	146.440000
275.786591	146.340000
275.879669	146.380000
275.972656	145.900000
276.065735	145.600000
276.158752	146.040000
276.251801	147.020000
276.344818	147.080000
276.437866	147.200000
276.530884	147.200000
276.623932	146.620000
276.716980	146.320000
276.809998	146.340000
276.903046	146.240000
276.996094	146.840000
277.089111	147.520000
277.182159	147.980000
277.275208	147.800000
277.368256	147.860000
277.461304	147.440000
277.554321	146.780000
277.647369	146.060000
277.740417	146.340000
277.833466	146.100000
277.926514	145.980000
278.019562	146.700000
278.112610	146.520000
278.205688	146.440000
278.298706	146.860000
278.391785	146.680000
278.484833	146.080000
278.577881	145.980000
278.670929	146.040000
278.763977	146.120000
278.857025	146.400000
278.950073	146.540000
279.043121	146.440000
279.136169	146.820000
279.229248	146.460000
279.322296	146.320000
279.415344	146.180000
279.508392	146.140000
279.601440	145.760000
279.694519	145.740000
279.787567	145.600000
279.880615	145.420000
279.973694	145.620000
280.066742	145.460000
280.159790	145.580000
280.252869	145.280000
280.345917	145.420000
280.438995	145.260000
280.532074	145.280000
280.625122	145.880000
280.718201	147.080000
280.811279	147.300000
280.904327	147.140000
280.997406	147.380000
281.090454	147.020000
281.183533	146.100000
281.276581	146.040000
281.369659	146.220000
281.462738	146.100000
281.555786	146.200000
281.648865	146.400000
281.741943	146.180000
281.835022	146.920000
281.928070	147.200000
282.021149	146.400000
282.114227	146.060000
282.207306	146.000000
282.300385	145.920000
282.393433	145.680000
282.486511	146.160000
282.579590	146.660000
282.672668	147.180000
282.765747	146.620000
282.858856	146.340000
282.951904	146.560000
283.045013	146.740000
283.138062	147.000000
283.231171	147.120000
283.324249	147.600000
283.417328	147.540000
283.510406	147.140000
283.603485	146.840000
283.696564	146.780000
283.789642	146.780000
283.882751	146.560000
283.975830	147.200000
284.068909	146.760000
284.161987	147.460000
284.255066	146.820000
284.348175	147.020000
284.441254	146.660000
284.534332	147.280000
284.627441	146.820000
284.720520	146.740000
284.813599	146.760000
284.906708	146.700000
284.999786	145.920000
285.092896	145.400000
285.185974	146.340000
285.279053	146.040000
285.372192	146.040000
285.465240	146.780000
285.558380	146.960000
285.651459	146.380000
285.744568	146.960000
285.837677	146.740000
285.930756	146.440000
286.023865	146.560000
286.116943	146.380000
286.210052	146.260000
286.303162	146.040000
286.396240	146.360000
286.489349	146.200000
286.582458	146.540000
286.675568	146.320000
286.768646	146.400000
286.861755	146.460000
286.954865	147.100000
287.047974	146.660000
287.141083	146.500000
287.234161	146.580000
287.327271	146.440000
287.420380	146.740000
287.513519	146.980000
287.606598	147.200000
287.699738	147.220000
287.792816	147.080000
287.885956	146.460000
287.979034	146.500000
288.072174	146.380000
288.165283	146.360000
288.258392	146.340000
288.351501	145.840000
288.444611	145.860000
288.537720	146.380000
288.630859	146.300000
288.723969	146.480000
288.817078	147.060000
288.910187	147.300000
289.003296	146.500000
289.096436	146.000000
289.189545	145.740000
289.282654	145.280000
289.375763	145.160000
289.468903	145.800000
289.562012	146.320000
289.655121	146.380000
289.748260	146.560000
289.841400	146.700000
289.934509	146.380000
290.027649	146.460000
290.120728	146.320000
290.213898	146.300000
290.306976	146.100000
290.400146	146.160000
290.493256	145.860000
290.586395	146.220000
290.679535	146.660000
290.772644	146.480000
290.865784	145.900000
290.958893	146.240000
291.052032	145.920000
291.145172	145.760000
291.238281	145.720000
291.331421	146.080000
291.424561	146.320000
291.517670	146.220000
291.610809	146.460000
291.703949	146.560000
291.797089	146.880000
291.890228	146.360000
291.983337	146.300000
292.076477	145.940000
292.169617	146.120000
292.262756	146.000000
292.355927	146.040000
292.449036	146.140000
292.542206	146.240000
292.635315	146.300000
292.728485	146.200000
292.821625	145.820000
292.914764	146.840000
293.007904	146.760000
293.101044	146.900000
293.194183	147.100000
293.287323	147.540000
293.380463	146.700000
293.473602	146.580000
293.566742	146.380000
293.659882	146.740000
293.753021	146.920000
293.846191	146.860000
293.939331	146.620000
294.032471	146.680000
294.125610	146.080000
294.218781	146.300000
294.311920	146.640000
294.405060	146.980000
294.498230	146.860000
294.591370	146.980000
294.684540	146.240000
294.777679	145.820000
294.870850	146.060000
294.963959	146.020000
295.057159	146.040000
295.150299	146.420000
295.243469	146.280000
295.336609	145.820000
295.429779	146.080000
295.522919	146.580000
295.616089	146.980000
295.709229	147.620000
295.802399	147.940000
295.895569	147.300000
295.988708	146.740000
296.081879	146.820000
296.175018	146.080000
296.268188	145.780000
296.361359	146.540000
296.454529	146.780000
296.547668	146.380000
296.640839	146.900000
296.734009	146.600000
296.827179	146.280000
296.920319	146.340000
297.013519	146.240000
297.106659	146.240000
297.199860	146.480000
297.292999	146.660000
297.386200	146.220000
297.479309	145.900000
297.572510	145.640000
297.665680	145.460000
297.758850	145.220000
297.852020	145.120000
297.945190	145.260000
298.038361	145.140000
298.131531	146.200000
298.224701	146.080000
298.317871	146.040000
298.411072	145.760000
298.504242	145.740000
298.597412	145.000000
298.690582	145.400000
298.783752	145.480000
298.876923	146.160000
298.970093	146.320000
299.063293	146.680000
299.156464	146.720000
299.249634	147.200000
299.342834	147.380000
299.436005	147.740000
299.529205	147.340000
299.622345	147.220000
299.715576	146.160000
299.808716	145.640000
299.901917	145.580000
299.995117	145.980000
300.088287	146.160000
300.181488	146.340000
300.274658	146.460000
300.367828	146.220000
300.461029	146.080000
300.554199	146.440000
300.647400	146.980000
300.740601	147.300000
300.833771	147.200000
300.926971	147.380000
301.020142	146.500000
301.113342	146.340000
301.206512	146.380000
301.299713	146.520000
301.392914	146.320000
301.486084	146.960000
301.579285	146.800000
301.672516	146.820000
301.765686	146.940000
301.858887	146.760000
301.952057	146.400000
302.045288	146.580000
302.138458	146.380000
302.231659	145.900000
302.324860	146.040000
302.418060	145.860000
302.511261	145.780000
302.604462	145.960000
302.697662	145.960000
302.790863	145.980000
302.884064	145.800000
302.977264	145.860000
303.070465	146.000000
303.163666	146.820000
303.256866	147.020000
303.350067	147.280000
303.443268	147.420000
303.536469	147.480000
303.629669	146.640000
303.722870	146.380000
303.816071	145.880000
303.909271	145.700000
304.002472	144.680000
304.095673	144.700000
304.188934	144.120000
304.282104	145.280000
304.375336	145.400000
304.468506	145.860000
304.561768	145.860000
304.654968	146.460000
304.748169	145.580000
304.841370	145.560000
304.934601	145.800000
305.027802	145.660000
305.121002	145.620000
305.214233	145.780000
305.307434	145.500000
305.400665	145.940000
305.493866	145.780000
