Model Number: SPM-002-B   
Serial Number: 70087108
Firmware Version: 004.15.4
Exposure Time: 100000.000000us
Data Taken on: 11-12-2020 18:45:09.490
Wavelength	Amplitude
221.570786	0.000000
221.663406	0.000000
221.756027	0.000000
221.848648	0.000000
221.941269	0.000000
222.033905	0.000000
222.126526	0.000000
222.219162	0.000000
222.311798	0.000000
222.404419	0.000000
222.497055	0.000000
222.589676	0.000000
222.682312	0.000000
222.774933	0.000000
222.867569	0.000000
222.960205	0.000000
223.052841	0.000000
223.145462	0.000000
223.238098	0.000000
223.330734	0.000000
223.423386	0.000000
223.516022	0.000000
223.608658	0.000000
223.701309	0.000000
223.793945	0.000000
223.886581	0.000000
223.979218	0.000000
224.071869	0.000000
224.164505	0.000000
224.257156	0.000000
224.349792	0.000000
224.442444	0.000000
224.535095	0.000000
224.627747	0.000000
224.720398	0.000000
224.813034	0.000000
224.905685	0.000000
224.998337	146.540000
225.090988	146.040000
225.183640	145.920000
225.276291	145.600000
225.368942	145.860000
225.461594	146.680000
225.554245	147.220000
225.646912	147.360000
225.739578	148.240000
225.832230	148.640000
225.924896	147.280000
226.017548	147.500000
226.110199	147.740000
226.202866	146.700000
226.295532	146.360000
226.388184	146.580000
226.480850	146.160000
226.573517	145.720000
226.666168	145.920000
226.758835	145.960000
226.851501	146.480000
226.944183	146.560000
227.036850	146.420000
227.129517	146.420000
227.222183	146.620000
227.314850	146.520000
227.407516	146.940000
227.500198	147.860000
227.592865	147.440000
227.685532	147.100000
227.778214	146.840000
227.870880	146.940000
227.963562	146.920000
228.056229	147.700000
228.148926	147.700000
228.241592	148.400000
228.334274	147.720000
228.426956	147.340000
228.519638	147.340000
228.612305	146.880000
228.704987	146.780000
228.797668	147.100000
228.890350	147.120000
228.983032	146.540000
229.075714	147.500000
229.168396	146.880000
229.261108	146.320000
229.353790	146.320000
229.446472	146.620000
229.539169	146.260000
229.631851	146.120000
229.724533	146.540000
229.817230	146.780000
229.909912	147.720000
230.002609	147.540000
230.095306	147.820000
230.187988	147.600000
230.280685	147.220000
230.373383	145.860000
230.466095	145.840000
230.558792	146.020000
230.651474	146.100000
230.744171	146.060000
230.836868	146.060000
230.929581	146.340000
231.022278	146.040000
231.114975	146.180000
231.207672	146.140000
231.300369	146.900000
231.393082	146.700000
231.485779	146.320000
231.578506	146.140000
231.671204	146.340000
231.763916	145.960000
231.856613	146.000000
231.949326	146.900000
232.042023	146.800000
232.134735	146.620000
232.227448	146.300000
232.320160	146.540000
232.412872	146.180000
232.505585	146.780000
232.598297	147.300000
232.691010	147.280000
232.783722	147.040000
232.876450	147.520000
232.969162	147.140000
233.061874	146.280000
233.154587	146.120000
233.247314	146.160000
233.340027	145.440000
233.432739	145.720000
233.525467	145.880000
233.618179	146.420000
233.710907	146.300000
233.803635	147.260000
233.896347	146.960000
233.989090	147.740000
234.081818	147.820000
234.174545	148.200000
234.267258	147.440000
234.359985	147.860000
234.452713	147.320000
234.545441	147.080000
234.638168	146.740000
234.730896	147.140000
234.823639	146.760000
234.916367	147.280000
235.009094	147.300000
235.101822	147.340000
235.194580	147.160000
235.287308	147.140000
235.380051	146.580000
235.472778	146.960000
235.565521	147.220000
235.658249	146.880000
235.750992	146.780000
235.843719	146.720000
235.936462	146.700000
236.029205	146.140000
236.121948	145.960000
236.214691	146.560000
236.307449	147.320000
236.400192	146.500000
236.492935	146.540000
236.585678	147.120000
236.678421	146.580000
236.771164	146.040000
236.863907	147.100000
236.956665	147.400000
237.049408	148.360000
237.142151	148.180000
237.234909	148.600000
237.327652	148.300000
237.420410	148.180000
237.513153	147.480000
237.605927	147.480000
237.698669	147.140000
237.791428	146.700000
237.884186	147.080000
237.976944	146.300000
238.069702	146.560000
238.162445	146.160000
238.255203	146.200000
238.347961	146.120000
238.440720	146.180000
238.533478	145.960000
238.626266	145.700000
238.719025	146.120000
238.811783	145.820000
238.904541	145.880000
238.997314	145.800000
239.090073	145.840000
239.182831	145.660000
239.275604	146.280000
239.368362	146.000000
239.461136	146.040000
239.553909	146.040000
239.646667	145.860000
239.739441	145.520000
239.832214	146.120000
239.925003	146.640000
240.017761	147.340000
240.110535	148.000000
240.203308	147.580000
240.296082	147.360000
240.388855	147.160000
240.481628	147.320000
240.574417	147.080000
240.667191	147.380000
240.759964	147.280000
240.852737	147.140000
240.945526	146.640000
241.038315	146.280000
241.131088	146.440000
241.223877	146.760000
241.316650	146.420000
241.409439	146.800000
241.502228	146.480000
241.595001	146.820000
241.687790	146.700000
241.780579	146.880000
241.873367	147.080000
241.966141	147.460000
242.058929	146.960000
242.151718	147.000000
242.244507	147.180000
242.337311	146.020000
242.430099	146.540000
242.522903	146.460000
242.615692	146.040000
242.708481	146.120000
242.801270	147.220000
242.894073	146.940000
242.986862	146.980000
243.079651	147.660000
243.172455	147.540000
243.265244	147.500000
243.358063	147.100000
243.450867	147.520000
243.543655	147.520000
243.636459	147.700000
243.729263	147.480000
243.822067	148.040000
243.914856	147.980000
244.007660	147.800000
244.100464	147.820000
244.193268	147.560000
244.286072	146.960000
244.378876	146.680000
244.471680	146.320000
244.564499	146.300000
244.657318	146.900000
244.750122	147.300000
244.842926	146.780000
244.935745	147.440000
245.028549	147.400000
245.121368	146.900000
245.214172	146.880000
245.306992	147.480000
245.399796	146.780000
245.492615	146.800000
245.585434	146.760000
245.678253	146.540000
245.771072	146.220000
245.863892	146.980000
245.956711	146.960000
246.049530	146.700000
246.142349	146.700000
246.235168	146.760000
246.327988	146.900000
246.420807	146.940000
246.513626	147.200000
246.606445	146.920000
246.699280	146.800000
246.792099	146.420000
246.884918	145.920000
246.977753	145.860000
247.070587	146.340000
247.163422	146.500000
247.256241	146.300000
247.349075	146.720000
247.441895	146.720000
247.534729	146.520000
247.627563	146.500000
247.720383	147.120000
247.813217	146.880000
247.906052	146.700000
247.998886	146.700000
248.091736	146.580000
248.184570	146.100000
248.277405	146.120000
248.370239	147.080000
248.463074	147.900000
248.555908	148.220000
248.648743	148.100000
248.741592	148.440000
248.834427	147.620000
248.927261	146.360000
249.020111	146.500000
249.112946	147.060000
249.205795	146.520000
249.298630	146.680000
249.391495	146.860000
249.484344	146.700000
249.577179	146.520000
249.670029	146.940000
249.762878	147.460000
249.855728	147.600000
249.948563	147.580000
250.041412	146.740000
250.134262	146.880000
250.227112	146.840000
250.319962	146.940000
250.412827	146.940000
250.505692	146.940000
250.598541	146.940000
250.691391	146.360000
250.784241	146.480000
250.877106	146.320000
250.969955	146.300000
251.062805	146.760000
251.155670	147.200000
251.248520	146.660000
251.341385	147.120000
251.434235	147.240000
251.527100	146.560000
251.619965	146.580000
251.712814	147.700000
251.805695	147.280000
251.898560	147.580000
251.991425	147.700000
252.084290	147.460000
252.177155	146.560000
252.270020	146.520000
252.362885	146.540000
252.455750	146.640000
252.548615	146.620000
252.641479	146.640000
252.734360	146.560000
252.827240	146.500000
252.920105	146.400000
253.012970	146.120000
253.105850	146.140000
253.198715	145.960000
253.291595	145.980000
253.384460	145.800000
253.477341	145.700000
253.570221	145.840000
253.663086	145.700000
253.755966	146.160000
253.848846	146.360000
253.941727	146.680000
254.034592	146.640000
254.127472	146.660000
254.220367	146.400000
254.313248	146.360000
254.406128	146.240000
254.499008	146.340000
254.591904	147.400000
254.684784	147.800000
254.777664	147.700000
254.870544	147.080000
254.963440	147.180000
255.056335	146.620000
255.149216	146.040000
255.242111	146.400000
255.334991	147.180000
255.427887	147.220000
255.520767	147.400000
255.613663	147.680000
255.706558	147.140000
255.799438	146.860000
255.892334	146.420000
255.985229	146.460000
256.078125	146.260000
256.171021	146.580000
256.263916	146.960000
256.356812	147.520000
256.449707	147.420000
256.542603	147.220000
256.635498	147.420000
256.728394	147.140000
256.821289	146.700000
256.914215	146.660000
257.007080	147.240000
257.100006	147.040000
257.192932	147.340000
257.285828	147.720000
257.378723	147.660000
257.471619	146.920000
257.564545	146.520000
257.657440	146.480000
257.750336	146.680000
257.843262	146.380000
257.936157	147.680000
258.029053	148.200000
258.121979	148.240000
258.214874	147.800000
258.307800	147.480000
258.400696	146.260000
258.493622	146.200000
258.586517	145.680000
258.679443	145.960000
258.772339	146.000000
258.865265	145.880000
258.958160	145.300000
259.051086	146.060000
259.144012	145.880000
259.236938	146.660000
259.329834	146.940000
259.422791	147.260000
259.515717	146.540000
259.608612	145.960000
259.701538	145.760000
259.794464	145.560000
259.887390	145.360000
259.980316	145.420000
260.073212	145.580000
260.166138	144.800000
260.259064	145.380000
260.351990	145.920000
260.444916	146.080000
260.537842	146.460000
260.630768	147.420000
260.723694	147.020000
260.816620	147.000000
260.909546	146.800000
261.002472	146.620000
261.095398	146.060000
261.188354	146.040000
261.281281	145.240000
261.374207	145.280000
261.467133	145.980000
261.560089	146.040000
261.653015	145.800000
261.745972	146.880000
261.838867	147.560000
261.931824	147.400000
262.024780	147.480000
262.117706	147.740000
262.210663	147.620000
262.303589	146.980000
262.396515	147.140000
262.489471	147.820000
262.582397	147.760000
262.675354	147.120000
262.768280	147.420000
262.861237	147.180000
262.954163	146.620000
263.047119	146.940000
263.140045	146.880000
263.233002	146.780000
263.325958	146.640000
263.418884	146.320000
263.511841	146.020000
263.604797	146.280000
263.697723	146.240000
263.790680	146.080000
263.883636	146.440000
263.976593	146.560000
264.069550	146.540000
264.162476	146.540000
264.255463	146.440000
264.348419	146.300000
264.441376	146.480000
264.534332	146.140000
264.627289	146.020000
264.720245	146.380000
264.813202	145.840000
264.906158	145.840000
264.999115	146.360000
265.092072	146.600000
265.185028	147.320000
265.277985	147.740000
265.370941	147.520000
265.463898	147.220000
265.556854	146.720000
265.649811	145.600000
265.742798	145.520000
265.835754	145.640000
265.928711	146.120000
266.021667	146.380000
266.114655	146.540000
266.207611	147.000000
266.300568	146.260000
266.393585	145.560000
266.486511	145.920000
266.579498	145.320000
266.672485	145.260000
266.765442	145.820000
266.858429	146.400000
266.951385	145.800000
267.044342	146.000000
267.137329	145.680000
267.230316	145.880000
267.323273	145.180000
267.416260	146.080000
267.509216	146.120000
267.602203	146.180000
267.695160	146.300000
267.788147	146.640000
267.881134	145.680000
267.974091	146.060000
268.067078	146.180000
268.160065	146.040000
268.253052	146.200000
268.346008	146.600000
268.438995	146.400000
268.531982	146.360000
268.624969	146.040000
268.717987	146.440000
268.810944	146.460000
268.903961	146.660000
268.996948	146.540000
269.089905	146.900000
269.182892	146.560000
269.275879	146.720000
269.368866	146.480000
269.461853	146.820000
269.554871	146.760000
269.647858	146.880000
269.740845	147.200000
269.833832	147.320000
269.926819	146.820000
270.019806	147.180000
270.112793	146.840000
270.205811	146.500000
270.298798	146.440000
270.391785	147.240000
270.484772	146.800000
270.577789	146.800000
270.670776	146.260000
270.763763	146.200000
270.856750	145.980000
270.949768	145.700000
271.042786	145.960000
271.135773	146.220000
271.228790	146.580000
271.321808	145.860000
271.414795	145.520000
271.507782	145.060000
271.600800	144.700000
271.693817	144.940000
271.786804	145.520000
271.879822	145.940000
271.972809	146.400000
272.065826	147.020000
272.158844	146.320000
272.251831	146.880000
272.344849	147.220000
272.437866	146.680000
272.530853	146.500000
272.623871	146.820000
272.716888	145.760000
272.809906	146.060000
272.902893	146.340000
272.995911	145.840000
273.088928	145.920000
273.181946	146.200000
273.274963	145.580000
273.367981	145.360000
273.460999	145.860000
273.554047	146.260000
273.647003	147.240000
273.740051	147.360000
273.833069	147.920000
273.926086	148.140000
274.019135	147.660000
274.112152	146.620000
274.205170	146.840000
274.298187	147.140000
274.391205	146.480000
274.484222	146.720000
274.577240	147.040000
274.670258	146.740000
274.763306	146.420000
274.856323	146.980000
274.949341	146.740000
275.042358	147.040000
275.135406	146.860000
275.228424	146.680000
275.321442	146.560000
275.414490	146.120000
275.507507	146.140000
275.600525	146.400000
275.693573	146.200000
275.786591	146.060000
275.879669	146.500000
275.972656	146.220000
276.065735	146.460000
276.158752	146.960000
276.251801	147.500000
276.344818	147.600000
276.437866	147.400000
276.530884	146.900000
276.623932	146.200000
276.716980	146.160000
276.809998	145.980000
276.903046	146.060000
276.996094	147.020000
277.089111	147.820000
277.182159	147.920000
277.275208	147.820000
277.368256	147.940000
277.461304	147.340000
277.554321	146.520000
277.647369	146.600000
277.740417	146.860000
277.833466	146.940000
277.926514	146.800000
278.019562	147.600000
278.112610	146.920000
278.205688	146.820000
278.298706	146.700000
278.391785	146.360000
278.484833	145.800000
278.577881	145.760000
278.670929	146.100000
278.763977	146.160000
278.857025	146.880000
278.950073	147.060000
279.043121	146.960000
279.136169	146.920000
279.229248	146.780000
279.322296	146.540000
279.415344	146.420000
279.508392	146.340000
279.601440	146.100000
279.694519	145.720000
279.787567	145.680000
279.880615	145.320000
279.973694	145.500000
280.066742	145.420000
280.159790	145.920000
280.252869	145.280000
280.345917	145.700000
280.438995	145.580000
280.532074	145.720000
280.625122	145.900000
280.718201	147.040000
280.811279	146.820000
280.904327	147.100000
280.997406	147.040000
281.090454	146.740000
281.183533	145.960000
281.276581	145.880000
281.369659	145.520000
281.462738	145.680000
281.555786	145.700000
281.648865	146.020000
281.741943	146.180000
281.835022	146.680000
281.928070	146.220000
282.021149	145.900000
282.114227	145.460000
282.207306	145.560000
282.300385	145.680000
282.393433	146.020000
282.486511	146.100000
282.579590	146.900000
282.672668	147.040000
282.765747	146.460000
282.858856	146.300000
282.951904	146.740000
283.045013	146.340000
283.138062	146.560000
283.231171	147.040000
283.324249	147.280000
283.417328	147.260000
283.510406	147.060000
283.603485	146.820000
283.696564	146.540000
283.789642	146.580000
283.882751	146.400000
283.975830	146.920000
284.068909	146.300000
284.161987	146.980000
284.255066	146.200000
284.348175	146.480000
284.441254	146.640000
284.534332	147.700000
284.627441	147.140000
284.720520	147.380000
284.813599	147.440000
284.906708	146.980000
284.999786	146.040000
285.092896	145.820000
285.185974	146.660000
285.279053	146.020000
285.372192	146.120000
285.465240	147.020000
285.558380	147.120000
285.651459	146.580000
285.744568	147.560000
285.837677	147.280000
285.930756	147.000000
286.023865	147.000000
286.116943	146.580000
286.210052	146.400000
286.303162	146.620000
286.396240	146.500000
286.489349	146.580000
286.582458	147.220000
286.675568	146.840000
286.768646	146.800000
286.861755	147.180000
286.954865	147.860000
287.047974	147.140000
287.141083	146.880000
287.234161	146.740000
287.327271	146.340000
287.420380	146.720000
287.513519	146.740000
287.606598	146.800000
287.699738	146.740000
287.792816	146.620000
287.885956	145.900000
287.979034	146.280000
288.072174	146.400000
288.165283	146.600000
288.258392	146.900000
288.351501	146.100000
288.444611	146.160000
288.537720	146.380000
288.630859	146.280000
288.723969	146.180000
288.817078	146.520000
288.910187	146.520000
289.003296	146.080000
289.096436	146.060000
289.189545	145.760000
289.282654	145.660000
289.375763	145.860000
289.468903	146.360000
289.562012	146.580000
289.655121	146.740000
289.748260	146.740000
289.841400	146.880000
289.934509	146.480000
290.027649	146.540000
290.120728	146.380000
290.213898	146.520000
290.306976	146.080000
290.400146	146.220000
290.493256	145.900000
290.586395	146.320000
290.679535	146.860000
290.772644	146.800000
290.865784	146.220000
290.958893	146.100000
291.052032	146.000000
291.145172	145.660000
291.238281	145.740000
291.331421	146.060000
291.424561	146.620000
291.517670	146.180000
291.610809	146.560000
291.703949	146.560000
291.797089	146.800000
291.890228	146.320000
291.983337	146.240000
292.076477	145.900000
292.169617	146.220000
292.262756	146.400000
292.355927	146.460000
292.449036	146.460000
292.542206	146.200000
292.635315	146.120000
292.728485	145.980000
292.821625	145.680000
292.914764	146.700000
293.007904	147.200000
293.101044	147.080000
293.194183	147.100000
293.287323	147.580000
293.380463	146.940000
293.473602	146.340000
293.566742	146.640000
293.659882	147.020000
293.753021	147.080000
293.846191	147.040000
293.939331	146.840000
294.032471	146.640000
294.125610	146.020000
294.218781	145.980000
294.311920	146.200000
294.405060	146.840000
294.498230	146.560000
294.591370	147.120000
294.684540	146.700000
294.777679	146.360000
294.870850	146.300000
294.963959	146.420000
295.057159	145.760000
295.150299	146.120000
295.243469	146.120000
295.336609	145.900000
295.429779	146.040000
295.522919	146.420000
295.616089	146.280000
295.709229	146.820000
295.802399	146.940000
295.895569	146.340000
295.988708	146.100000
296.081879	146.440000
296.175018	145.820000
296.268188	145.660000
296.361359	146.360000
296.454529	146.460000
296.547668	146.240000
296.640839	146.600000
296.734009	146.380000
296.827179	146.100000
296.920319	146.360000
297.013519	146.140000
297.106659	146.340000
297.199860	146.680000
297.292999	146.680000
297.386200	146.380000
297.479309	146.240000
297.572510	145.940000
297.665680	145.940000
297.758850	146.340000
297.852020	146.400000
297.945190	146.480000
298.038361	146.020000
298.131531	146.660000
298.224701	146.300000
298.317871	145.720000
298.411072	145.500000
298.504242	145.560000
298.597412	144.720000
298.690582	144.960000
298.783752	145.380000
298.876923	145.920000
298.970093	146.080000
299.063293	146.480000
299.156464	146.680000
299.249634	147.140000
299.342834	147.060000
299.436005	147.240000
299.529205	146.980000
299.622345	146.660000
299.715576	145.720000
299.808716	145.460000
299.901917	145.540000
299.995117	145.980000
300.088287	146.160000
300.181488	146.520000
300.274658	146.600000
300.367828	146.340000
300.461029	146.080000
300.554199	146.200000
300.647400	146.180000
300.740601	146.540000
300.833771	146.600000
300.926971	146.900000
301.020142	146.260000
301.113342	146.420000
301.206512	146.460000
301.299713	146.880000
301.392914	146.680000
301.486084	147.260000
301.579285	147.160000
301.672516	147.260000
301.765686	146.880000
301.858887	146.780000
301.952057	146.660000
302.045288	146.500000
302.138458	146.300000
302.231659	146.100000
302.324860	145.860000
302.418060	145.240000
302.511261	145.260000
302.604462	145.280000
302.697662	145.420000
302.790863	145.440000
302.884064	145.560000
302.977264	145.780000
303.070465	146.080000
303.163666	146.480000
303.256866	146.920000
303.350067	146.900000
303.443268	146.760000
303.536469	146.540000
303.629669	146.060000
303.722870	145.800000
303.816071	145.940000
303.909271	146.120000
304.002472	145.400000
304.095673	145.600000
304.188934	145.120000
304.282104	145.940000
304.375336	145.580000
304.468506	145.680000
304.561768	145.240000
304.654968	145.980000
304.748169	145.220000
304.841370	145.440000
304.934601	146.220000
305.027802	146.200000
305.121002	145.440000
305.214233	145.580000
305.307434	145.760000
305.400665	146.020000
305.493866	146.220000
