Model Number: SPM-002-B   
Serial Number: 70087108
Firmware Version: 004.15.4
Exposure Time: 100000.000000us
Data Taken on: 11-12-2020 18:45:17.126
Wavelength	Amplitude
221.570786	0.000000
221.663406	0.000000
221.756027	0.000000
221.848648	0.000000
221.941269	0.000000
222.033905	0.000000
222.126526	0.000000
222.219162	0.000000
222.311798	0.000000
222.404419	0.000000
222.497055	0.000000
222.589676	0.000000
222.682312	0.000000
222.774933	0.000000
222.867569	0.000000
222.960205	0.000000
223.052841	0.000000
223.145462	0.000000
223.238098	0.000000
223.330734	0.000000
223.423386	0.000000
223.516022	0.000000
223.608658	0.000000
223.701309	0.000000
223.793945	0.000000
223.886581	0.000000
223.979218	0.000000
224.071869	0.000000
224.164505	0.000000
224.257156	0.000000
224.349792	0.000000
224.442444	0.000000
224.535095	0.000000
224.627747	0.000000
224.720398	0.000000
224.813034	0.000000
224.905685	0.000000
224.998337	146.540000
225.090988	146.100000
225.183640	146.120000
225.276291	145.680000
225.368942	146.020000
225.461594	146.140000
225.554245	146.240000
225.646912	145.940000
225.739578	146.540000
225.832230	146.800000
225.924896	145.860000
226.017548	146.300000
226.110199	146.980000
226.202866	146.380000
226.295532	146.180000
226.388184	146.340000
226.480850	145.900000
226.573517	145.640000
226.666168	146.160000
226.758835	146.420000
226.851501	147.180000
226.944183	147.420000
227.036850	146.720000
227.129517	146.340000
227.222183	146.320000
227.314850	146.200000
227.407516	146.260000
227.500198	147.300000
227.592865	146.920000
227.685532	146.440000
227.778214	146.260000
227.870880	146.600000
227.963562	146.940000
228.056229	147.460000
228.148926	147.720000
228.241592	148.320000
228.334274	147.860000
228.426956	147.380000
228.519638	147.760000
228.612305	147.500000
228.704987	147.260000
228.797668	147.460000
228.890350	147.140000
228.983032	146.060000
229.075714	146.800000
229.168396	146.620000
229.261108	145.920000
229.353790	146.120000
229.446472	146.580000
229.539169	146.040000
229.631851	145.500000
229.724533	146.080000
229.817230	146.040000
229.909912	146.900000
230.002609	147.080000
230.095306	147.420000
230.187988	147.420000
230.280685	147.340000
230.373383	146.140000
230.466095	145.960000
230.558792	146.260000
230.651474	146.020000
230.744171	145.860000
230.836868	146.160000
230.929581	146.580000
231.022278	146.320000
231.114975	146.240000
231.207672	146.140000
231.300369	146.480000
231.393082	146.140000
231.485779	146.120000
231.578506	146.060000
231.671204	146.040000
231.763916	146.020000
231.856613	146.160000
231.949326	146.040000
232.042023	146.140000
232.134735	146.320000
232.227448	146.020000
232.320160	146.300000
232.412872	146.560000
232.505585	147.220000
232.598297	147.680000
232.691010	147.680000
232.783722	147.220000
232.876450	147.660000
232.969162	147.320000
233.061874	146.860000
233.154587	146.460000
233.247314	146.700000
233.340027	146.060000
233.432739	146.340000
233.525467	146.160000
233.618179	146.880000
233.710907	146.360000
233.803635	147.020000
233.896347	146.680000
233.989090	147.380000
234.081818	147.240000
234.174545	147.720000
234.267258	147.220000
234.359985	147.520000
234.452713	147.140000
234.545441	146.860000
234.638168	146.780000
234.730896	147.100000
234.823639	146.820000
234.916367	147.460000
235.009094	147.420000
235.101822	147.200000
235.194580	146.860000
235.287308	146.840000
235.380051	145.800000
235.472778	146.360000
235.565521	146.580000
235.658249	146.480000
235.750992	146.640000
235.843719	147.000000
235.936462	147.140000
236.029205	146.780000
236.121948	146.520000
236.214691	146.760000
236.307449	147.300000
236.400192	146.340000
236.492935	146.320000
236.585678	146.680000
236.678421	146.540000
236.771164	146.460000
236.863907	147.540000
236.956665	147.920000
237.049408	149.400000
237.142151	148.980000
237.234909	149.260000
237.327652	148.840000
237.420410	148.620000
237.513153	147.660000
237.605927	147.740000
237.698669	147.220000
237.791428	146.660000
237.884186	147.140000
237.976944	146.460000
238.069702	146.860000
238.162445	146.340000
238.255203	146.520000
238.347961	146.620000
238.440720	146.920000
238.533478	146.440000
238.626266	146.340000
238.719025	146.840000
238.811783	146.540000
238.904541	146.060000
238.997314	146.100000
239.090073	146.260000
239.182831	146.280000
239.275604	146.840000
239.368362	146.660000
239.461136	146.620000
239.553909	146.420000
239.646667	146.340000
239.739441	145.780000
239.832214	146.360000
239.925003	146.820000
240.017761	147.860000
240.110535	148.380000
240.203308	148.060000
240.296082	148.180000
240.388855	147.620000
240.481628	147.200000
240.574417	146.960000
240.667191	147.040000
240.759964	146.680000
240.852737	146.760000
240.945526	146.460000
241.038315	146.180000
241.131088	146.280000
241.223877	146.560000
241.316650	146.260000
241.409439	146.720000
241.502228	146.100000
241.595001	146.720000
241.687790	146.540000
241.780579	146.740000
241.873367	146.580000
241.966141	147.220000
242.058929	146.360000
242.151718	146.580000
242.244507	146.980000
242.337311	146.340000
242.430099	146.640000
242.522903	147.060000
242.615692	146.640000
242.708481	146.600000
242.801270	147.360000
242.894073	147.080000
242.986862	146.940000
243.079651	147.600000
243.172455	147.320000
243.265244	147.440000
243.358063	146.900000
243.450867	147.640000
243.543655	147.420000
243.636459	147.520000
243.729263	147.600000
243.822067	148.160000
243.914856	147.780000
244.007660	147.540000
244.100464	147.560000
244.193268	146.840000
244.286072	146.660000
244.378876	146.320000
244.471680	146.020000
244.564499	146.200000
244.657318	147.200000
244.750122	147.220000
244.842926	146.780000
244.935745	147.320000
245.028549	146.860000
245.121368	146.160000
245.214172	146.080000
245.306992	146.720000
245.399796	146.700000
245.492615	147.100000
245.585434	147.180000
245.678253	147.320000
245.771072	147.000000
245.863892	147.080000
245.956711	147.320000
246.049530	147.080000
246.142349	146.760000
246.235168	146.880000
246.327988	147.420000
246.420807	147.040000
246.513626	147.360000
246.606445	147.400000
246.699280	147.340000
246.792099	146.720000
246.884918	146.480000
246.977753	145.800000
247.070587	146.040000
247.163422	146.340000
247.256241	146.400000
247.349075	146.680000
247.441895	147.240000
247.534729	147.040000
247.627563	146.800000
247.720383	147.380000
247.813217	147.460000
247.906052	147.120000
247.998886	147.000000
248.091736	146.860000
248.184570	146.440000
248.277405	146.500000
248.370239	147.220000
248.463074	148.360000
248.555908	148.700000
248.648743	148.500000
248.741592	148.580000
248.834427	147.860000
248.927261	146.460000
249.020111	146.640000
249.112946	147.200000
249.205795	146.520000
249.298630	147.000000
249.391495	147.340000
249.484344	147.060000
249.577179	146.580000
249.670029	147.300000
249.762878	147.560000
249.855728	147.680000
249.948563	147.580000
250.041412	147.240000
250.134262	147.340000
250.227112	147.220000
250.319962	147.220000
250.412827	147.040000
250.505692	146.800000
250.598541	146.480000
250.691391	145.900000
250.784241	145.860000
250.877106	146.080000
250.969955	145.840000
251.062805	146.420000
251.155670	147.120000
251.248520	147.000000
251.341385	147.420000
251.434235	147.660000
251.527100	146.980000
251.619965	146.480000
251.712814	147.260000
251.805695	146.740000
251.898560	147.280000
251.991425	147.780000
252.084290	147.780000
252.177155	146.860000
252.270020	146.800000
252.362885	146.560000
252.455750	146.300000
252.548615	146.060000
252.641479	146.360000
252.734360	146.460000
252.827240	146.140000
252.920105	146.240000
253.012970	146.340000
253.105850	146.240000
253.198715	146.200000
253.291595	146.720000
253.384460	146.360000
253.477341	146.520000
253.570221	146.520000
253.663086	146.200000
253.755966	146.560000
253.848846	146.640000
253.941727	146.660000
254.034592	146.700000
254.127472	146.160000
254.220367	145.840000
254.313248	145.920000
254.406128	145.880000
254.499008	146.060000
254.591904	147.060000
254.684784	147.500000
254.777664	147.540000
254.870544	147.100000
254.963440	147.080000
255.056335	146.960000
255.149216	146.340000
255.242111	146.900000
255.334991	147.700000
255.427887	147.840000
255.520767	148.000000
255.613663	148.500000
255.706558	147.460000
255.799438	147.160000
255.892334	146.840000
255.985229	146.680000
256.078125	146.200000
256.171021	146.420000
256.263916	146.560000
256.356812	146.720000
256.449707	146.820000
256.542603	146.800000
256.635498	147.460000
256.728394	147.140000
256.821289	146.880000
256.914215	146.900000
257.007080	146.960000
257.100006	146.640000
257.192932	147.140000
257.285828	147.300000
257.378723	146.980000
257.471619	146.900000
257.564545	146.360000
257.657440	146.440000
257.750336	146.920000
257.843262	146.840000
257.936157	147.980000
258.029053	148.560000
258.121979	148.240000
258.214874	147.560000
258.307800	147.820000
258.400696	146.660000
258.493622	146.640000
258.586517	146.040000
258.679443	146.580000
258.772339	146.300000
258.865265	146.160000
258.958160	145.680000
259.051086	146.660000
259.144012	146.380000
259.236938	147.300000
259.329834	147.500000
259.422791	147.540000
259.515717	146.780000
259.608612	146.400000
259.701538	145.980000
259.794464	145.880000
259.887390	146.120000
259.980316	146.020000
260.073212	146.320000
260.166138	145.660000
260.259064	145.920000
260.351990	146.400000
260.444916	146.560000
260.537842	146.800000
260.630768	147.380000
260.723694	147.320000
260.816620	147.060000
260.909546	146.960000
261.002472	146.580000
261.095398	146.340000
261.188354	146.040000
261.281281	145.640000
261.374207	145.940000
261.467133	146.800000
261.560089	147.100000
261.653015	147.040000
261.745972	147.620000
261.838867	148.080000
261.931824	148.200000
262.024780	147.560000
262.117706	148.000000
262.210663	148.000000
262.303589	147.560000
262.396515	147.200000
262.489471	148.140000
262.582397	147.980000
262.675354	147.340000
262.768280	147.640000
262.861237	147.520000
262.954163	147.220000
263.047119	147.520000
263.140045	147.460000
263.233002	147.140000
263.325958	147.100000
263.418884	146.520000
263.511841	146.340000
263.604797	146.320000
263.697723	146.320000
263.790680	145.740000
263.883636	146.360000
263.976593	146.060000
264.069550	146.580000
264.162476	146.460000
264.255463	147.080000
264.348419	146.860000
264.441376	147.180000
264.534332	146.560000
264.627289	146.860000
264.720245	147.260000
264.813202	146.800000
264.906158	146.860000
264.999115	147.600000
265.092072	147.520000
265.185028	147.580000
265.277985	148.040000
265.370941	147.560000
265.463898	146.900000
265.556854	146.520000
265.649811	145.440000
265.742798	145.480000
265.835754	145.980000
265.928711	146.660000
266.021667	146.760000
266.114655	147.320000
266.207611	147.540000
266.300568	146.680000
266.393585	146.060000
266.486511	146.400000
266.579498	145.800000
266.672485	145.600000
266.765442	145.660000
266.858429	146.320000
266.951385	146.000000
267.044342	146.220000
267.137329	146.140000
267.230316	146.760000
267.323273	146.100000
267.416260	146.800000
267.509216	146.740000
267.602203	146.820000
267.695160	147.120000
267.788147	147.180000
267.881134	146.160000
267.974091	146.520000
268.067078	146.340000
268.160065	146.000000
268.253052	146.040000
268.346008	146.460000
268.438995	146.320000
268.531982	146.460000
268.624969	146.340000
268.717987	146.780000
268.810944	146.880000
268.903961	146.920000
268.996948	146.580000
269.089905	147.000000
269.182892	146.820000
269.275879	147.000000
269.368866	146.620000
269.461853	146.860000
269.554871	146.240000
269.647858	146.220000
269.740845	146.340000
269.833832	146.840000
269.926819	146.780000
270.019806	147.380000
270.112793	146.940000
270.205811	146.800000
270.298798	146.560000
270.391785	146.880000
270.484772	146.520000
270.577789	146.780000
270.670776	146.580000
270.763763	146.960000
270.856750	146.960000
270.949768	146.900000
271.042786	147.140000
271.135773	147.180000
271.228790	147.120000
271.321808	146.540000
271.414795	146.120000
271.507782	145.820000
271.600800	145.460000
271.693817	145.580000
271.786804	146.040000
271.879822	146.760000
271.972809	146.680000
272.065826	147.280000
272.158844	146.660000
272.251831	147.100000
272.344849	146.940000
272.437866	147.040000
272.530853	146.820000
272.623871	146.940000
272.716888	145.980000
272.809906	146.320000
272.902893	146.300000
272.995911	145.800000
273.088928	146.020000
273.181946	146.560000
273.274963	146.080000
273.367981	146.100000
273.460999	146.760000
273.554047	147.080000
273.647003	147.580000
273.740051	147.540000
273.833069	147.860000
273.926086	148.240000
274.019135	147.880000
274.112152	147.340000
274.205170	147.600000
274.298187	147.420000
274.391205	146.440000
274.484222	146.540000
274.577240	146.320000
274.670258	146.040000
274.763306	145.920000
274.856323	146.740000
274.949341	146.700000
275.042358	147.420000
275.135406	147.560000
275.228424	147.820000
275.321442	147.680000
275.414490	147.360000
275.507507	147.460000
275.600525	147.880000
275.693573	147.860000
275.786591	147.380000
275.879669	147.940000
275.972656	147.440000
276.065735	147.180000
276.158752	147.580000
276.251801	148.400000
276.344818	148.240000
276.437866	148.280000
276.530884	147.960000
276.623932	147.160000
276.716980	147.140000
276.809998	147.040000
276.903046	147.160000
276.996094	147.940000
277.089111	148.600000
277.182159	148.680000
277.275208	148.480000
277.368256	148.340000
277.461304	147.820000
277.554321	146.980000
277.647369	146.560000
277.740417	146.460000
277.833466	146.400000
277.926514	146.260000
278.019562	147.160000
278.112610	146.600000
278.205688	147.040000
278.298706	147.240000
278.391785	147.180000
278.484833	146.400000
278.577881	146.220000
278.670929	146.260000
278.763977	146.000000
278.857025	146.500000
278.950073	146.780000
279.043121	146.980000
279.136169	146.680000
279.229248	146.640000
279.322296	146.600000
279.415344	146.280000
279.508392	146.300000
279.601440	146.420000
279.694519	146.460000
279.787567	146.240000
279.880615	146.320000
279.973694	146.360000
280.066742	146.400000
280.159790	146.580000
280.252869	146.120000
280.345917	146.300000
280.438995	146.600000
280.532074	146.440000
280.625122	146.660000
280.718201	147.880000
280.811279	147.800000
280.904327	147.660000
280.997406	147.880000
281.090454	147.660000
281.183533	146.900000
281.276581	147.020000
281.369659	146.660000
281.462738	146.620000
281.555786	146.680000
281.648865	146.720000
281.741943	146.620000
281.835022	147.580000
281.928070	147.280000
282.021149	146.960000
282.114227	147.000000
282.207306	147.000000
282.300385	146.960000
282.393433	147.220000
282.486511	147.080000
282.579590	147.520000
282.672668	147.960000
282.765747	147.160000
282.858856	146.940000
282.951904	147.140000
283.045013	147.060000
283.138062	147.100000
283.231171	147.480000
283.324249	147.860000
283.417328	148.200000
283.510406	147.600000
283.603485	147.260000
283.696564	147.140000
283.789642	147.180000
283.882751	146.680000
283.975830	147.420000
284.068909	147.100000
284.161987	147.440000
284.255066	146.800000
284.348175	147.220000
284.441254	146.700000
284.534332	147.300000
284.627441	147.060000
284.720520	147.140000
284.813599	147.140000
284.906708	147.220000
284.999786	146.500000
285.092896	146.260000
285.185974	147.240000
285.279053	146.620000
285.372192	146.640000
285.465240	147.460000
285.558380	147.500000
285.651459	146.800000
285.744568	147.680000
285.837677	147.400000
285.930756	147.340000
286.023865	147.440000
286.116943	147.180000
286.210052	147.240000
286.303162	147.400000
286.396240	147.240000
286.489349	147.060000
286.582458	147.180000
286.675568	146.740000
286.768646	146.620000
286.861755	146.640000
286.954865	147.560000
287.047974	147.760000
287.141083	147.500000
287.234161	147.540000
287.327271	147.380000
287.420380	147.420000
287.513519	147.160000
287.606598	147.200000
287.699738	147.100000
287.792816	146.960000
287.885956	146.440000
287.979034	146.560000
288.072174	146.920000
288.165283	147.180000
288.258392	147.500000
288.351501	146.800000
288.444611	147.100000
288.537720	147.400000
288.630859	147.120000
288.723969	147.300000
288.817078	148.100000
288.910187	147.680000
289.003296	146.860000
289.096436	146.520000
289.189545	146.180000
289.282654	145.700000
289.375763	146.140000
289.468903	146.840000
289.562012	147.280000
289.655121	147.180000
289.748260	147.300000
289.841400	147.660000
289.934509	147.240000
290.027649	147.480000
290.120728	147.420000
290.213898	147.420000
290.306976	147.040000
290.400146	147.280000
290.493256	146.800000
290.586395	147.100000
290.679535	147.240000
290.772644	147.080000
290.865784	146.240000
290.958893	146.440000
291.052032	146.080000
291.145172	146.020000
291.238281	145.680000
291.331421	146.320000
291.424561	146.600000
291.517670	146.620000
291.610809	146.900000
291.703949	146.960000
291.797089	147.020000
291.890228	146.620000
291.983337	146.560000
292.076477	146.240000
292.169617	146.600000
292.262756	146.440000
292.355927	146.540000
292.449036	146.700000
292.542206	146.620000
292.635315	146.720000
292.728485	147.020000
292.821625	146.560000
292.914764	147.360000
293.007904	147.560000
293.101044	147.360000
293.194183	147.320000
293.287323	147.760000
293.380463	146.940000
293.473602	146.580000
293.566742	146.760000
293.659882	146.820000
293.753021	146.980000
293.846191	147.180000
293.939331	146.980000
294.032471	146.840000
294.125610	146.680000
294.218781	146.920000
294.311920	147.360000
294.405060	147.840000
294.498230	147.700000
294.591370	147.900000
294.684540	147.140000
294.777679	146.440000
294.870850	146.600000
294.963959	146.640000
295.057159	146.140000
295.150299	146.540000
295.243469	146.420000
295.336609	145.760000
295.429779	146.060000
295.522919	146.600000
295.616089	146.780000
295.709229	147.580000
295.802399	147.620000
295.895569	147.040000
295.988708	147.040000
296.081879	146.800000
296.175018	146.180000
296.268188	146.340000
296.361359	146.680000
296.454529	146.520000
296.547668	146.500000
296.640839	146.840000
296.734009	146.840000
296.827179	147.040000
296.920319	147.160000
297.013519	147.200000
297.106659	147.160000
297.199860	147.380000
297.292999	147.060000
297.386200	146.740000
297.479309	146.520000
297.572510	146.240000
297.665680	145.860000
297.758850	146.080000
297.852020	146.080000
297.945190	146.280000
298.038361	145.980000
298.131531	146.940000
298.224701	146.820000
298.317871	146.600000
298.411072	146.140000
298.504242	146.380000
298.597412	145.760000
298.690582	145.980000
298.783752	146.080000
298.876923	146.820000
298.970093	146.900000
299.063293	147.180000
299.156464	147.460000
299.249634	147.860000
299.342834	147.920000
299.436005	148.140000
299.529205	147.900000
299.622345	147.880000
299.715576	147.360000
299.808716	147.040000
299.901917	147.100000
299.995117	147.300000
300.088287	147.280000
300.181488	147.200000
300.274658	146.880000
300.367828	146.780000
300.461029	146.960000
300.554199	146.880000
300.647400	147.000000
300.740601	147.660000
300.833771	147.400000
300.926971	147.380000
301.020142	146.840000
301.113342	146.880000
301.206512	146.580000
301.299713	146.980000
301.392914	147.060000
301.486084	147.260000
301.579285	147.100000
301.672516	147.500000
301.765686	147.120000
301.858887	146.740000
301.952057	146.880000
302.045288	146.840000
302.138458	146.300000
302.231659	146.080000
302.324860	145.720000
302.418060	145.560000
302.511261	145.660000
302.604462	145.980000
302.697662	146.040000
302.790863	146.180000
302.884064	145.840000
302.977264	145.960000
303.070465	146.080000
303.163666	147.020000
303.256866	147.400000
303.350067	147.620000
303.443268	147.800000
303.536469	148.040000
303.629669	147.440000
303.722870	147.200000
303.816071	146.980000
303.909271	146.780000
304.002472	145.720000
304.095673	145.340000
304.188934	144.920000
304.282104	145.900000
304.375336	145.900000
304.468506	145.940000
304.561768	145.960000
304.654968	146.840000
304.748169	146.440000
304.841370	146.460000
304.934601	147.160000
305.027802	146.840000
305.121002	146.200000
305.214233	146.160000
305.307434	146.220000
305.400665	146.640000
305.493866	147.040000
