Model Number: SPM-002-B   
Serial Number: 70087108
Firmware Version: 004.15.4
Exposure Time: 100000.000000us
Data Taken on: 11-12-2020 18:45:27.852
Wavelength	Amplitude
221.570786	0.000000
221.663406	0.000000
221.756027	0.000000
221.848648	0.000000
221.941269	0.000000
222.033905	0.000000
222.126526	0.000000
222.219162	0.000000
222.311798	0.000000
222.404419	0.000000
222.497055	0.000000
222.589676	0.000000
222.682312	0.000000
222.774933	0.000000
222.867569	0.000000
222.960205	0.000000
223.052841	0.000000
223.145462	0.000000
223.238098	0.000000
223.330734	0.000000
223.423386	0.000000
223.516022	0.000000
223.608658	0.000000
223.701309	0.000000
223.793945	0.000000
223.886581	0.000000
223.979218	0.000000
224.071869	0.000000
224.164505	0.000000
224.257156	0.000000
224.349792	0.000000
224.442444	0.000000
224.535095	0.000000
224.627747	0.000000
224.720398	0.000000
224.813034	0.000000
224.905685	0.000000
224.998337	145.300000
225.090988	145.080000
225.183640	145.120000
225.276291	145.200000
225.368942	145.400000
225.461594	146.100000
225.554245	146.600000
225.646912	146.380000
225.739578	147.000000
225.832230	147.380000
225.924896	146.580000
226.017548	146.840000
226.110199	147.340000
226.202866	146.300000
226.295532	146.260000
226.388184	146.000000
226.480850	145.300000
226.573517	145.020000
226.666168	145.560000
226.758835	145.620000
226.851501	146.420000
226.944183	146.820000
227.036850	146.420000
227.129517	146.340000
227.222183	146.380000
227.314850	146.060000
227.407516	146.400000
227.500198	147.260000
227.592865	146.760000
227.685532	146.380000
227.778214	146.380000
227.870880	146.400000
227.963562	146.700000
228.056229	147.240000
228.148926	147.020000
228.241592	147.740000
228.334274	147.380000
228.426956	146.580000
228.519638	146.560000
228.612305	146.400000
228.704987	145.780000
228.797668	145.860000
228.890350	145.900000
228.983032	145.300000
229.075714	146.220000
229.168396	145.800000
229.261108	145.220000
229.353790	145.440000
229.446472	145.860000
229.539169	145.120000
229.631851	145.340000
229.724533	145.860000
229.817230	145.840000
229.909912	147.020000
230.002609	147.280000
230.095306	147.180000
230.187988	146.940000
230.280685	146.680000
230.373383	145.160000
230.466095	144.940000
230.558792	145.380000
230.651474	145.420000
230.744171	145.620000
230.836868	145.560000
230.929581	146.060000
231.022278	146.120000
231.114975	146.240000
231.207672	145.860000
231.300369	146.280000
231.393082	146.320000
231.485779	145.680000
231.578506	145.520000
231.671204	146.120000
231.763916	146.120000
231.856613	146.160000
231.949326	146.540000
232.042023	146.260000
232.134735	145.840000
232.227448	145.600000
232.320160	145.480000
232.412872	145.500000
232.505585	146.620000
232.598297	146.780000
232.691010	146.680000
232.783722	146.400000
232.876450	146.880000
232.969162	146.200000
233.061874	145.860000
233.154587	145.660000
233.247314	145.800000
233.340027	145.060000
233.432739	144.960000
233.525467	145.020000
233.618179	145.740000
233.710907	145.320000
233.803635	146.040000
233.896347	146.200000
233.989090	146.700000
234.081818	146.100000
234.174545	146.680000
234.267258	145.760000
234.359985	145.900000
234.452713	145.580000
234.545441	145.760000
234.638168	145.400000
234.730896	146.140000
234.823639	146.000000
234.916367	146.760000
235.009094	146.920000
235.101822	147.160000
235.194580	147.180000
235.287308	147.280000
235.380051	146.500000
235.472778	146.320000
235.565521	146.400000
235.658249	145.720000
235.750992	145.740000
235.843719	145.500000
235.936462	146.160000
236.029205	145.940000
236.121948	145.800000
236.214691	145.920000
236.307449	146.640000
236.400192	145.940000
236.492935	145.660000
236.585678	146.280000
236.678421	146.360000
236.771164	145.920000
236.863907	146.760000
236.956665	147.280000
237.049408	148.400000
237.142151	147.740000
237.234909	148.500000
237.327652	148.240000
237.420410	147.880000
237.513153	146.920000
237.605927	146.940000
237.698669	146.380000
237.791428	145.720000
237.884186	146.260000
237.976944	145.660000
238.069702	146.240000
238.162445	145.860000
238.255203	146.040000
238.347961	146.220000
238.440720	146.320000
238.533478	146.200000
238.626266	146.440000
238.719025	146.740000
238.811783	146.640000
238.904541	146.760000
238.997314	146.400000
239.090073	145.840000
239.182831	146.120000
239.275604	146.420000
239.368362	146.240000
239.461136	146.400000
239.553909	146.460000
239.646667	146.260000
239.739441	145.840000
239.832214	146.220000
239.925003	146.300000
240.017761	147.220000
240.110535	147.480000
240.203308	146.920000
240.296082	147.000000
240.388855	147.040000
240.481628	146.980000
240.574417	147.140000
240.667191	147.500000
240.759964	147.100000
240.852737	147.160000
240.945526	146.760000
241.038315	146.180000
241.131088	146.320000
241.223877	146.640000
241.316650	145.980000
241.409439	146.060000
241.502228	145.860000
241.595001	146.180000
241.687790	145.980000
241.780579	146.180000
241.873367	146.500000
241.966141	146.860000
242.058929	146.040000
242.151718	146.400000
242.244507	146.880000
242.337311	146.000000
242.430099	146.400000
242.522903	146.840000
242.615692	146.120000
242.708481	146.240000
242.801270	146.940000
242.894073	146.560000
242.986862	146.540000
243.079651	147.320000
243.172455	146.840000
243.265244	147.020000
243.358063	146.520000
243.450867	146.800000
243.543655	146.580000
243.636459	146.840000
243.729263	146.800000
243.822067	147.380000
243.914856	147.520000
244.007660	147.680000
244.100464	147.740000
244.193268	147.460000
244.286072	147.140000
244.378876	146.680000
244.471680	146.160000
244.564499	146.280000
244.657318	146.860000
244.750122	147.460000
244.842926	147.000000
244.935745	147.600000
245.028549	147.320000
245.121368	146.800000
245.214172	146.380000
245.306992	146.820000
245.399796	146.240000
245.492615	146.120000
245.585434	146.100000
245.678253	145.920000
245.771072	145.680000
245.863892	146.260000
245.956711	146.520000
246.049530	146.240000
246.142349	146.400000
246.235168	146.600000
246.327988	147.040000
246.420807	146.900000
246.513626	147.140000
246.606445	146.740000
246.699280	146.880000
246.792099	146.240000
246.884918	145.720000
246.977753	145.420000
247.070587	145.440000
247.163422	145.340000
247.256241	145.500000
247.349075	145.940000
247.441895	145.880000
247.534729	145.880000
247.627563	145.660000
247.720383	146.100000
247.813217	146.160000
247.906052	146.320000
247.998886	146.620000
248.091736	146.660000
248.184570	145.820000
248.277405	145.920000
248.370239	146.800000
248.463074	147.600000
248.555908	147.980000
248.648743	148.080000
248.741592	147.980000
248.834427	147.360000
248.927261	146.520000
249.020111	146.580000
249.112946	147.200000
249.205795	146.920000
249.298630	146.980000
249.391495	147.240000
249.484344	147.020000
249.577179	146.740000
249.670029	147.080000
249.762878	147.580000
249.855728	147.460000
249.948563	147.680000
250.041412	147.320000
250.134262	147.760000
250.227112	147.580000
250.319962	147.540000
250.412827	147.300000
250.505692	147.080000
250.598541	146.740000
250.691391	146.280000
250.784241	146.160000
250.877106	146.200000
250.969955	146.060000
251.062805	146.360000
251.155670	146.940000
251.248520	146.680000
251.341385	147.120000
251.434235	147.440000
251.527100	146.920000
251.619965	146.300000
251.712814	147.100000
251.805695	146.620000
251.898560	146.780000
251.991425	147.160000
252.084290	147.600000
252.177155	146.760000
252.270020	146.320000
252.362885	146.060000
252.455750	145.800000
252.548615	145.580000
252.641479	145.880000
252.734360	146.000000
252.827240	146.220000
252.920105	146.360000
253.012970	146.160000
253.105850	146.140000
253.198715	146.020000
253.291595	145.900000
253.384460	145.700000
253.477341	145.700000
253.570221	145.800000
253.663086	146.080000
253.755966	146.640000
253.848846	146.900000
253.941727	147.100000
254.034592	147.080000
254.127472	146.540000
254.220367	146.220000
254.313248	145.960000
254.406128	145.420000
254.499008	145.760000
254.591904	146.820000
254.684784	147.080000
254.777664	147.100000
254.870544	147.020000
254.963440	146.680000
255.056335	146.620000
255.149216	146.200000
255.242111	146.560000
255.334991	147.100000
255.427887	147.400000
255.520767	147.200000
255.613663	147.240000
255.706558	146.680000
255.799438	146.460000
255.892334	145.760000
255.985229	145.460000
256.078125	145.700000
256.171021	146.020000
256.263916	146.280000
256.356812	146.660000
256.449707	146.980000
256.542603	146.580000
256.635498	146.780000
256.728394	146.560000
256.821289	146.460000
256.914215	146.200000
257.007080	146.580000
257.100006	146.360000
257.192932	146.880000
257.285828	147.040000
257.378723	147.180000
257.471619	146.960000
257.564545	147.000000
257.657440	146.960000
257.750336	147.440000
257.843262	147.080000
257.936157	148.240000
258.029053	148.520000
258.121979	148.400000
258.214874	147.700000
258.307800	147.860000
258.400696	146.480000
258.493622	146.280000
258.586517	145.560000
258.679443	146.020000
258.772339	145.420000
258.865265	145.440000
258.958160	144.880000
259.051086	145.660000
259.144012	145.240000
259.236938	146.340000
259.329834	146.460000
259.422791	146.820000
259.515717	146.180000
259.608612	146.180000
259.701538	146.180000
259.794464	146.100000
259.887390	145.900000
259.980316	145.960000
260.073212	145.820000
260.166138	144.800000
260.259064	145.460000
260.351990	146.060000
260.444916	145.960000
260.537842	146.620000
260.630768	147.400000
260.723694	146.940000
260.816620	146.780000
260.909546	147.260000
261.002472	146.680000
261.095398	145.980000
261.188354	145.720000
261.281281	145.220000
261.374207	144.840000
261.467133	145.500000
261.560089	146.020000
261.653015	146.080000
261.745972	146.900000
261.838867	147.660000
261.931824	147.160000
262.024780	146.400000
262.117706	146.560000
262.210663	146.440000
262.303589	145.860000
262.396515	146.320000
262.489471	147.660000
262.582397	147.420000
262.675354	146.840000
262.768280	146.780000
262.861237	146.680000
262.954163	146.140000
263.047119	146.420000
263.140045	146.240000
263.233002	146.180000
263.325958	146.120000
263.418884	145.720000
263.511841	145.780000
263.604797	146.120000
263.697723	146.300000
263.790680	146.120000
263.883636	146.820000
263.976593	146.220000
264.069550	146.200000
264.162476	145.820000
264.255463	145.900000
264.348419	145.180000
264.441376	146.120000
264.534332	145.760000
264.627289	146.100000
264.720245	146.460000
264.813202	146.560000
264.906158	146.300000
264.999115	147.020000
265.092072	147.000000
265.185028	147.160000
265.277985	147.100000
265.370941	146.880000
265.463898	146.220000
265.556854	145.820000
265.649811	145.040000
265.742798	145.260000
265.835754	145.440000
265.928711	146.260000
266.021667	146.440000
266.114655	146.540000
266.207611	146.800000
266.300568	146.220000
266.393585	145.580000
266.486511	145.980000
266.579498	145.380000
266.672485	145.260000
266.765442	145.140000
266.858429	145.620000
266.951385	145.060000
267.044342	145.360000
267.137329	145.160000
267.230316	145.860000
267.323273	145.160000
267.416260	146.080000
267.509216	146.240000
267.602203	146.440000
267.695160	146.580000
267.788147	146.840000
267.881134	146.040000
267.974091	146.020000
268.067078	145.680000
268.160065	145.620000
268.253052	145.460000
268.346008	145.920000
268.438995	146.040000
268.531982	146.300000
268.624969	145.900000
268.717987	146.440000
268.810944	146.040000
268.903961	145.960000
268.996948	145.900000
269.089905	146.320000
269.182892	146.220000
269.275879	146.580000
269.368866	146.080000
269.461853	146.200000
269.554871	146.040000
269.647858	145.940000
269.740845	146.140000
269.833832	146.800000
269.926819	146.400000
270.019806	146.520000
270.112793	146.220000
270.205811	146.260000
270.298798	146.040000
270.391785	146.880000
270.484772	146.200000
270.577789	146.360000
270.670776	146.120000
270.763763	146.240000
270.856750	146.160000
270.949768	146.340000
271.042786	146.360000
271.135773	146.240000
271.228790	146.200000
271.321808	145.620000
271.414795	145.440000
271.507782	145.020000
271.600800	144.800000
271.693817	145.020000
271.786804	145.320000
271.879822	145.580000
271.972809	145.840000
272.065826	146.340000
272.158844	145.960000
272.251831	146.260000
272.344849	146.500000
272.437866	146.340000
272.530853	146.220000
272.623871	146.340000
272.716888	145.620000
272.809906	145.960000
272.902893	146.100000
272.995911	145.400000
273.088928	145.460000
273.181946	145.460000
273.274963	144.720000
273.367981	144.800000
273.460999	145.360000
273.554047	145.640000
273.647003	146.300000
273.740051	146.540000
273.833069	146.620000
273.926086	146.880000
274.019135	146.560000
274.112152	146.020000
274.205170	146.260000
274.298187	146.260000
274.391205	145.380000
274.484222	145.400000
274.577240	145.640000
274.670258	145.200000
274.763306	145.360000
274.856323	146.460000
274.949341	146.620000
275.042358	146.940000
275.135406	146.960000
275.228424	146.840000
275.321442	146.420000
275.414490	145.960000
275.507507	146.100000
275.600525	146.780000
275.693573	146.520000
275.786591	146.120000
275.879669	146.560000
275.972656	146.020000
276.065735	145.520000
276.158752	146.260000
276.251801	147.180000
276.344818	147.020000
276.437866	147.160000
276.530884	147.100000
276.623932	146.040000
276.716980	146.160000
276.809998	146.180000
276.903046	146.160000
276.996094	147.020000
277.089111	147.840000
277.182159	147.800000
277.275208	147.820000
277.368256	147.840000
277.461304	147.380000
277.554321	146.680000
277.647369	146.300000
277.740417	146.380000
277.833466	146.180000
277.926514	145.840000
278.019562	146.500000
278.112610	146.000000
278.205688	146.020000
278.298706	146.260000
278.391785	146.060000
278.484833	145.620000
278.577881	145.700000
278.670929	145.880000
278.763977	146.200000
278.857025	146.620000
278.950073	146.500000
279.043121	146.260000
279.136169	145.660000
279.229248	144.880000
279.322296	145.060000
279.415344	145.040000
279.508392	145.080000
279.601440	145.360000
279.694519	145.520000
279.787567	144.860000
279.880615	145.000000
279.973694	144.860000
280.066742	144.960000
280.159790	145.240000
280.252869	145.160000
280.345917	145.360000
280.438995	145.480000
280.532074	145.400000
280.625122	145.540000
280.718201	146.360000
280.811279	146.280000
280.904327	146.480000
280.997406	146.800000
281.090454	146.560000
281.183533	145.860000
281.276581	145.820000
281.369659	145.620000
281.462738	145.500000
281.555786	145.720000
281.648865	145.940000
281.741943	145.740000
281.835022	146.440000
281.928070	146.240000
282.021149	145.900000
282.114227	145.960000
282.207306	146.100000
282.300385	145.900000
282.393433	146.100000
282.486511	146.300000
282.579590	146.780000
282.672668	146.840000
282.765747	146.320000
282.858856	146.220000
282.951904	146.300000
283.045013	145.980000
283.138062	146.520000
283.231171	147.060000
283.324249	147.080000
283.417328	147.140000
283.510406	146.760000
283.603485	146.120000
283.696564	145.900000
283.789642	145.760000
283.882751	145.300000
283.975830	145.980000
284.068909	145.840000
284.161987	146.360000
284.255066	146.080000
284.348175	146.420000
284.441254	146.140000
284.534332	146.800000
284.627441	146.560000
284.720520	146.460000
284.813599	146.660000
284.906708	146.920000
284.999786	145.940000
285.092896	145.160000
285.185974	146.460000
285.279053	145.860000
285.372192	145.440000
285.465240	146.460000
285.558380	146.800000
285.651459	145.920000
285.744568	146.740000
285.837677	146.640000
285.930756	146.480000
286.023865	146.380000
286.116943	146.140000
286.210052	146.140000
286.303162	146.300000
286.396240	146.060000
286.489349	146.080000
286.582458	146.760000
286.675568	146.280000
286.768646	146.360000
286.861755	146.540000
286.954865	147.300000
287.047974	146.420000
287.141083	146.320000
287.234161	146.040000
287.327271	146.140000
287.420380	146.140000
287.513519	146.080000
287.606598	146.100000
287.699738	146.400000
287.792816	145.980000
287.885956	145.780000
287.979034	146.120000
288.072174	146.140000
288.165283	145.800000
288.258392	146.080000
288.351501	145.400000
288.444611	145.820000
288.537720	146.040000
288.630859	145.900000
288.723969	145.980000
288.817078	146.440000
288.910187	146.340000
289.003296	145.980000
289.096436	145.900000
289.189545	145.580000
289.282654	145.280000
289.375763	145.600000
289.468903	146.060000
289.562012	146.460000
289.655121	146.720000
289.748260	146.940000
289.841400	147.020000
289.934509	146.940000
290.027649	146.820000
290.120728	146.420000
290.213898	146.420000
290.306976	145.860000
290.400146	145.940000
290.493256	146.100000
290.586395	146.320000
290.679535	146.800000
290.772644	146.740000
290.865784	145.800000
290.958893	145.460000
291.052032	145.460000
291.145172	144.960000
291.238281	144.920000
291.331421	145.480000
291.424561	145.940000
291.517670	145.720000
291.610809	146.000000
291.703949	145.620000
291.797089	145.880000
291.890228	145.340000
291.983337	145.240000
292.076477	144.920000
292.169617	145.380000
292.262756	145.500000
292.355927	145.740000
292.449036	145.780000
292.542206	146.420000
292.635315	146.660000
292.728485	146.620000
292.821625	146.200000
292.914764	147.500000
293.007904	147.080000
293.101044	147.120000
293.194183	146.880000
293.287323	147.480000
293.380463	146.620000
293.473602	146.600000
293.566742	146.780000
293.659882	147.320000
293.753021	147.340000
293.846191	147.180000
293.939331	146.640000
294.032471	146.180000
294.125610	145.540000
294.218781	145.820000
294.311920	146.220000
294.405060	146.840000
294.498230	146.860000
294.591370	147.100000
294.684540	146.560000
294.777679	146.240000
294.870850	146.020000
294.963959	145.840000
295.057159	145.420000
295.150299	145.720000
295.243469	145.580000
295.336609	145.060000
295.429779	145.340000
295.522919	146.040000
295.616089	145.980000
295.709229	146.640000
295.802399	147.140000
295.895569	146.780000
295.988708	146.480000
296.081879	146.500000
296.175018	145.820000
296.268188	145.760000
296.361359	146.540000
296.454529	146.420000
296.547668	146.140000
296.640839	146.560000
296.734009	146.520000
296.827179	146.280000
296.920319	146.540000
297.013519	146.520000
297.106659	146.060000
297.199860	145.780000
297.292999	145.640000
297.386200	145.400000
297.479309	145.280000
297.572510	145.340000
297.665680	145.340000
297.758850	145.500000
297.852020	145.420000
297.945190	145.500000
298.038361	145.320000
298.131531	146.180000
298.224701	145.900000
298.317871	145.800000
298.411072	145.320000
298.504242	145.440000
298.597412	145.100000
298.690582	145.300000
298.783752	145.320000
298.876923	146.080000
298.970093	145.960000
299.063293	145.880000
299.156464	146.160000
299.249634	146.260000
299.342834	146.220000
299.436005	146.760000
299.529205	146.740000
299.622345	146.720000
299.715576	146.520000
299.808716	146.460000
299.901917	146.140000
299.995117	146.180000
300.088287	146.100000
300.181488	146.080000
300.274658	145.840000
300.367828	145.840000
300.461029	145.960000
300.554199	146.180000
300.647400	146.300000
300.740601	147.000000
300.833771	147.220000
300.926971	147.340000
301.020142	146.560000
301.113342	146.500000
301.206512	146.140000
301.299713	146.060000
301.392914	145.800000
301.486084	146.140000
301.579285	146.180000
301.672516	146.580000
301.765686	146.520000
301.858887	146.460000
301.952057	146.360000
302.045288	146.460000
302.138458	146.200000
302.231659	145.800000
302.324860	145.900000
302.418060	145.680000
302.511261	145.420000
302.604462	145.380000
302.697662	145.620000
302.790863	145.620000
302.884064	145.660000
302.977264	145.660000
303.070465	145.740000
303.163666	146.240000
303.256866	146.360000
303.350067	146.420000
303.443268	146.560000
303.536469	146.960000
303.629669	146.460000
303.722870	146.600000
303.816071	146.540000
303.909271	146.680000
304.002472	145.840000
304.095673	145.920000
304.188934	145.280000
304.282104	146.020000
304.375336	146.160000
304.468506	146.140000
304.561768	146.060000
304.654968	146.680000
304.748169	146.060000
304.841370	145.860000
304.934601	146.300000
305.027802	146.180000
305.121002	145.700000
305.214233	145.840000
305.307434	145.920000
305.400665	146.180000
305.493866	146.160000
