Model Number: SPM-002-B   
Serial Number: 70087108
Firmware Version: 004.15.4
Exposure Time: 100000.000000us
Data Taken on: 11-12-2020 18:45:33.943
Wavelength	Amplitude
221.570786	0.000000
221.663406	0.000000
221.756027	0.000000
221.848648	0.000000
221.941269	0.000000
222.033905	0.000000
222.126526	0.000000
222.219162	0.000000
222.311798	0.000000
222.404419	0.000000
222.497055	0.000000
222.589676	0.000000
222.682312	0.000000
222.774933	0.000000
222.867569	0.000000
222.960205	0.000000
223.052841	0.000000
223.145462	0.000000
223.238098	0.000000
223.330734	0.000000
223.423386	0.000000
223.516022	0.000000
223.608658	0.000000
223.701309	0.000000
223.793945	0.000000
223.886581	0.000000
223.979218	0.000000
224.071869	0.000000
224.164505	0.000000
224.257156	0.000000
224.349792	0.000000
224.442444	0.000000
224.535095	0.000000
224.627747	0.000000
224.720398	0.000000
224.813034	0.000000
224.905685	0.000000
224.998337	145.400000
225.090988	144.940000
225.183640	144.800000
225.276291	144.380000
225.368942	144.580000
225.461594	145.020000
225.554245	145.400000
225.646912	145.320000
225.739578	146.380000
225.832230	146.740000
225.924896	145.860000
226.017548	146.240000
226.110199	146.900000
226.202866	145.940000
226.295532	145.840000
226.388184	145.600000
226.480850	145.060000
226.573517	144.440000
226.666168	144.700000
226.758835	144.900000
226.851501	145.840000
226.944183	146.040000
227.036850	145.960000
227.129517	146.060000
227.222183	145.860000
227.314850	145.520000
227.407516	146.020000
227.500198	146.540000
227.592865	146.120000
227.685532	145.960000
227.778214	145.580000
227.870880	145.480000
227.963562	145.600000
228.056229	146.020000
228.148926	145.900000
228.241592	146.960000
228.334274	146.760000
228.426956	146.560000
228.519638	146.780000
228.612305	146.660000
228.704987	145.920000
228.797668	145.940000
228.890350	145.700000
228.983032	144.820000
229.075714	145.440000
229.168396	145.320000
229.261108	144.660000
229.353790	144.760000
229.446472	145.160000
229.539169	144.680000
229.631851	144.560000
229.724533	145.120000
229.817230	145.080000
229.909912	146.200000
230.002609	146.440000
230.095306	146.360000
230.187988	146.380000
230.280685	146.480000
230.373383	144.980000
230.466095	144.840000
230.558792	145.400000
230.651474	145.280000
230.744171	145.040000
230.836868	145.160000
230.929581	145.380000
231.022278	145.360000
231.114975	145.600000
231.207672	145.500000
231.300369	146.160000
231.393082	146.020000
231.485779	145.740000
231.578506	145.460000
231.671204	145.640000
231.763916	145.720000
231.856613	145.720000
231.949326	145.740000
232.042023	145.780000
232.134735	145.780000
232.227448	145.200000
232.320160	145.080000
232.412872	145.360000
232.505585	145.880000
232.598297	146.360000
232.691010	146.560000
232.783722	146.480000
232.876450	146.900000
232.969162	146.440000
233.061874	145.620000
233.154587	145.200000
233.247314	145.400000
233.340027	144.820000
233.432739	145.400000
233.525467	145.600000
233.618179	146.180000
233.710907	145.840000
233.803635	146.420000
233.896347	146.040000
233.989090	146.680000
234.081818	146.460000
234.174545	147.120000
234.267258	146.360000
234.359985	146.240000
234.452713	145.980000
234.545441	145.900000
234.638168	145.400000
234.730896	146.040000
234.823639	146.100000
234.916367	146.360000
235.009094	146.500000
235.101822	146.400000
235.194580	146.240000
235.287308	146.060000
235.380051	145.500000
235.472778	145.720000
235.565521	145.980000
235.658249	145.280000
235.750992	145.440000
235.843719	145.420000
235.936462	145.520000
236.029205	145.380000
236.121948	145.580000
236.214691	145.720000
236.307449	146.280000
236.400192	145.800000
236.492935	145.680000
236.585678	146.060000
236.678421	146.040000
236.771164	145.940000
236.863907	146.940000
236.956665	147.400000
237.049408	148.720000
237.142151	148.220000
237.234909	148.560000
237.327652	147.860000
237.420410	147.440000
237.513153	146.320000
237.605927	146.440000
237.698669	146.120000
237.791428	145.460000
237.884186	145.700000
237.976944	145.160000
238.069702	145.500000
238.162445	144.960000
238.255203	145.480000
238.347961	145.680000
238.440720	145.820000
238.533478	145.580000
238.626266	145.560000
238.719025	145.680000
238.811783	145.520000
238.904541	145.380000
238.997314	145.420000
239.090073	145.160000
239.182831	145.420000
239.275604	146.040000
239.368362	146.060000
239.461136	146.160000
239.553909	146.300000
239.646667	145.840000
239.739441	145.320000
239.832214	145.700000
239.925003	145.700000
240.017761	146.340000
240.110535	146.840000
240.203308	146.220000
240.296082	146.080000
240.388855	146.160000
240.481628	146.160000
240.574417	146.220000
240.667191	146.800000
240.759964	146.540000
240.852737	146.500000
240.945526	146.140000
241.038315	146.080000
241.131088	145.980000
241.223877	146.580000
241.316650	146.100000
241.409439	146.320000
241.502228	145.700000
241.595001	146.240000
241.687790	145.780000
241.780579	145.840000
241.873367	145.780000
241.966141	146.540000
242.058929	145.840000
242.151718	146.020000
242.244507	146.620000
242.337311	146.120000
242.430099	146.200000
242.522903	146.380000
242.615692	145.820000
242.708481	145.660000
242.801270	145.960000
242.894073	145.540000
242.986862	145.840000
243.079651	146.720000
243.172455	146.320000
243.265244	146.820000
243.358063	146.360000
243.450867	146.420000
243.543655	146.300000
243.636459	146.440000
243.729263	146.560000
243.822067	147.060000
243.914856	147.180000
244.007660	147.200000
244.100464	147.300000
244.193268	146.640000
244.286072	146.440000
244.378876	145.780000
244.471680	145.260000
244.564499	145.700000
244.657318	146.600000
244.750122	146.540000
244.842926	146.340000
244.935745	146.700000
245.028549	146.160000
245.121368	145.440000
245.214172	145.460000
245.306992	145.820000
245.399796	145.500000
245.492615	145.560000
245.585434	145.460000
245.678253	145.500000
245.771072	145.440000
245.863892	145.860000
245.956711	146.180000
246.049530	146.220000
246.142349	146.140000
246.235168	146.000000
246.327988	146.600000
246.420807	146.140000
246.513626	146.220000
246.606445	146.220000
246.699280	146.260000
246.792099	145.520000
246.884918	145.340000
246.977753	144.800000
247.070587	145.060000
247.163422	145.340000
247.256241	145.340000
247.349075	146.100000
247.441895	146.460000
247.534729	146.260000
247.627563	145.940000
247.720383	146.660000
247.813217	145.900000
247.906052	145.720000
247.998886	145.820000
248.091736	146.020000
248.184570	145.120000
248.277405	145.600000
248.370239	146.680000
248.463074	147.620000
248.555908	147.540000
248.648743	147.820000
248.741592	147.920000
248.834427	147.180000
248.927261	145.660000
249.020111	146.400000
249.112946	146.900000
249.205795	146.440000
249.298630	146.160000
249.391495	146.760000
249.484344	145.820000
249.577179	145.300000
249.670029	145.640000
249.762878	146.520000
249.855728	146.460000
249.948563	146.880000
250.041412	146.520000
250.134262	146.700000
250.227112	146.300000
250.319962	146.380000
250.412827	146.240000
250.505692	146.080000
250.598541	146.000000
250.691391	145.600000
250.784241	145.620000
250.877106	145.620000
250.969955	145.680000
251.062805	146.020000
251.155670	146.640000
251.248520	146.360000
251.341385	146.560000
251.434235	146.480000
251.527100	146.160000
251.619965	145.720000
251.712814	146.520000
251.805695	146.420000
251.898560	146.800000
251.991425	146.780000
252.084290	146.580000
252.177155	145.980000
252.270020	145.820000
252.362885	145.680000
252.455750	145.480000
252.548615	145.500000
252.641479	145.280000
252.734360	145.340000
252.827240	145.280000
252.920105	145.600000
253.012970	145.560000
253.105850	145.380000
253.198715	145.300000
253.291595	145.440000
253.384460	144.800000
253.477341	144.900000
253.570221	145.320000
253.663086	144.940000
253.755966	145.240000
253.848846	145.560000
253.941727	145.700000
254.034592	145.700000
254.127472	145.680000
254.220367	145.640000
254.313248	145.740000
254.406128	145.380000
254.499008	145.360000
254.591904	146.280000
254.684784	146.560000
254.777664	146.640000
254.870544	146.740000
254.963440	146.800000
255.056335	146.560000
255.149216	146.100000
255.242111	146.680000
255.334991	146.880000
255.427887	146.980000
255.520767	147.040000
255.613663	147.240000
255.706558	146.360000
255.799438	146.240000
255.892334	145.820000
255.985229	145.580000
256.078125	145.440000
256.171021	145.780000
256.263916	146.340000
256.356812	146.740000
256.449707	146.980000
256.542603	146.620000
256.635498	147.040000
256.728394	146.620000
256.821289	146.360000
256.914215	146.380000
257.007080	146.720000
257.100006	146.480000
257.192932	146.860000
257.285828	147.240000
257.378723	147.220000
257.471619	147.080000
257.564545	146.420000
257.657440	146.180000
257.750336	146.360000
257.843262	145.680000
257.936157	146.760000
258.029053	147.420000
258.121979	147.180000
258.214874	146.380000
258.307800	146.360000
258.400696	144.960000
258.493622	144.660000
258.586517	144.260000
258.679443	145.060000
258.772339	145.160000
258.865265	145.220000
258.958160	144.780000
259.051086	145.800000
259.144012	145.400000
259.236938	145.940000
259.329834	146.440000
259.422791	146.600000
259.515717	146.080000
259.608612	146.060000
259.701538	146.060000
259.794464	145.720000
259.887390	145.960000
259.980316	145.900000
260.073212	145.600000
260.166138	144.560000
260.259064	144.960000
260.351990	145.160000
260.444916	145.100000
260.537842	145.720000
260.630768	146.760000
260.723694	146.500000
260.816620	146.540000
260.909546	146.420000
261.002472	145.540000
261.095398	145.080000
261.188354	145.160000
261.281281	144.420000
261.374207	144.660000
261.467133	145.620000
261.560089	145.980000
261.653015	145.500000
261.745972	146.240000
261.838867	146.520000
261.931824	146.660000
262.024780	145.860000
262.117706	146.520000
262.210663	146.220000
262.303589	145.940000
262.396515	145.520000
262.489471	146.780000
262.582397	146.420000
262.675354	146.300000
262.768280	146.560000
262.861237	146.760000
262.954163	146.440000
263.047119	146.480000
263.140045	146.340000
263.233002	146.120000
263.325958	145.900000
263.418884	145.260000
263.511841	145.540000
263.604797	145.640000
263.697723	145.520000
263.790680	145.400000
263.883636	146.260000
263.976593	145.660000
264.069550	145.880000
264.162476	145.840000
264.255463	145.780000
264.348419	145.220000
264.441376	145.960000
264.534332	145.440000
264.627289	145.440000
264.720245	146.080000
264.813202	145.620000
264.906158	145.620000
264.999115	146.520000
265.092072	146.660000
265.185028	146.940000
265.277985	147.620000
265.370941	147.260000
265.463898	146.680000
265.556854	146.160000
265.649811	145.260000
265.742798	144.900000
265.835754	145.200000
265.928711	145.680000
266.021667	145.900000
266.114655	146.300000
266.207611	146.820000
266.300568	146.180000
266.393585	145.840000
266.486511	146.440000
266.579498	145.780000
266.672485	145.500000
266.765442	145.560000
266.858429	145.860000
266.951385	145.460000
267.044342	145.440000
267.137329	145.420000
267.230316	145.980000
267.323273	145.300000
267.416260	145.920000
267.509216	146.320000
267.602203	146.080000
267.695160	146.200000
267.788147	146.420000
267.881134	145.520000
267.974091	145.260000
268.067078	145.280000
268.160065	144.920000
268.253052	145.060000
268.346008	145.500000
268.438995	145.600000
268.531982	146.080000
268.624969	146.100000
268.717987	146.320000
268.810944	146.180000
268.903961	146.280000
268.996948	145.720000
269.089905	146.220000
269.182892	146.320000
269.275879	146.620000
269.368866	146.240000
269.461853	146.600000
269.554871	146.320000
269.647858	146.040000
269.740845	146.280000
269.833832	146.560000
269.926819	146.300000
270.019806	146.200000
270.112793	145.840000
270.205811	145.740000
270.298798	145.460000
270.391785	145.880000
270.484772	145.600000
270.577789	145.960000
270.670776	145.320000
270.763763	145.480000
270.856750	145.600000
270.949768	145.500000
271.042786	145.540000
271.135773	145.780000
271.228790	145.800000
271.321808	145.300000
271.414795	145.260000
271.507782	145.140000
271.600800	144.980000
271.693817	145.220000
271.786804	145.460000
271.879822	145.700000
271.972809	145.940000
272.065826	146.460000
272.158844	146.320000
272.251831	146.800000
272.344849	146.880000
272.437866	146.220000
272.530853	146.000000
272.623871	146.140000
272.716888	144.780000
272.809906	144.900000
272.902893	145.160000
272.995911	144.500000
273.088928	144.260000
273.181946	145.160000
273.274963	144.680000
273.367981	144.980000
273.460999	145.520000
273.554047	146.140000
273.647003	146.680000
273.740051	146.640000
273.833069	146.880000
273.926086	147.120000
274.019135	146.460000
274.112152	146.020000
274.205170	146.300000
274.298187	146.040000
274.391205	145.440000
274.484222	145.720000
274.577240	145.720000
274.670258	145.420000
274.763306	145.420000
274.856323	145.780000
274.949341	145.780000
275.042358	145.820000
275.135406	146.080000
275.228424	146.140000
275.321442	146.420000
275.414490	145.940000
275.507507	146.200000
275.600525	146.500000
275.693573	146.300000
275.786591	145.400000
275.879669	146.060000
275.972656	145.580000
276.065735	145.220000
276.158752	145.880000
276.251801	146.700000
276.344818	146.540000
276.437866	146.720000
276.530884	146.620000
276.623932	145.640000
276.716980	145.780000
276.809998	145.920000
276.903046	145.820000
276.996094	146.960000
277.089111	147.780000
277.182159	148.080000
277.275208	147.420000
277.368256	147.260000
277.461304	146.640000
277.554321	145.960000
277.647369	145.440000
277.740417	145.860000
277.833466	146.060000
277.926514	145.720000
278.019562	146.260000
278.112610	146.280000
278.205688	146.580000
278.298706	146.580000
278.391785	146.620000
278.484833	146.320000
278.577881	145.880000
278.670929	145.820000
278.763977	146.220000
278.857025	146.480000
278.950073	146.640000
279.043121	146.780000
279.136169	146.700000
279.229248	146.020000
279.322296	146.100000
279.415344	145.940000
279.508392	146.080000
279.601440	146.060000
279.694519	146.100000
279.787567	145.700000
279.880615	145.560000
279.973694	145.380000
280.066742	145.200000
280.159790	145.260000
280.252869	145.020000
280.345917	145.320000
280.438995	145.260000
280.532074	145.420000
280.625122	145.900000
280.718201	147.020000
280.811279	146.660000
280.904327	146.880000
280.997406	146.920000
281.090454	146.700000
281.183533	145.900000
281.276581	145.620000
281.369659	145.380000
281.462738	145.100000
281.555786	144.960000
281.648865	145.140000
281.741943	145.600000
281.835022	146.180000
281.928070	146.100000
282.021149	145.840000
282.114227	145.300000
282.207306	145.240000
282.300385	145.420000
282.393433	145.800000
282.486511	146.080000
282.579590	146.940000
282.672668	147.240000
282.765747	146.580000
282.858856	146.320000
282.951904	146.380000
283.045013	146.140000
283.138062	146.160000
283.231171	146.320000
283.324249	146.580000
283.417328	146.780000
283.510406	146.320000
283.603485	146.080000
283.696564	146.300000
283.789642	146.220000
283.882751	145.920000
283.975830	146.740000
284.068909	146.340000
284.161987	146.840000
284.255066	146.300000
284.348175	146.440000
284.441254	146.160000
284.534332	146.760000
284.627441	145.980000
284.720520	146.040000
284.813599	145.960000
284.906708	146.060000
284.999786	145.260000
285.092896	145.140000
285.185974	146.020000
285.279053	145.440000
285.372192	145.380000
285.465240	146.480000
285.558380	146.420000
285.651459	145.920000
285.744568	146.820000
285.837677	146.340000
285.930756	146.080000
286.023865	146.280000
286.116943	145.980000
286.210052	145.980000
286.303162	146.020000
286.396240	145.680000
286.489349	145.220000
286.582458	145.600000
286.675568	145.240000
286.768646	145.140000
286.861755	145.480000
286.954865	146.140000
287.047974	145.700000
287.141083	145.400000
287.234161	145.320000
287.327271	145.040000
287.420380	145.780000
287.513519	145.960000
287.606598	146.260000
287.699738	146.520000
287.792816	146.400000
287.885956	145.660000
287.979034	145.660000
288.072174	145.760000
288.165283	145.840000
288.258392	146.200000
288.351501	145.740000
288.444611	146.080000
288.537720	145.980000
288.630859	145.780000
288.723969	145.880000
288.817078	146.100000
288.910187	145.980000
289.003296	145.800000
289.096436	145.500000
289.189545	145.100000
289.282654	145.040000
289.375763	145.340000
289.468903	145.940000
289.562012	146.520000
289.655121	146.840000
289.748260	146.940000
289.841400	147.080000
289.934509	146.620000
290.027649	146.660000
290.120728	146.300000
290.213898	146.340000
290.306976	145.840000
290.400146	145.900000
290.493256	145.500000
290.586395	145.740000
290.679535	145.840000
290.772644	145.720000
290.865784	145.160000
290.958893	145.220000
291.052032	144.960000
291.145172	145.140000
291.238281	145.000000
291.331421	145.260000
291.424561	145.700000
291.517670	145.700000
291.610809	145.760000
291.703949	145.840000
291.797089	146.100000
291.890228	145.560000
291.983337	145.380000
292.076477	144.980000
292.169617	145.240000
292.262756	145.080000
292.355927	145.180000
292.449036	145.100000
292.542206	145.280000
292.635315	145.300000
292.728485	145.560000
292.821625	145.240000
292.914764	146.560000
293.007904	146.640000
293.101044	146.760000
293.194183	146.580000
293.287323	147.080000
293.380463	145.980000
293.473602	145.840000
293.566742	145.880000
293.659882	146.640000
293.753021	146.740000
293.846191	146.920000
293.939331	146.580000
294.032471	146.400000
294.125610	145.780000
294.218781	145.780000
294.311920	146.160000
294.405060	146.320000
294.498230	146.320000
294.591370	146.400000
294.684540	145.800000
294.777679	145.440000
294.870850	145.820000
294.963959	145.720000
295.057159	145.600000
295.150299	146.260000
295.243469	146.200000
295.336609	145.660000
295.429779	145.700000
295.522919	145.620000
295.616089	145.460000
295.709229	146.040000
295.802399	146.540000
295.895569	146.360000
295.988708	146.540000
296.081879	146.620000
296.175018	146.040000
296.268188	145.980000
296.361359	146.400000
296.454529	146.420000
296.547668	146.240000
296.640839	146.400000
296.734009	145.900000
296.827179	145.840000
296.920319	146.040000
297.013519	145.800000
297.106659	145.820000
297.199860	146.020000
297.292999	145.540000
297.386200	145.120000
297.479309	145.100000
297.572510	145.220000
297.665680	144.960000
297.758850	145.380000
297.852020	145.380000
297.945190	145.740000
298.038361	145.260000
298.131531	146.400000
298.224701	146.420000
298.317871	146.300000
298.411072	145.820000
298.504242	145.760000
298.597412	144.980000
298.690582	145.100000
298.783752	145.300000
298.876923	145.980000
298.970093	146.320000
299.063293	146.720000
299.156464	146.720000
299.249634	146.840000
299.342834	146.620000
299.436005	146.740000
299.529205	146.600000
299.622345	146.500000
299.715576	145.960000
299.808716	145.640000
299.901917	145.700000
299.995117	145.920000
300.088287	146.180000
300.181488	146.320000
300.274658	146.420000
300.367828	146.420000
300.461029	146.060000
300.554199	146.140000
300.647400	146.300000
300.740601	147.000000
300.833771	146.660000
300.926971	146.980000
301.020142	146.420000
301.113342	146.520000
301.206512	145.760000
301.299713	146.200000
301.392914	145.760000
301.486084	146.240000
301.579285	146.360000
301.672516	147.100000
301.765686	146.820000
301.858887	147.040000
301.952057	146.640000
302.045288	146.400000
302.138458	145.960000
302.231659	145.620000
302.324860	145.420000
302.418060	145.320000
302.511261	145.140000
302.604462	145.340000
302.697662	145.500000
302.790863	145.340000
302.884064	145.200000
302.977264	145.240000
303.070465	145.320000
303.163666	146.100000
303.256866	146.460000
303.350067	146.560000
303.443268	146.860000
303.536469	146.960000
303.629669	146.140000
303.722870	146.080000
303.816071	145.920000
303.909271	145.800000
304.002472	144.980000
304.095673	144.880000
304.188934	144.360000
304.282104	145.420000
304.375336	145.340000
304.468506	145.660000
304.561768	145.700000
304.654968	146.140000
304.748169	145.300000
304.841370	145.100000
304.934601	145.360000
305.027802	145.040000
305.121002	144.940000
305.214233	145.100000
305.307434	145.220000
305.400665	145.680000
305.493866	145.680000
