Model Number: SPM-002-B   
Serial Number: 70087108
Firmware Version: 004.15.4
Exposure Time: 100000.000000us
Data Taken on: 11-12-2020 18:45:42.322
Wavelength	Amplitude
221.570786	0.000000
221.663406	0.000000
221.756027	0.000000
221.848648	0.000000
221.941269	0.000000
222.033905	0.000000
222.126526	0.000000
222.219162	0.000000
222.311798	0.000000
222.404419	0.000000
222.497055	0.000000
222.589676	0.000000
222.682312	0.000000
222.774933	0.000000
222.867569	0.000000
222.960205	0.000000
223.052841	0.000000
223.145462	0.000000
223.238098	0.000000
223.330734	0.000000
223.423386	0.000000
223.516022	0.000000
223.608658	0.000000
223.701309	0.000000
223.793945	0.000000
223.886581	0.000000
223.979218	0.000000
224.071869	0.000000
224.164505	0.000000
224.257156	0.000000
224.349792	0.000000
224.442444	0.000000
224.535095	0.000000
224.627747	0.000000
224.720398	0.000000
224.813034	0.000000
224.905685	0.000000
224.998337	145.000000
225.090988	145.120000
225.183640	145.140000
225.276291	145.280000
225.368942	145.640000
225.461594	146.140000
225.554245	146.540000
225.646912	146.200000
225.739578	146.600000
225.832230	147.180000
225.924896	146.300000
226.017548	146.400000
226.110199	147.280000
226.202866	146.520000
226.295532	145.940000
226.388184	146.380000
226.480850	145.980000
226.573517	145.360000
226.666168	145.820000
226.758835	146.340000
226.851501	146.660000
226.944183	146.620000
227.036850	146.060000
227.129517	146.040000
227.222183	146.020000
227.314850	145.920000
227.407516	146.280000
227.500198	147.400000
227.592865	146.580000
227.685532	146.140000
227.778214	145.940000
227.870880	146.080000
227.963562	146.240000
228.056229	146.960000
228.148926	146.860000
228.241592	147.600000
228.334274	147.020000
228.426956	146.580000
228.519638	146.620000
228.612305	146.440000
228.704987	146.060000
228.797668	146.340000
228.890350	145.920000
228.983032	145.500000
229.075714	146.080000
229.168396	145.800000
229.261108	145.460000
229.353790	145.540000
229.446472	145.580000
229.539169	145.220000
229.631851	144.880000
229.724533	145.020000
229.817230	145.300000
229.909912	146.460000
230.002609	146.580000
230.095306	146.780000
230.187988	146.880000
230.280685	146.760000
230.373383	145.460000
230.466095	145.400000
230.558792	145.640000
230.651474	145.480000
230.744171	145.320000
230.836868	145.600000
230.929581	145.660000
231.022278	145.780000
231.114975	146.040000
231.207672	145.780000
231.300369	146.040000
231.393082	146.080000
231.485779	145.480000
231.578506	145.200000
231.671204	145.820000
231.763916	145.860000
231.856613	145.840000
231.949326	146.520000
232.042023	146.660000
232.134735	146.180000
232.227448	145.660000
232.320160	145.620000
232.412872	145.740000
232.505585	146.420000
232.598297	146.840000
232.691010	146.800000
232.783722	146.580000
232.876450	146.840000
232.969162	146.260000
233.061874	145.680000
233.154587	145.560000
233.247314	145.840000
233.340027	145.120000
233.432739	145.560000
233.525467	145.620000
233.618179	146.160000
233.710907	145.800000
233.803635	146.140000
233.896347	145.720000
233.989090	146.420000
234.081818	146.080000
234.174545	146.360000
234.267258	145.760000
234.359985	145.820000
234.452713	145.660000
234.545441	145.300000
234.638168	145.120000
234.730896	145.660000
234.823639	145.600000
234.916367	145.920000
235.009094	146.320000
235.101822	146.540000
235.194580	146.420000
235.287308	146.240000
235.380051	145.660000
235.472778	145.800000
235.565521	145.840000
235.658249	145.560000
235.750992	145.660000
235.843719	145.740000
235.936462	146.060000
236.029205	145.440000
236.121948	145.340000
236.214691	145.800000
236.307449	146.440000
236.400192	145.580000
236.492935	145.660000
236.585678	146.040000
236.678421	146.080000
236.771164	145.420000
236.863907	146.260000
236.956665	146.640000
237.049408	148.160000
237.142151	147.380000
237.234909	148.280000
237.327652	148.140000
237.420410	147.760000
237.513153	146.420000
237.605927	146.560000
237.698669	145.720000
237.791428	145.220000
237.884186	145.820000
237.976944	145.480000
238.069702	146.060000
238.162445	145.600000
238.255203	145.980000
238.347961	146.020000
238.440720	145.820000
238.533478	145.220000
238.626266	145.120000
238.719025	145.260000
238.811783	145.120000
238.904541	145.100000
238.997314	145.420000
239.090073	145.540000
239.182831	145.640000
239.275604	146.400000
239.368362	146.520000
239.461136	146.360000
239.553909	146.580000
239.646667	145.940000
239.739441	145.380000
239.832214	145.820000
239.925003	145.840000
240.017761	146.440000
240.110535	147.120000
240.203308	146.840000
240.296082	146.720000
240.388855	146.760000
240.481628	146.660000
240.574417	146.820000
240.667191	146.560000
240.759964	146.260000
240.852737	146.480000
240.945526	146.200000
241.038315	145.860000
241.131088	146.240000
241.223877	146.280000
241.316650	145.440000
241.409439	145.560000
241.502228	145.220000
241.595001	145.740000
241.687790	145.920000
241.780579	146.400000
241.873367	146.300000
241.966141	146.460000
242.058929	145.560000
242.151718	145.540000
242.244507	145.800000
242.337311	145.300000
242.430099	145.960000
242.522903	146.500000
242.615692	146.420000
242.708481	146.260000
242.801270	146.920000
242.894073	146.440000
242.986862	146.480000
243.079651	147.040000
243.172455	146.980000
243.265244	146.820000
243.358063	146.180000
243.450867	146.180000
243.543655	145.560000
243.636459	145.900000
243.729263	146.240000
243.822067	146.640000
243.914856	147.120000
244.007660	147.360000
244.100464	147.020000
244.193268	146.540000
244.286072	146.660000
244.378876	145.780000
244.471680	145.260000
244.564499	145.660000
244.657318	146.080000
244.750122	146.300000
244.842926	145.820000
244.935745	146.500000
245.028549	146.300000
245.121368	146.220000
245.214172	146.140000
245.306992	146.760000
245.399796	146.280000
245.492615	145.960000
245.585434	145.780000
245.678253	145.560000
245.771072	145.440000
245.863892	145.940000
245.956711	146.260000
246.049530	146.200000
246.142349	146.120000
246.235168	146.260000
246.327988	146.520000
246.420807	146.540000
246.513626	146.680000
246.606445	146.460000
246.699280	146.080000
246.792099	145.720000
246.884918	145.120000
246.977753	144.580000
247.070587	145.060000
247.163422	145.460000
247.256241	145.320000
247.349075	146.040000
247.441895	146.300000
247.534729	146.260000
247.627563	145.660000
247.720383	146.280000
247.813217	146.000000
247.906052	145.720000
247.998886	145.740000
248.091736	146.140000
248.184570	145.520000
248.277405	145.620000
248.370239	146.440000
248.463074	147.100000
248.555908	147.220000
248.648743	147.240000
248.741592	147.320000
248.834427	146.660000
248.927261	145.700000
249.020111	146.240000
249.112946	146.740000
249.205795	146.020000
249.298630	146.100000
249.391495	146.120000
249.484344	145.540000
249.577179	145.240000
249.670029	145.900000
249.762878	146.560000
249.855728	146.640000
249.948563	146.960000
250.041412	146.580000
250.134262	146.800000
250.227112	146.720000
250.319962	146.640000
250.412827	146.460000
250.505692	146.320000
250.598541	145.920000
250.691391	145.420000
250.784241	145.600000
250.877106	145.820000
250.969955	145.660000
251.062805	146.260000
251.155670	146.920000
251.248520	146.760000
251.341385	146.780000
251.434235	146.900000
251.527100	146.420000
251.619965	145.800000
251.712814	146.340000
251.805695	146.100000
251.898560	146.480000
251.991425	146.680000
252.084290	146.940000
252.177155	146.480000
252.270020	146.860000
252.362885	146.740000
252.455750	146.880000
252.548615	146.500000
252.641479	146.360000
252.734360	145.740000
252.827240	145.660000
252.920105	145.340000
253.012970	145.280000
253.105850	145.280000
253.198715	145.240000
253.291595	145.280000
253.384460	145.060000
253.477341	144.920000
253.570221	145.220000
253.663086	145.040000
253.755966	145.620000
253.848846	145.700000
253.941727	146.200000
254.034592	146.020000
254.127472	145.680000
254.220367	145.300000
254.313248	145.600000
254.406128	145.100000
254.499008	145.420000
254.591904	146.560000
254.684784	147.100000
254.777664	146.740000
254.870544	146.600000
254.963440	146.380000
255.056335	146.100000
255.149216	145.140000
255.242111	145.800000
255.334991	146.720000
255.427887	146.660000
255.520767	146.580000
255.613663	146.980000
255.706558	146.440000
255.799438	145.700000
255.892334	145.480000
255.985229	145.380000
256.078125	145.340000
256.171021	145.420000
256.263916	145.800000
256.356812	146.080000
256.449707	146.480000
256.542603	146.060000
256.635498	146.460000
256.728394	146.420000
256.821289	146.260000
256.914215	146.120000
257.007080	146.780000
257.100006	146.600000
257.192932	146.980000
257.285828	147.040000
257.378723	146.580000
257.471619	146.360000
257.564545	146.080000
257.657440	145.600000
257.750336	146.080000
257.843262	146.000000
257.936157	147.000000
258.029053	147.320000
258.121979	147.660000
258.214874	147.220000
258.307800	147.080000
258.400696	145.840000
258.493622	145.380000
258.586517	144.580000
258.679443	145.060000
258.772339	145.100000
258.865265	144.880000
258.958160	144.800000
259.051086	145.740000
259.144012	145.380000
259.236938	146.360000
259.329834	146.740000
259.422791	146.820000
259.515717	146.260000
259.608612	145.900000
259.701538	145.480000
259.794464	145.240000
259.887390	145.120000
259.980316	144.780000
260.073212	145.040000
260.166138	144.400000
260.259064	144.940000
260.351990	145.760000
260.444916	146.120000
260.537842	146.380000
260.630768	147.100000
260.723694	146.940000
260.816620	146.320000
260.909546	146.180000
261.002472	145.740000
261.095398	145.040000
261.188354	144.880000
261.281281	144.780000
261.374207	145.200000
261.467133	145.820000
261.560089	146.380000
261.653015	146.300000
261.745972	147.160000
261.838867	147.300000
261.931824	147.540000
262.024780	147.340000
262.117706	147.380000
262.210663	147.080000
262.303589	146.820000
262.396515	146.380000
262.489471	147.000000
262.582397	147.060000
262.675354	146.420000
262.768280	146.620000
262.861237	146.860000
262.954163	146.140000
263.047119	146.180000
263.140045	146.240000
263.233002	145.960000
263.325958	145.520000
263.418884	145.540000
263.511841	145.580000
263.604797	145.600000
263.697723	145.600000
263.790680	145.980000
263.883636	146.560000
263.976593	146.400000
264.069550	146.580000
264.162476	146.160000
264.255463	145.820000
264.348419	145.080000
264.441376	145.480000
264.534332	145.300000
264.627289	145.680000
264.720245	146.240000
264.813202	146.060000
264.906158	145.880000
264.999115	146.380000
265.092072	146.300000
265.185028	146.640000
265.277985	147.080000
265.370941	147.220000
265.463898	146.860000
265.556854	146.980000
265.649811	145.720000
265.742798	145.980000
265.835754	145.940000
265.928711	146.300000
266.021667	146.260000
266.114655	146.800000
266.207611	146.680000
266.300568	145.960000
266.393585	145.480000
266.486511	145.920000
266.579498	145.140000
266.672485	145.100000
266.765442	145.420000
266.858429	145.700000
266.951385	145.080000
267.044342	145.380000
267.137329	144.980000
267.230316	145.060000
267.323273	144.560000
267.416260	145.200000
267.509216	145.260000
267.602203	145.660000
267.695160	146.280000
267.788147	146.460000
267.881134	145.840000
267.974091	146.080000
268.067078	145.960000
268.160065	145.440000
268.253052	145.360000
268.346008	145.660000
268.438995	145.400000
268.531982	145.520000
268.624969	145.600000
268.717987	146.220000
268.810944	145.880000
268.903961	146.020000
268.996948	145.680000
269.089905	146.160000
269.182892	145.860000
269.275879	146.160000
269.368866	145.800000
269.461853	146.080000
269.554871	145.720000
269.647858	145.520000
269.740845	145.660000
269.833832	146.000000
269.926819	145.600000
270.019806	145.560000
270.112793	145.360000
270.205811	145.640000
270.298798	145.620000
270.391785	146.320000
270.484772	146.020000
270.577789	146.340000
270.670776	145.580000
270.763763	145.500000
270.856750	145.420000
270.949768	145.440000
271.042786	145.620000
271.135773	146.180000
271.228790	146.740000
271.321808	146.180000
271.414795	145.860000
271.507782	145.560000
271.600800	145.200000
271.693817	144.960000
271.786804	145.480000
271.879822	145.740000
271.972809	145.840000
272.065826	146.000000
272.158844	145.440000
272.251831	145.840000
272.344849	145.980000
272.437866	145.580000
272.530853	145.780000
272.623871	146.340000
272.716888	145.440000
272.809906	145.940000
272.902893	146.400000
272.995911	145.840000
273.088928	145.400000
273.181946	145.700000
273.274963	144.900000
273.367981	144.640000
273.460999	144.520000
273.554047	145.440000
273.647003	145.820000
273.740051	146.340000
273.833069	146.680000
273.926086	147.280000
274.019135	146.740000
274.112152	146.500000
274.205170	146.140000
274.298187	146.320000
274.391205	145.880000
274.484222	145.940000
274.577240	145.720000
274.670258	145.780000
274.763306	145.340000
274.856323	145.520000
274.949341	145.520000
275.042358	146.120000
275.135406	146.080000
275.228424	146.200000
275.321442	146.240000
275.414490	145.800000
275.507507	145.900000
275.600525	146.200000
275.693573	146.020000
275.786591	145.760000
275.879669	146.160000
275.972656	145.640000
276.065735	145.440000
276.158752	145.840000
276.251801	146.420000
276.344818	146.700000
276.437866	146.740000
276.530884	146.720000
276.623932	145.940000
276.716980	146.240000
276.809998	145.940000
276.903046	146.120000
276.996094	146.800000
277.089111	147.660000
277.182159	147.760000
277.275208	147.500000
277.368256	147.240000
277.461304	146.660000
277.554321	145.920000
277.647369	145.840000
277.740417	146.080000
277.833466	146.380000
277.926514	146.320000
278.019562	147.080000
278.112610	146.180000
278.205688	146.500000
278.298706	146.280000
278.391785	146.340000
278.484833	145.860000
278.577881	145.860000
278.670929	145.800000
278.763977	145.860000
278.857025	146.400000
278.950073	146.400000
279.043121	146.640000
279.136169	146.520000
279.229248	146.140000
279.322296	145.800000
279.415344	145.600000
279.508392	145.700000
279.601440	145.620000
279.694519	145.680000
279.787567	145.560000
279.880615	145.580000
279.973694	145.420000
280.066742	145.300000
280.159790	145.640000
280.252869	145.340000
280.345917	145.520000
280.438995	145.500000
280.532074	145.440000
280.625122	145.740000
280.718201	146.740000
280.811279	146.860000
280.904327	146.860000
280.997406	147.140000
281.090454	147.040000
281.183533	145.980000
281.276581	145.740000
281.369659	145.400000
281.462738	145.440000
281.555786	145.320000
281.648865	145.360000
281.741943	145.640000
281.835022	146.360000
281.928070	146.020000
282.021149	145.640000
282.114227	145.720000
282.207306	145.580000
282.300385	145.520000
282.393433	145.600000
282.486511	145.460000
282.579590	145.860000
282.672668	146.160000
282.765747	145.640000
282.858856	145.460000
282.951904	146.160000
283.045013	146.460000
283.138062	146.640000
283.231171	147.400000
283.324249	147.860000
283.417328	147.600000
283.510406	147.080000
283.603485	146.840000
283.696564	146.460000
283.789642	146.240000
283.882751	145.800000
283.975830	146.280000
284.068909	145.740000
284.161987	146.200000
284.255066	145.780000
284.348175	146.400000
284.441254	146.060000
284.534332	146.680000
284.627441	146.100000
284.720520	146.100000
284.813599	145.760000
284.906708	145.760000
284.999786	145.140000
285.092896	144.780000
285.185974	145.620000
285.279053	145.560000
285.372192	145.820000
285.465240	146.900000
285.558380	147.160000
285.651459	146.800000
285.744568	147.520000
285.837677	146.860000
285.930756	146.440000
286.023865	146.720000
286.116943	146.360000
286.210052	145.960000
286.303162	146.500000
286.396240	146.180000
286.489349	145.800000
286.582458	146.320000
286.675568	146.240000
286.768646	146.220000
286.861755	146.780000
286.954865	147.640000
287.047974	147.000000
287.141083	146.920000
287.234161	146.600000
287.327271	146.380000
287.420380	146.540000
287.513519	146.700000
287.606598	146.600000
287.699738	146.900000
287.792816	146.600000
287.885956	146.280000
287.979034	146.400000
288.072174	146.560000
288.165283	146.180000
288.258392	146.520000
288.351501	145.760000
288.444611	145.880000
288.537720	146.320000
288.630859	146.300000
288.723969	146.160000
288.817078	146.740000
288.910187	146.620000
289.003296	145.840000
289.096436	145.800000
289.189545	145.620000
289.282654	145.000000
289.375763	145.480000
289.468903	146.040000
289.562012	146.160000
289.655121	146.240000
289.748260	146.460000
289.841400	146.560000
289.934509	146.460000
290.027649	146.580000
290.120728	146.560000
290.213898	146.760000
290.306976	146.340000
290.400146	146.480000
290.493256	146.240000
290.586395	146.420000
290.679535	146.640000
290.772644	146.500000
290.865784	145.780000
290.958893	145.720000
291.052032	145.360000
291.145172	145.080000
291.238281	145.080000
291.331421	145.000000
291.424561	145.560000
291.517670	145.360000
291.610809	145.700000
291.703949	145.540000
291.797089	146.020000
291.890228	145.500000
291.983337	145.800000
292.076477	145.580000
292.169617	145.980000
292.262756	145.880000
292.355927	145.720000
292.449036	145.600000
292.542206	145.460000
292.635315	145.380000
292.728485	145.720000
292.821625	145.780000
292.914764	146.860000
293.007904	147.260000
293.101044	147.100000
293.194183	146.780000
293.287323	146.980000
293.380463	146.240000
293.473602	146.020000
293.566742	146.280000
293.659882	146.920000
293.753021	147.000000
293.846191	146.660000
293.939331	146.140000
294.032471	145.780000
294.125610	145.020000
294.218781	145.480000
294.311920	145.960000
294.405060	146.440000
294.498230	146.660000
294.591370	146.680000
294.684540	145.720000
294.777679	145.140000
294.870850	145.340000
294.963959	145.220000
295.057159	145.480000
295.150299	145.980000
295.243469	145.920000
295.336609	145.120000
295.429779	144.920000
295.522919	145.140000
295.616089	144.900000
295.709229	145.880000
295.802399	146.320000
295.895569	146.500000
295.988708	146.120000
296.081879	146.460000
296.175018	145.520000
296.268188	145.540000
296.361359	145.780000
296.454529	145.960000
296.547668	145.940000
296.640839	146.420000
296.734009	146.180000
296.827179	146.280000
296.920319	146.340000
297.013519	146.120000
297.106659	146.280000
297.199860	146.420000
297.292999	146.140000
297.386200	145.780000
297.479309	145.660000
297.572510	145.300000
297.665680	144.920000
297.758850	145.240000
297.852020	145.260000
297.945190	145.200000
298.038361	145.140000
298.131531	146.260000
298.224701	145.920000
298.317871	145.620000
298.411072	145.420000
298.504242	145.300000
298.597412	144.840000
298.690582	145.300000
298.783752	145.640000
298.876923	146.200000
298.970093	146.260000
299.063293	146.240000
299.156464	146.100000
299.249634	146.440000
299.342834	146.600000
299.436005	147.120000
299.529205	147.160000
299.622345	147.220000
299.715576	146.480000
299.808716	146.180000
299.901917	145.860000
299.995117	146.320000
300.088287	146.340000
300.181488	146.380000
300.274658	146.400000
300.367828	146.460000
300.461029	145.960000
300.554199	146.020000
300.647400	146.280000
300.740601	146.600000
300.833771	146.780000
300.926971	146.840000
301.020142	146.220000
301.113342	146.080000
301.206512	145.680000
301.299713	145.700000
301.392914	145.740000
301.486084	146.280000
301.579285	146.560000
301.672516	147.300000
301.765686	146.820000
301.858887	146.560000
301.952057	146.280000
302.045288	146.060000
302.138458	145.620000
302.231659	145.480000
302.324860	145.740000
302.418060	145.540000
302.511261	145.660000
302.604462	145.840000
302.697662	146.060000
302.790863	145.980000
302.884064	145.820000
302.977264	145.900000
303.070465	145.820000
303.163666	146.100000
303.256866	146.080000
303.350067	146.360000
303.443268	146.460000
303.536469	146.160000
303.629669	145.700000
303.722870	145.720000
303.816071	145.500000
303.909271	145.320000
304.002472	144.800000
304.095673	144.840000
304.188934	144.120000
304.282104	145.000000
304.375336	145.280000
304.468506	145.680000
304.561768	145.600000
304.654968	146.600000
304.748169	145.920000
304.841370	145.400000
304.934601	145.700000
305.027802	145.520000
305.121002	144.840000
305.214233	145.140000
305.307434	145.180000
305.400665	145.440000
305.493866	145.400000
