Model Number: SPM-002-B   
Serial Number: 70087108
Firmware Version: 004.15.4
Exposure Time: 100000.000000us
Data Taken on: 11-12-2020 18:46:10.726
Wavelength	Amplitude
221.570786	0.000000
221.663406	0.000000
221.756027	0.000000
221.848648	0.000000
221.941269	0.000000
222.033905	0.000000
222.126526	0.000000
222.219162	0.000000
222.311798	0.000000
222.404419	0.000000
222.497055	0.000000
222.589676	0.000000
222.682312	0.000000
222.774933	0.000000
222.867569	0.000000
222.960205	0.000000
223.052841	0.000000
223.145462	0.000000
223.238098	0.000000
223.330734	0.000000
223.423386	0.000000
223.516022	0.000000
223.608658	0.000000
223.701309	0.000000
223.793945	0.000000
223.886581	0.000000
223.979218	0.000000
224.071869	0.000000
224.164505	0.000000
224.257156	0.000000
224.349792	0.000000
224.442444	0.000000
224.535095	0.000000
224.627747	0.000000
224.720398	0.000000
224.813034	0.000000
224.905685	0.000000
224.998337	145.460000
225.090988	145.200000
225.183640	145.020000
225.276291	144.560000
225.368942	145.000000
225.461594	145.340000
225.554245	145.900000
225.646912	146.240000
225.739578	146.900000
225.832230	147.040000
225.924896	146.060000
226.017548	146.160000
226.110199	146.500000
226.202866	145.720000
226.295532	145.680000
226.388184	145.820000
226.480850	145.080000
226.573517	144.880000
226.666168	145.260000
226.758835	145.460000
226.851501	146.220000
226.944183	146.800000
227.036850	146.300000
227.129517	146.440000
227.222183	146.580000
227.314850	146.360000
227.407516	146.640000
227.500198	147.520000
227.592865	147.300000
227.685532	146.760000
227.778214	146.480000
227.870880	146.320000
227.963562	146.140000
228.056229	146.680000
228.148926	146.900000
228.241592	147.600000
228.334274	147.260000
228.426956	146.940000
228.519638	146.620000
228.612305	146.160000
228.704987	146.040000
228.797668	146.320000
228.890350	146.300000
228.983032	145.800000
229.075714	146.480000
229.168396	145.920000
229.261108	145.520000
229.353790	145.540000
229.446472	145.720000
229.539169	145.360000
229.631851	145.280000
229.724533	145.340000
229.817230	145.580000
229.909912	146.760000
230.002609	146.960000
230.095306	146.960000
230.187988	147.300000
230.280685	147.160000
230.373383	146.100000
230.466095	145.760000
230.558792	146.000000
230.651474	145.780000
230.744171	145.680000
230.836868	145.840000
230.929581	146.260000
231.022278	146.280000
231.114975	146.380000
231.207672	146.340000
231.300369	146.500000
231.393082	146.560000
231.485779	146.080000
231.578506	146.040000
231.671204	146.080000
231.763916	145.940000
231.856613	145.620000
231.949326	146.200000
232.042023	146.020000
232.134735	145.700000
232.227448	145.500000
232.320160	145.720000
232.412872	145.460000
232.505585	146.120000
232.598297	146.660000
232.691010	146.660000
232.783722	146.360000
232.876450	147.000000
232.969162	146.560000
233.061874	146.080000
233.154587	145.640000
233.247314	145.860000
233.340027	145.260000
233.432739	145.720000
233.525467	145.640000
233.618179	146.580000
233.710907	146.220000
233.803635	146.620000
233.896347	146.060000
233.989090	147.000000
234.081818	146.540000
234.174545	147.200000
234.267258	146.360000
234.359985	146.820000
234.452713	146.300000
234.545441	146.240000
234.638168	145.620000
234.730896	146.460000
234.823639	146.020000
234.916367	146.460000
235.009094	146.560000
235.101822	146.780000
235.194580	146.700000
235.287308	146.600000
235.380051	145.920000
235.472778	146.160000
235.565521	146.380000
235.658249	145.980000
235.750992	146.220000
235.843719	146.440000
235.936462	146.380000
236.029205	146.100000
236.121948	145.820000
236.214691	146.040000
236.307449	146.520000
236.400192	146.220000
236.492935	145.940000
236.585678	146.380000
236.678421	146.280000
236.771164	145.880000
236.863907	146.340000
236.956665	146.700000
237.049408	148.020000
237.142151	147.660000
237.234909	148.320000
237.327652	148.220000
237.420410	148.000000
237.513153	146.920000
237.605927	146.640000
237.698669	145.760000
237.791428	145.120000
237.884186	145.660000
237.976944	145.300000
238.069702	145.920000
238.162445	146.000000
238.255203	146.520000
238.347961	146.440000
238.440720	146.700000
238.533478	146.400000
238.626266	146.180000
238.719025	145.980000
238.811783	145.860000
238.904541	145.580000
238.997314	145.480000
239.090073	145.340000
239.182831	145.720000
239.275604	146.380000
239.368362	146.180000
239.461136	146.320000
239.553909	146.480000
239.646667	146.400000
239.739441	146.020000
239.832214	146.720000
239.925003	147.020000
240.017761	147.560000
240.110535	147.740000
240.203308	147.140000
240.296082	146.820000
240.388855	146.620000
240.481628	146.300000
240.574417	146.280000
240.667191	146.520000
240.759964	146.220000
240.852737	145.920000
240.945526	145.640000
241.038315	145.380000
241.131088	145.260000
241.223877	145.820000
241.316650	145.680000
241.409439	146.320000
241.502228	146.200000
241.595001	146.520000
241.687790	146.180000
241.780579	146.480000
241.873367	146.560000
241.966141	146.720000
242.058929	146.280000
242.151718	146.600000
242.244507	147.080000
242.337311	146.200000
242.430099	146.900000
242.522903	147.160000
242.615692	146.700000
242.708481	146.740000
242.801270	147.420000
242.894073	146.680000
242.986862	146.820000
243.079651	147.580000
243.172455	147.000000
243.265244	147.060000
243.358063	146.800000
243.450867	147.180000
243.543655	146.660000
243.636459	146.880000
243.729263	146.880000
243.822067	147.360000
243.914856	147.360000
244.007660	147.380000
244.100464	147.240000
244.193268	147.120000
244.286072	146.700000
244.378876	146.200000
244.471680	146.040000
244.564499	146.480000
244.657318	146.900000
244.750122	147.140000
244.842926	146.740000
244.935745	147.160000
245.028549	146.700000
245.121368	146.160000
245.214172	146.120000
245.306992	146.840000
245.399796	146.620000
245.492615	146.700000
245.585434	146.340000
245.678253	146.600000
245.771072	146.520000
245.863892	146.800000
245.956711	147.020000
246.049530	147.360000
246.142349	146.940000
246.235168	146.720000
246.327988	146.940000
246.420807	146.900000
246.513626	146.980000
246.606445	147.100000
246.699280	147.180000
246.792099	146.820000
246.884918	146.220000
246.977753	145.720000
247.070587	145.780000
247.163422	145.960000
247.256241	145.940000
247.349075	146.480000
247.441895	146.740000
247.534729	146.560000
247.627563	146.060000
247.720383	146.420000
247.813217	146.340000
247.906052	146.240000
247.998886	146.620000
248.091736	146.820000
248.184570	146.660000
248.277405	146.760000
248.370239	147.780000
248.463074	148.380000
248.555908	148.460000
248.648743	148.100000
248.741592	148.140000
248.834427	147.200000
248.927261	145.960000
249.020111	146.440000
249.112946	147.100000
249.205795	146.780000
249.298630	147.040000
249.391495	147.260000
249.484344	146.660000
249.577179	146.500000
249.670029	146.660000
249.762878	147.020000
249.855728	147.080000
249.948563	147.000000
250.041412	146.180000
250.134262	146.560000
250.227112	146.320000
250.319962	146.560000
250.412827	146.740000
250.505692	146.780000
250.598541	146.680000
250.691391	146.540000
250.784241	146.580000
250.877106	146.740000
250.969955	146.640000
251.062805	147.040000
251.155670	147.760000
251.248520	147.360000
251.341385	147.640000
251.434235	147.840000
251.527100	147.280000
251.619965	146.360000
251.712814	147.120000
251.805695	146.800000
251.898560	146.860000
251.991425	146.920000
252.084290	147.280000
252.177155	146.540000
252.270020	146.340000
252.362885	146.420000
252.455750	146.280000
252.548615	145.900000
252.641479	145.840000
252.734360	145.760000
252.827240	145.540000
252.920105	145.580000
253.012970	145.580000
253.105850	145.580000
253.198715	145.480000
253.291595	145.600000
253.384460	145.240000
253.477341	145.300000
253.570221	145.780000
253.663086	145.860000
253.755966	146.600000
253.848846	146.980000
253.941727	147.360000
254.034592	147.160000
254.127472	146.780000
254.220367	146.380000
254.313248	146.600000
254.406128	146.060000
254.499008	146.220000
254.591904	147.340000
254.684784	147.500000
254.777664	147.040000
254.870544	146.780000
254.963440	146.680000
255.056335	146.420000
255.149216	146.180000
255.242111	146.660000
255.334991	147.320000
255.427887	147.340000
255.520767	147.120000
255.613663	147.120000
255.706558	146.560000
255.799438	146.000000
255.892334	145.760000
255.985229	145.440000
256.078125	145.220000
256.171021	145.640000
256.263916	146.420000
256.356812	146.620000
256.449707	146.900000
256.542603	146.920000
256.635498	147.300000
256.728394	146.960000
256.821289	146.840000
256.914215	147.020000
257.007080	147.020000
257.100006	146.780000
257.192932	147.300000
257.285828	147.560000
257.378723	147.100000
257.471619	147.160000
257.564545	146.800000
257.657440	146.500000
257.750336	146.780000
257.843262	146.720000
257.936157	147.860000
258.029053	147.940000
258.121979	147.760000
258.214874	147.280000
258.307800	147.400000
258.400696	146.080000
258.493622	146.260000
258.586517	145.640000
258.679443	146.200000
258.772339	145.940000
258.865265	145.840000
258.958160	145.680000
259.051086	146.700000
259.144012	146.120000
259.236938	147.040000
259.329834	147.240000
259.422791	146.740000
259.515717	145.840000
259.608612	145.720000
259.701538	145.480000
259.794464	145.280000
259.887390	145.520000
259.980316	145.540000
260.073212	145.740000
260.166138	144.820000
260.259064	145.620000
260.351990	146.400000
260.444916	146.820000
260.537842	146.820000
260.630768	147.660000
260.723694	147.140000
260.816620	146.700000
260.909546	146.400000
261.002472	146.080000
261.095398	145.420000
261.188354	145.440000
261.281281	144.920000
261.374207	145.180000
261.467133	145.560000
261.560089	146.020000
261.653015	145.720000
261.745972	146.640000
261.838867	146.920000
261.931824	147.020000
262.024780	146.220000
262.117706	146.500000
262.210663	146.140000
262.303589	145.660000
262.396515	145.600000
262.489471	146.680000
262.582397	146.580000
262.675354	146.240000
262.768280	146.360000
262.861237	146.320000
262.954163	146.200000
263.047119	146.320000
263.140045	146.280000
263.233002	146.260000
263.325958	146.120000
263.418884	145.540000
263.511841	145.480000
263.604797	145.500000
263.697723	145.420000
263.790680	145.500000
263.883636	146.180000
263.976593	146.100000
264.069550	146.160000
264.162476	146.160000
264.255463	146.360000
264.348419	145.960000
264.441376	146.100000
264.534332	145.820000
264.627289	145.960000
264.720245	146.180000
264.813202	145.660000
264.906158	145.780000
264.999115	146.540000
265.092072	146.400000
265.185028	146.780000
265.277985	147.360000
265.370941	147.140000
265.463898	146.580000
265.556854	146.360000
265.649811	145.440000
265.742798	145.420000
265.835754	145.640000
265.928711	146.080000
266.021667	146.220000
266.114655	146.140000
266.207611	146.540000
266.300568	145.820000
266.393585	145.440000
266.486511	145.740000
266.579498	145.280000
266.672485	144.960000
266.765442	145.140000
266.858429	145.400000
266.951385	145.220000
267.044342	145.640000
267.137329	145.660000
267.230316	146.120000
267.323273	145.820000
267.416260	146.400000
267.509216	146.420000
267.602203	146.340000
267.695160	146.900000
267.788147	146.900000
267.881134	146.180000
267.974091	146.540000
268.067078	146.300000
268.160065	145.840000
268.253052	145.820000
268.346008	145.940000
268.438995	145.400000
268.531982	145.500000
268.624969	145.240000
268.717987	145.620000
268.810944	145.780000
268.903961	146.280000
268.996948	146.040000
269.089905	146.380000
269.182892	146.480000
269.275879	146.300000
269.368866	145.640000
269.461853	146.240000
269.554871	145.960000
269.647858	145.860000
269.740845	146.580000
269.833832	147.280000
269.926819	146.600000
270.019806	146.760000
270.112793	146.200000
270.205811	145.860000
270.298798	145.440000
270.391785	146.420000
270.484772	146.000000
270.577789	146.280000
270.670776	145.880000
270.763763	145.960000
270.856750	145.380000
270.949768	145.500000
271.042786	145.560000
271.135773	145.720000
271.228790	146.080000
271.321808	145.640000
271.414795	145.460000
271.507782	145.120000
271.600800	144.920000
271.693817	144.880000
271.786804	145.640000
271.879822	146.060000
271.972809	145.960000
272.065826	146.500000
272.158844	145.760000
272.251831	145.980000
272.344849	145.940000
272.437866	145.940000
272.530853	145.780000
272.623871	146.320000
272.716888	145.540000
272.809906	145.880000
272.902893	146.020000
272.995911	145.360000
273.088928	145.160000
273.181946	145.580000
273.274963	145.100000
273.367981	145.180000
273.460999	145.580000
273.554047	146.060000
273.647003	146.500000
273.740051	146.820000
273.833069	147.420000
273.926086	147.700000
274.019135	147.560000
274.112152	147.140000
274.205170	146.960000
274.298187	146.860000
274.391205	146.140000
274.484222	146.060000
274.577240	146.060000
274.670258	145.940000
274.763306	145.740000
274.856323	146.620000
274.949341	146.680000
275.042358	146.740000
275.135406	146.380000
275.228424	146.320000
275.321442	145.620000
275.414490	145.220000
275.507507	145.600000
275.600525	146.200000
275.693573	145.980000
275.786591	145.940000
275.879669	146.460000
275.972656	145.900000
276.065735	145.700000
276.158752	146.600000
276.251801	147.480000
276.344818	147.220000
276.437866	147.420000
276.530884	147.320000
276.623932	146.120000
276.716980	146.320000
276.809998	146.420000
276.903046	146.360000
276.996094	147.180000
277.089111	148.100000
277.182159	147.980000
277.275208	147.380000
277.368256	147.160000
277.461304	146.500000
277.554321	145.560000
277.647369	145.300000
277.740417	145.760000
277.833466	145.860000
277.926514	145.740000
278.019562	146.760000
278.112610	146.300000
278.205688	146.320000
278.298706	146.540000
278.391785	146.420000
278.484833	145.360000
278.577881	145.460000
278.670929	145.660000
278.763977	145.540000
278.857025	145.940000
278.950073	146.360000
279.043121	146.120000
279.136169	146.140000
279.229248	146.000000
279.322296	145.700000
279.415344	145.700000
279.508392	146.120000
279.601440	145.900000
279.694519	145.640000
279.787567	145.580000
279.880615	145.460000
279.973694	145.280000
280.066742	145.080000
280.159790	145.480000
280.252869	145.340000
280.345917	145.400000
280.438995	145.040000
280.532074	145.200000
280.625122	145.400000
280.718201	146.260000
280.811279	146.480000
280.904327	146.580000
280.997406	146.620000
281.090454	146.580000
281.183533	146.020000
281.276581	145.960000
281.369659	146.120000
281.462738	146.240000
281.555786	146.260000
281.648865	146.420000
281.741943	146.480000
281.835022	146.940000
281.928070	146.600000
282.021149	146.320000
282.114227	146.220000
282.207306	146.000000
282.300385	146.040000
282.393433	146.740000
282.486511	146.720000
282.579590	147.020000
282.672668	147.540000
282.765747	146.920000
282.858856	146.100000
282.951904	146.100000
283.045013	146.060000
283.138062	146.220000
283.231171	146.640000
283.324249	147.320000
283.417328	147.580000
283.510406	147.140000
283.603485	146.680000
283.696564	146.860000
283.789642	146.900000
283.882751	146.520000
283.975830	147.120000
284.068909	146.900000
284.161987	147.340000
284.255066	146.560000
284.348175	146.700000
284.441254	146.560000
284.534332	146.800000
284.627441	146.100000
284.720520	145.940000
284.813599	145.880000
284.906708	145.920000
284.999786	145.340000
285.092896	144.880000
285.185974	146.000000
285.279053	145.900000
285.372192	145.760000
285.465240	146.820000
285.558380	147.280000
285.651459	146.940000
285.744568	147.720000
285.837677	147.120000
285.930756	146.780000
286.023865	146.640000
286.116943	146.340000
286.210052	145.780000
286.303162	146.020000
286.396240	145.880000
286.489349	145.500000
286.582458	145.660000
286.675568	145.460000
286.768646	145.720000
286.861755	146.160000
286.954865	147.140000
287.047974	146.840000
287.141083	147.020000
287.234161	146.880000
287.327271	146.300000
287.420380	146.260000
287.513519	146.260000
287.606598	146.360000
287.699738	146.460000
287.792816	146.340000
287.885956	145.860000
287.979034	145.900000
288.072174	145.840000
288.165283	145.700000
288.258392	146.180000
288.351501	145.680000
288.444611	146.300000
288.537720	146.700000
288.630859	146.620000
288.723969	146.620000
288.817078	147.320000
288.910187	146.940000
289.003296	146.240000
289.096436	146.220000
289.189545	146.020000
289.282654	145.480000
289.375763	145.540000
289.468903	146.100000
289.562012	146.360000
289.655121	146.420000
289.748260	146.680000
289.841400	147.240000
289.934509	147.080000
290.027649	147.220000
290.120728	146.660000
290.213898	146.720000
290.306976	146.100000
290.400146	146.240000
290.493256	145.600000
290.586395	146.280000
290.679535	146.640000
290.772644	146.300000
290.865784	145.360000
290.958893	145.540000
291.052032	145.220000
291.145172	144.900000
291.238281	144.960000
291.331421	145.400000
291.424561	146.000000
291.517670	145.680000
291.610809	145.880000
291.703949	145.760000
291.797089	146.120000
291.890228	145.680000
291.983337	145.760000
292.076477	145.420000
292.169617	145.920000
292.262756	145.620000
292.355927	145.700000
292.449036	145.920000
292.542206	146.100000
292.635315	146.040000
292.728485	146.540000
292.821625	146.120000
292.914764	146.880000
293.007904	146.940000
293.101044	147.060000
293.194183	146.440000
293.287323	146.660000
293.380463	146.100000
293.473602	145.880000
293.566742	145.700000
293.659882	146.500000
293.753021	146.780000
293.846191	146.580000
293.939331	146.320000
294.032471	146.440000
294.125610	145.700000
294.218781	145.720000
294.311920	146.340000
294.405060	146.920000
294.498230	146.620000
294.591370	146.920000
294.684540	146.220000
294.777679	145.540000
294.870850	145.640000
294.963959	145.600000
295.057159	145.220000
295.150299	145.760000
295.243469	145.820000
295.336609	145.180000
295.429779	145.360000
295.522919	145.960000
295.616089	146.120000
295.709229	146.580000
295.802399	146.940000
295.895569	146.800000
295.988708	146.440000
296.081879	146.400000
296.175018	145.820000
296.268188	145.760000
296.361359	146.180000
296.454529	146.300000
296.547668	146.020000
296.640839	146.300000
296.734009	145.920000
296.827179	145.980000
296.920319	146.440000
297.013519	146.380000
297.106659	146.600000
297.199860	146.680000
297.292999	146.360000
297.386200	145.780000
297.479309	145.940000
297.572510	145.680000
297.665680	145.520000
297.758850	145.560000
297.852020	145.660000
297.945190	145.600000
298.038361	145.360000
298.131531	146.100000
298.224701	146.020000
298.317871	145.580000
298.411072	145.040000
298.504242	145.020000
298.597412	144.380000
298.690582	144.680000
298.783752	144.760000
298.876923	145.380000
298.970093	145.400000
299.063293	145.820000
299.156464	145.920000
299.249634	146.280000
299.342834	146.340000
299.436005	146.700000
299.529205	146.660000
299.622345	146.500000
299.715576	146.020000
299.808716	145.940000
299.901917	145.720000
299.995117	145.860000
300.088287	145.960000
300.181488	146.100000
300.274658	145.960000
300.367828	145.940000
300.461029	145.620000
300.554199	146.080000
300.647400	146.140000
300.740601	146.740000
300.833771	146.540000
300.926971	147.080000
301.020142	145.960000
301.113342	145.860000
301.206512	145.320000
301.299713	145.780000
301.392914	145.620000
301.486084	146.180000
301.579285	146.280000
301.672516	147.000000
301.765686	146.680000
301.858887	146.720000
301.952057	146.640000
302.045288	146.920000
302.138458	146.240000
302.231659	146.300000
302.324860	145.840000
302.418060	145.780000
302.511261	145.480000
302.604462	146.020000
302.697662	145.880000
302.790863	145.920000
302.884064	145.660000
302.977264	145.600000
303.070465	145.320000
303.163666	146.200000
303.256866	146.560000
303.350067	146.820000
303.443268	147.040000
303.536469	147.160000
303.629669	146.600000
303.722870	146.620000
303.816071	146.520000
303.909271	146.520000
304.002472	145.680000
304.095673	145.580000
304.188934	144.980000
304.282104	145.740000
304.375336	145.840000
304.468506	146.180000
304.561768	145.840000
304.654968	146.440000
304.748169	145.520000
304.841370	145.160000
304.934601	145.580000
305.027802	145.620000
305.121002	145.160000
305.214233	145.380000
305.307434	145.720000
305.400665	146.000000
305.493866	145.860000
