Model Number: SPM-002-B   
Serial Number: 70087108
Firmware Version: 004.15.4
Exposure Time: 100000.000000us
Data Taken on: 11-12-2020 18:46:18.444
Wavelength	Amplitude
221.570786	0.000000
221.663406	0.000000
221.756027	0.000000
221.848648	0.000000
221.941269	0.000000
222.033905	0.000000
222.126526	0.000000
222.219162	0.000000
222.311798	0.000000
222.404419	0.000000
222.497055	0.000000
222.589676	0.000000
222.682312	0.000000
222.774933	0.000000
222.867569	0.000000
222.960205	0.000000
223.052841	0.000000
223.145462	0.000000
223.238098	0.000000
223.330734	0.000000
223.423386	0.000000
223.516022	0.000000
223.608658	0.000000
223.701309	0.000000
223.793945	0.000000
223.886581	0.000000
223.979218	0.000000
224.071869	0.000000
224.164505	0.000000
224.257156	0.000000
224.349792	0.000000
224.442444	0.000000
224.535095	0.000000
224.627747	0.000000
224.720398	0.000000
224.813034	0.000000
224.905685	0.000000
224.998337	145.940000
225.090988	145.480000
225.183640	145.780000
225.276291	145.900000
225.368942	146.320000
225.461594	146.640000
225.554245	146.940000
225.646912	146.560000
225.739578	146.840000
225.832230	147.020000
225.924896	146.080000
226.017548	146.160000
226.110199	146.900000
226.202866	146.060000
226.295532	146.040000
226.388184	146.160000
226.480850	145.800000
226.573517	145.080000
226.666168	145.520000
226.758835	145.720000
226.851501	146.420000
226.944183	146.680000
227.036850	146.260000
227.129517	146.200000
227.222183	146.280000
227.314850	146.100000
227.407516	146.620000
227.500198	147.740000
227.592865	147.520000
227.685532	146.920000
227.778214	146.680000
227.870880	146.460000
227.963562	146.400000
228.056229	147.020000
228.148926	147.080000
228.241592	147.720000
228.334274	147.320000
228.426956	146.900000
228.519638	146.620000
228.612305	146.440000
228.704987	146.160000
228.797668	146.460000
228.890350	146.460000
228.983032	145.900000
229.075714	146.640000
229.168396	146.340000
229.261108	145.840000
229.353790	145.960000
229.446472	146.260000
229.539169	145.660000
229.631851	145.280000
229.724533	145.660000
229.817230	145.760000
229.909912	146.580000
230.002609	146.480000
230.095306	146.600000
230.187988	146.660000
230.280685	146.540000
230.373383	145.240000
230.466095	145.520000
230.558792	146.320000
230.651474	146.220000
230.744171	146.120000
230.836868	146.340000
230.929581	146.360000
231.022278	146.000000
231.114975	145.960000
231.207672	145.680000
231.300369	146.520000
231.393082	146.460000
231.485779	146.080000
231.578506	146.020000
231.671204	146.500000
231.763916	146.020000
231.856613	146.260000
231.949326	146.580000
232.042023	146.480000
232.134735	146.400000
232.227448	146.160000
232.320160	146.360000
232.412872	146.340000
232.505585	147.120000
232.598297	147.200000
232.691010	147.240000
232.783722	146.580000
232.876450	146.900000
232.969162	146.000000
233.061874	145.340000
233.154587	145.140000
233.247314	145.340000
233.340027	144.960000
233.432739	145.500000
233.525467	145.600000
233.618179	146.120000
233.710907	145.980000
233.803635	146.400000
233.896347	146.300000
233.989090	147.120000
234.081818	146.860000
234.174545	147.100000
234.267258	146.340000
234.359985	146.520000
234.452713	146.080000
234.545441	145.940000
234.638168	145.740000
234.730896	146.300000
234.823639	146.080000
234.916367	146.480000
235.009094	146.720000
235.101822	146.680000
235.194580	146.780000
235.287308	146.920000
235.380051	146.160000
235.472778	146.360000
235.565521	147.000000
235.658249	146.200000
235.750992	146.020000
235.843719	146.240000
235.936462	146.320000
236.029205	145.820000
236.121948	145.960000
236.214691	146.260000
236.307449	147.140000
236.400192	146.520000
236.492935	146.240000
236.585678	146.680000
236.678421	146.660000
236.771164	146.040000
236.863907	146.900000
236.956665	147.200000
237.049408	148.560000
237.142151	147.740000
237.234909	148.520000
237.327652	148.080000
237.420410	147.880000
237.513153	146.840000
237.605927	147.000000
237.698669	146.360000
237.791428	145.780000
237.884186	146.200000
237.976944	145.600000
238.069702	145.960000
238.162445	145.300000
238.255203	145.900000
238.347961	146.220000
238.440720	146.260000
238.533478	146.540000
238.626266	146.680000
238.719025	146.640000
238.811783	146.280000
238.904541	146.280000
238.997314	145.820000
239.090073	145.440000
239.182831	145.500000
239.275604	146.020000
239.368362	146.000000
239.461136	146.180000
239.553909	146.560000
239.646667	146.480000
239.739441	145.860000
239.832214	146.020000
239.925003	146.140000
240.017761	147.080000
240.110535	147.600000
240.203308	147.400000
240.296082	147.380000
240.388855	147.160000
240.481628	146.700000
240.574417	146.480000
240.667191	146.680000
240.759964	146.440000
240.852737	146.780000
240.945526	146.500000
241.038315	146.660000
241.131088	146.660000
241.223877	147.200000
241.316650	146.700000
241.409439	147.020000
241.502228	146.240000
241.595001	146.860000
241.687790	146.780000
241.780579	146.740000
241.873367	146.800000
241.966141	147.300000
242.058929	146.480000
242.151718	146.460000
242.244507	147.120000
242.337311	146.280000
242.430099	146.820000
242.522903	147.240000
242.615692	146.780000
242.708481	146.520000
242.801270	147.280000
242.894073	146.700000
242.986862	146.480000
243.079651	147.020000
243.172455	146.900000
243.265244	146.880000
243.358063	146.520000
243.450867	146.980000
243.543655	146.720000
243.636459	146.720000
243.729263	146.940000
243.822067	147.580000
243.914856	147.700000
244.007660	147.820000
244.100464	147.920000
244.193268	147.240000
244.286072	146.820000
244.378876	145.960000
244.471680	145.860000
244.564499	145.940000
244.657318	146.760000
244.750122	147.160000
244.842926	146.860000
244.935745	147.080000
245.028549	146.640000
245.121368	146.060000
245.214172	145.800000
245.306992	146.680000
245.399796	146.260000
245.492615	146.400000
245.585434	146.180000
245.678253	146.000000
245.771072	145.740000
245.863892	146.060000
245.956711	146.360000
246.049530	146.580000
246.142349	146.660000
246.235168	146.600000
246.327988	147.060000
246.420807	146.760000
246.513626	146.620000
246.606445	146.260000
246.699280	146.380000
246.792099	145.840000
246.884918	145.440000
246.977753	145.120000
247.070587	145.560000
247.163422	145.360000
247.256241	145.460000
247.349075	146.100000
247.441895	146.580000
247.534729	146.340000
247.627563	146.220000
247.720383	146.840000
247.813217	146.560000
247.906052	146.300000
247.998886	146.440000
248.091736	146.940000
248.184570	146.380000
248.277405	146.580000
248.370239	147.660000
248.463074	148.480000
248.555908	148.680000
248.648743	148.480000
248.741592	148.660000
248.834427	147.760000
248.927261	146.380000
249.020111	146.220000
249.112946	147.100000
249.205795	146.500000
249.298630	146.620000
249.391495	147.040000
249.484344	146.820000
249.577179	146.240000
249.670029	146.880000
249.762878	147.400000
249.855728	147.280000
249.948563	147.240000
250.041412	146.840000
250.134262	146.740000
250.227112	146.680000
250.319962	146.940000
250.412827	146.700000
250.505692	146.320000
250.598541	146.100000
250.691391	145.440000
250.784241	145.160000
250.877106	145.360000
250.969955	145.440000
251.062805	146.140000
251.155670	146.660000
251.248520	147.040000
251.341385	147.360000
251.434235	147.380000
251.527100	146.640000
251.619965	146.240000
251.712814	146.700000
251.805695	146.580000
251.898560	147.020000
251.991425	147.120000
252.084290	147.460000
252.177155	146.880000
252.270020	146.540000
252.362885	146.220000
252.455750	146.360000
252.548615	145.900000
252.641479	145.820000
252.734360	146.120000
252.827240	146.480000
252.920105	146.460000
253.012970	146.480000
253.105850	146.420000
253.198715	145.660000
253.291595	145.480000
253.384460	145.200000
253.477341	145.340000
253.570221	145.520000
253.663086	145.780000
253.755966	146.340000
253.848846	146.760000
253.941727	146.980000
254.034592	146.860000
254.127472	146.240000
254.220367	145.960000
254.313248	145.980000
254.406128	145.560000
254.499008	145.740000
254.591904	147.020000
254.684784	147.500000
254.777664	147.300000
254.870544	146.880000
254.963440	146.800000
255.056335	146.480000
255.149216	145.800000
255.242111	146.180000
255.334991	146.960000
255.427887	147.060000
255.520767	147.180000
255.613663	147.380000
255.706558	146.580000
255.799438	146.160000
255.892334	145.820000
255.985229	145.800000
256.078125	145.740000
256.171021	145.880000
256.263916	146.460000
256.356812	146.620000
256.449707	146.580000
256.542603	146.140000
256.635498	146.820000
256.728394	146.480000
256.821289	146.540000
256.914215	146.600000
257.007080	147.460000
257.100006	147.440000
257.192932	147.760000
257.285828	147.820000
257.378723	147.640000
257.471619	147.140000
257.564545	146.680000
257.657440	146.800000
257.750336	147.100000
257.843262	146.920000
257.936157	148.060000
258.029053	148.320000
258.121979	148.020000
258.214874	147.720000
258.307800	147.740000
258.400696	146.320000
258.493622	145.900000
258.586517	145.240000
258.679443	145.300000
258.772339	144.820000
258.865265	144.920000
258.958160	144.760000
259.051086	145.580000
259.144012	145.200000
259.236938	146.180000
259.329834	146.400000
259.422791	146.560000
259.515717	146.120000
259.608612	146.340000
259.701538	146.420000
259.794464	146.200000
259.887390	146.200000
259.980316	146.040000
260.073212	145.900000
260.166138	144.720000
260.259064	144.940000
260.351990	145.540000
260.444916	145.600000
260.537842	145.960000
260.630768	147.020000
260.723694	146.860000
260.816620	146.480000
260.909546	146.540000
261.002472	146.000000
261.095398	145.380000
261.188354	145.520000
261.281281	145.220000
261.374207	145.660000
261.467133	146.440000
261.560089	146.800000
261.653015	146.400000
261.745972	147.020000
261.838867	147.060000
261.931824	147.260000
262.024780	146.720000
262.117706	147.260000
262.210663	147.260000
262.303589	146.940000
262.396515	146.880000
262.489471	148.020000
262.582397	148.020000
262.675354	147.440000
262.768280	147.740000
262.861237	147.460000
262.954163	146.920000
263.047119	146.580000
263.140045	146.400000
263.233002	146.100000
263.325958	145.860000
263.418884	145.700000
263.511841	145.920000
263.604797	146.120000
263.697723	146.120000
263.790680	146.020000
263.883636	146.220000
263.976593	146.020000
264.069550	146.080000
264.162476	145.740000
264.255463	146.000000
264.348419	145.760000
264.441376	145.920000
264.534332	145.940000
264.627289	146.120000
264.720245	146.380000
264.813202	146.020000
264.906158	146.300000
264.999115	146.460000
265.092072	146.460000
265.185028	146.420000
265.277985	146.900000
265.370941	146.580000
265.463898	146.580000
265.556854	146.660000
265.649811	146.180000
265.742798	145.980000
265.835754	146.180000
265.928711	146.420000
266.021667	146.100000
266.114655	146.240000
266.207611	146.400000
266.300568	145.520000
266.393585	145.100000
266.486511	145.640000
266.579498	145.080000
266.672485	145.160000
266.765442	145.540000
266.858429	145.920000
266.951385	145.240000
267.044342	145.620000
267.137329	145.500000
267.230316	145.720000
267.323273	145.260000
267.416260	146.360000
267.509216	146.180000
267.602203	146.040000
267.695160	146.200000
267.788147	146.280000
267.881134	145.580000
267.974091	145.980000
268.067078	146.080000
268.160065	145.880000
268.253052	145.840000
268.346008	146.000000
268.438995	145.800000
268.531982	145.640000
268.624969	145.540000
268.717987	145.860000
268.810944	145.860000
268.903961	146.180000
268.996948	146.000000
269.089905	146.380000
269.182892	146.280000
269.275879	146.080000
269.368866	145.580000
269.461853	146.040000
269.554871	145.760000
269.647858	145.660000
269.740845	146.400000
269.833832	146.880000
269.926819	146.720000
270.019806	147.000000
270.112793	146.660000
270.205811	146.280000
270.298798	145.760000
270.391785	146.220000
270.484772	145.860000
270.577789	146.040000
270.670776	145.660000
270.763763	145.760000
270.856750	145.720000
270.949768	145.700000
271.042786	145.920000
271.135773	146.180000
271.228790	146.520000
271.321808	146.120000
271.414795	145.660000
271.507782	145.500000
271.600800	144.980000
271.693817	144.980000
271.786804	145.320000
271.879822	145.720000
271.972809	145.520000
272.065826	146.320000
272.158844	145.880000
272.251831	145.980000
272.344849	146.100000
272.437866	145.900000
272.530853	145.780000
272.623871	146.000000
272.716888	145.000000
272.809906	145.760000
272.902893	145.980000
272.995911	145.240000
273.088928	145.120000
273.181946	145.700000
273.274963	144.720000
273.367981	144.660000
273.460999	145.180000
273.554047	145.660000
273.647003	146.220000
273.740051	146.520000
273.833069	146.880000
273.926086	147.040000
274.019135	146.860000
274.112152	146.160000
274.205170	146.320000
274.298187	146.600000
274.391205	145.860000
274.484222	145.740000
274.577240	145.740000
274.670258	145.320000
274.763306	145.000000
274.856323	145.800000
274.949341	145.980000
275.042358	146.620000
275.135406	146.700000
275.228424	146.560000
275.321442	146.260000
275.414490	145.780000
275.507507	145.560000
275.600525	146.320000
275.693573	145.960000
275.786591	145.600000
275.879669	145.960000
275.972656	145.780000
276.065735	145.260000
276.158752	146.140000
276.251801	147.140000
276.344818	146.920000
276.437866	147.060000
276.530884	146.900000
276.623932	145.920000
276.716980	145.680000
276.809998	146.040000
276.903046	145.820000
276.996094	146.660000
277.089111	147.500000
277.182159	147.860000
277.275208	147.480000
277.368256	147.460000
277.461304	146.860000
277.554321	146.380000
277.647369	146.320000
277.740417	146.480000
277.833466	146.540000
277.926514	146.520000
278.019562	147.040000
278.112610	146.340000
278.205688	146.480000
278.298706	146.500000
278.391785	146.220000
278.484833	145.680000
278.577881	145.420000
278.670929	145.460000
278.763977	145.360000
278.857025	145.680000
278.950073	145.980000
279.043121	146.180000
279.136169	146.140000
279.229248	146.160000
279.322296	145.920000
279.415344	145.860000
279.508392	145.780000
279.601440	145.560000
279.694519	145.420000
279.787567	145.700000
279.880615	145.220000
279.973694	145.080000
280.066742	144.940000
280.159790	145.120000
280.252869	144.560000
280.345917	144.980000
280.438995	145.220000
280.532074	145.140000
280.625122	145.640000
280.718201	146.660000
280.811279	146.580000
280.904327	146.520000
280.997406	146.840000
281.090454	146.400000
281.183533	145.720000
281.276581	145.660000
281.369659	145.760000
281.462738	145.980000
281.555786	146.080000
281.648865	146.080000
281.741943	146.320000
281.835022	146.760000
281.928070	146.460000
282.021149	146.220000
282.114227	146.180000
282.207306	145.960000
282.300385	145.880000
282.393433	146.060000
282.486511	146.220000
282.579590	146.860000
282.672668	147.200000
282.765747	146.600000
282.858856	146.260000
282.951904	146.520000
283.045013	146.280000
283.138062	146.300000
283.231171	146.860000
283.324249	147.520000
283.417328	147.460000
283.510406	147.120000
283.603485	146.860000
283.696564	146.480000
283.789642	146.140000
283.882751	145.980000
283.975830	146.720000
284.068909	146.340000
284.161987	146.920000
284.255066	146.620000
284.348175	146.840000
284.441254	146.520000
284.534332	147.340000
284.627441	146.720000
284.720520	146.440000
284.813599	146.400000
284.906708	146.360000
284.999786	145.400000
285.092896	145.480000
285.185974	146.720000
285.279053	146.260000
285.372192	146.040000
285.465240	147.100000
285.558380	147.020000
285.651459	146.100000
285.744568	146.860000
285.837677	146.580000
285.930756	146.180000
286.023865	146.120000
286.116943	146.020000
286.210052	145.860000
286.303162	145.880000
286.396240	145.740000
286.489349	145.760000
286.582458	145.920000
286.675568	145.560000
286.768646	145.720000
286.861755	145.960000
286.954865	146.600000
287.047974	146.280000
287.141083	146.320000
287.234161	146.220000
287.327271	146.120000
287.420380	146.300000
287.513519	146.340000
287.606598	146.640000
287.699738	146.800000
287.792816	146.360000
287.885956	145.880000
287.979034	146.220000
288.072174	146.160000
288.165283	146.060000
288.258392	146.740000
288.351501	146.380000
288.444611	146.360000
288.537720	146.420000
288.630859	146.380000
288.723969	146.140000
288.817078	146.780000
288.910187	146.680000
289.003296	146.280000
289.096436	146.040000
289.189545	145.800000
289.282654	145.140000
289.375763	145.560000
289.468903	145.840000
289.562012	146.440000
289.655121	146.680000
289.748260	146.860000
289.841400	147.120000
289.934509	146.780000
290.027649	146.640000
290.120728	146.460000
290.213898	146.340000
290.306976	145.860000
290.400146	146.140000
290.493256	145.640000
290.586395	145.940000
290.679535	146.480000
290.772644	146.420000
290.865784	145.680000
290.958893	145.860000
291.052032	145.460000
291.145172	145.120000
291.238281	145.100000
291.331421	145.340000
291.424561	145.860000
291.517670	145.700000
291.610809	145.840000
291.703949	145.620000
291.797089	146.080000
291.890228	145.580000
291.983337	145.720000
292.076477	145.400000
292.169617	145.660000
292.262756	145.160000
292.355927	145.140000
292.449036	144.780000
292.542206	145.040000
292.635315	145.180000
292.728485	145.740000
292.821625	145.600000
292.914764	146.940000
293.007904	146.940000
293.101044	146.820000
293.194183	146.480000
293.287323	146.680000
293.380463	145.820000
293.473602	145.460000
293.566742	145.640000
293.659882	146.320000
293.753021	146.640000
293.846191	146.660000
293.939331	146.500000
294.032471	146.320000
294.125610	145.700000
294.218781	145.760000
294.311920	146.380000
294.405060	146.780000
294.498230	146.700000
294.591370	147.040000
294.684540	146.360000
294.777679	145.720000
294.870850	145.880000
294.963959	145.840000
295.057159	145.560000
295.150299	145.920000
295.243469	146.040000
295.336609	145.160000
295.429779	145.300000
295.522919	145.460000
295.616089	145.320000
295.709229	145.780000
295.802399	146.640000
295.895569	146.160000
295.988708	146.120000
296.081879	146.320000
296.175018	145.680000
296.268188	145.480000
296.361359	146.100000
296.454529	146.160000
296.547668	146.300000
296.640839	146.780000
296.734009	146.560000
296.827179	146.640000
296.920319	146.740000
297.013519	146.120000
297.106659	145.820000
297.199860	145.660000
297.292999	145.420000
297.386200	144.940000
297.479309	145.260000
297.572510	145.000000
297.665680	145.060000
297.758850	145.200000
297.852020	145.340000
297.945190	145.120000
298.038361	144.940000
298.131531	145.680000
298.224701	145.360000
298.317871	145.120000
298.411072	144.760000
298.504242	144.940000
298.597412	144.620000
298.690582	144.980000
298.783752	145.120000
298.876923	145.900000
298.970093	145.920000
299.063293	146.120000
299.156464	146.260000
299.249634	146.480000
299.342834	146.480000
299.436005	146.820000
299.529205	146.660000
299.622345	146.880000
299.715576	146.560000
299.808716	146.200000
299.901917	146.120000
299.995117	146.120000
300.088287	146.060000
300.181488	146.080000
300.274658	145.860000
300.367828	145.700000
300.461029	145.920000
300.554199	145.880000
300.647400	145.960000
300.740601	146.780000
300.833771	146.820000
300.926971	146.680000
301.020142	145.960000
301.113342	146.060000
301.206512	145.760000
301.299713	146.180000
301.392914	146.260000
301.486084	146.800000
301.579285	146.760000
301.672516	147.040000
301.765686	146.840000
301.858887	146.640000
301.952057	146.580000
302.045288	146.480000
302.138458	146.120000
302.231659	145.600000
302.324860	145.480000
302.418060	145.080000
302.511261	145.120000
302.604462	145.440000
302.697662	145.540000
302.790863	145.440000
302.884064	145.420000
302.977264	145.420000
303.070465	145.660000
303.163666	146.340000
303.256866	146.560000
303.350067	146.480000
303.443268	146.480000
303.536469	146.180000
303.629669	145.500000
303.722870	145.680000
303.816071	145.760000
303.909271	145.920000
304.002472	145.200000
304.095673	145.160000
304.188934	144.560000
304.282104	145.600000
304.375336	145.380000
304.468506	145.720000
304.561768	145.320000
304.654968	146.060000
304.748169	145.140000
304.841370	144.940000
304.934601	145.140000
305.027802	145.480000
305.121002	144.800000
305.214233	145.060000
305.307434	145.640000
305.400665	146.180000
305.493866	146.300000
