Model Number: SPM-002-B   
Serial Number: 70087108
Firmware Version: 004.15.4
Exposure Time: 100000.000000us
Data Taken on: 11-12-2020 18:46:27.264
Wavelength	Amplitude
221.570786	0.000000
221.663406	0.000000
221.756027	0.000000
221.848648	0.000000
221.941269	0.000000
222.033905	0.000000
222.126526	0.000000
222.219162	0.000000
222.311798	0.000000
222.404419	0.000000
222.497055	0.000000
222.589676	0.000000
222.682312	0.000000
222.774933	0.000000
222.867569	0.000000
222.960205	0.000000
223.052841	0.000000
223.145462	0.000000
223.238098	0.000000
223.330734	0.000000
223.423386	0.000000
223.516022	0.000000
223.608658	0.000000
223.701309	0.000000
223.793945	0.000000
223.886581	0.000000
223.979218	0.000000
224.071869	0.000000
224.164505	0.000000
224.257156	0.000000
224.349792	0.000000
224.442444	0.000000
224.535095	0.000000
224.627747	0.000000
224.720398	0.000000
224.813034	0.000000
224.905685	0.000000
224.998337	145.060000
225.090988	144.860000
225.183640	144.940000
225.276291	144.900000
225.368942	145.200000
225.461594	145.800000
225.554245	146.060000
225.646912	146.300000
225.739578	146.720000
225.832230	147.240000
225.924896	146.480000
226.017548	146.640000
226.110199	147.120000
226.202866	146.580000
226.295532	146.200000
226.388184	146.120000
226.480850	145.520000
226.573517	144.680000
226.666168	144.980000
226.758835	145.360000
226.851501	145.840000
226.944183	146.160000
227.036850	146.100000
227.129517	145.960000
227.222183	145.800000
227.314850	145.480000
227.407516	145.780000
227.500198	146.700000
227.592865	146.740000
227.685532	146.620000
227.778214	146.720000
227.870880	146.880000
227.963562	146.740000
228.056229	147.040000
228.148926	146.960000
228.241592	147.560000
228.334274	146.760000
228.426956	146.560000
228.519638	146.220000
228.612305	146.100000
228.704987	145.920000
228.797668	146.280000
228.890350	145.920000
228.983032	145.540000
229.075714	146.360000
229.168396	146.040000
229.261108	145.620000
229.353790	145.840000
229.446472	146.420000
229.539169	145.820000
229.631851	145.360000
229.724533	145.680000
229.817230	145.700000
229.909912	146.220000
230.002609	146.060000
230.095306	146.120000
230.187988	146.160000
230.280685	146.080000
230.373383	144.940000
230.466095	144.760000
230.558792	145.080000
230.651474	144.920000
230.744171	144.960000
230.836868	144.840000
230.929581	145.300000
231.022278	145.420000
231.114975	145.540000
231.207672	145.380000
231.300369	146.080000
231.393082	146.120000
231.485779	145.940000
231.578506	145.960000
231.671204	145.980000
231.763916	146.000000
231.856613	145.720000
231.949326	145.780000
232.042023	145.800000
232.134735	145.760000
232.227448	145.280000
232.320160	145.460000
232.412872	145.520000
232.505585	146.060000
232.598297	146.340000
232.691010	146.540000
232.783722	146.300000
232.876450	146.820000
232.969162	146.280000
233.061874	145.920000
233.154587	145.580000
233.247314	145.980000
233.340027	145.340000
233.432739	145.920000
233.525467	145.680000
233.618179	146.400000
233.710907	146.080000
233.803635	146.580000
233.896347	146.320000
233.989090	147.280000
234.081818	146.880000
234.174545	147.220000
234.267258	146.740000
234.359985	146.780000
234.452713	146.320000
234.545441	146.200000
234.638168	145.840000
234.730896	146.260000
234.823639	145.820000
234.916367	146.320000
235.009094	146.520000
235.101822	146.520000
235.194580	146.220000
235.287308	146.480000
235.380051	145.740000
235.472778	146.100000
235.565521	146.440000
235.658249	146.020000
235.750992	145.860000
235.843719	146.100000
235.936462	145.960000
236.029205	145.380000
236.121948	145.540000
236.214691	145.660000
236.307449	146.520000
236.400192	146.060000
236.492935	146.320000
236.585678	146.480000
236.678421	146.840000
236.771164	146.420000
236.863907	147.120000
236.956665	147.040000
237.049408	148.540000
237.142151	147.640000
237.234909	148.140000
237.327652	147.880000
237.420410	148.000000
237.513153	147.140000
237.605927	147.200000
237.698669	146.240000
237.791428	145.500000
237.884186	145.740000
237.976944	144.680000
238.069702	145.320000
238.162445	145.260000
238.255203	145.780000
238.347961	146.060000
238.440720	146.460000
238.533478	146.040000
238.626266	145.820000
238.719025	146.120000
238.811783	145.620000
238.904541	145.620000
238.997314	145.980000
239.090073	145.800000
239.182831	145.700000
239.275604	146.700000
239.368362	146.400000
239.461136	146.320000
239.553909	146.540000
239.646667	146.420000
239.739441	145.580000
239.832214	146.100000
239.925003	146.160000
240.017761	146.780000
240.110535	147.280000
240.203308	146.880000
240.296082	146.820000
240.388855	146.560000
240.481628	146.520000
240.574417	146.420000
240.667191	146.760000
240.759964	146.520000
240.852737	146.500000
240.945526	146.060000
241.038315	145.880000
241.131088	146.020000
241.223877	146.480000
241.316650	146.320000
241.409439	146.580000
241.502228	146.160000
241.595001	146.420000
241.687790	146.000000
241.780579	146.040000
241.873367	146.180000
241.966141	146.720000
242.058929	146.140000
242.151718	146.280000
242.244507	146.900000
242.337311	146.220000
242.430099	146.380000
242.522903	146.820000
242.615692	146.580000
242.708481	146.220000
242.801270	146.760000
242.894073	146.560000
242.986862	146.300000
243.079651	146.720000
243.172455	146.580000
243.265244	146.520000
243.358063	145.880000
243.450867	146.160000
243.543655	146.000000
243.636459	146.300000
243.729263	146.540000
243.822067	146.860000
243.914856	147.240000
244.007660	147.180000
244.100464	146.780000
244.193268	146.220000
244.286072	146.360000
244.378876	145.660000
244.471680	145.580000
244.564499	145.920000
244.657318	147.000000
244.750122	146.940000
244.842926	146.300000
244.935745	146.680000
245.028549	146.440000
245.121368	145.520000
245.214172	145.440000
245.306992	146.200000
245.399796	145.720000
245.492615	145.760000
245.585434	145.700000
245.678253	145.680000
245.771072	145.600000
245.863892	146.240000
245.956711	146.440000
246.049530	146.380000
246.142349	146.160000
246.235168	146.320000
246.327988	146.300000
246.420807	145.920000
246.513626	146.220000
246.606445	146.280000
246.699280	146.040000
246.792099	145.780000
246.884918	145.960000
246.977753	145.540000
247.070587	145.840000
247.163422	146.080000
247.256241	146.000000
247.349075	146.060000
247.441895	146.380000
247.534729	146.340000
247.627563	146.120000
247.720383	146.660000
247.813217	146.560000
247.906052	146.240000
247.998886	146.120000
248.091736	145.940000
248.184570	145.560000
248.277405	145.640000
248.370239	146.940000
248.463074	147.860000
248.555908	148.500000
248.648743	148.260000
248.741592	148.240000
248.834427	147.380000
248.927261	145.820000
249.020111	145.980000
249.112946	146.680000
249.205795	146.360000
249.298630	146.360000
249.391495	146.900000
249.484344	146.260000
249.577179	145.980000
249.670029	146.300000
249.762878	146.760000
249.855728	146.960000
249.948563	147.000000
250.041412	146.420000
250.134262	146.540000
250.227112	146.280000
250.319962	146.020000
250.412827	145.920000
250.505692	145.460000
250.598541	145.500000
250.691391	145.300000
250.784241	145.720000
250.877106	145.980000
250.969955	146.300000
251.062805	146.420000
251.155670	146.780000
251.248520	146.420000
251.341385	146.540000
251.434235	146.640000
251.527100	146.360000
251.619965	145.760000
251.712814	146.740000
251.805695	146.560000
251.898560	146.840000
251.991425	147.280000
252.084290	147.820000
252.177155	146.760000
252.270020	146.480000
252.362885	146.580000
252.455750	146.460000
252.548615	146.060000
252.641479	146.080000
252.734360	146.140000
252.827240	145.900000
252.920105	145.780000
253.012970	145.460000
253.105850	145.420000
253.198715	145.260000
253.291595	145.460000
253.384460	145.120000
253.477341	145.340000
253.570221	145.520000
253.663086	145.340000
253.755966	145.620000
253.848846	145.740000
253.941727	146.100000
254.034592	146.200000
254.127472	145.960000
254.220367	145.840000
254.313248	146.160000
254.406128	145.440000
254.499008	145.520000
254.591904	146.640000
254.684784	146.880000
254.777664	146.820000
254.870544	146.760000
254.963440	146.520000
255.056335	146.320000
255.149216	146.060000
255.242111	146.380000
255.334991	146.980000
255.427887	147.200000
255.520767	147.240000
255.613663	147.280000
255.706558	146.780000
255.799438	146.540000
255.892334	146.120000
255.985229	146.180000
256.078125	145.840000
256.171021	145.700000
256.263916	146.220000
256.356812	146.600000
256.449707	146.540000
256.542603	146.380000
256.635498	146.900000
256.728394	146.400000
256.821289	146.460000
256.914215	146.460000
257.007080	147.120000
257.100006	147.000000
257.192932	147.460000
257.285828	147.500000
257.378723	147.160000
257.471619	146.720000
257.564545	146.340000
257.657440	146.160000
257.750336	146.360000
257.843262	146.500000
257.936157	147.540000
258.029053	148.040000
258.121979	148.260000
258.214874	147.860000
258.307800	147.780000
258.400696	146.440000
258.493622	146.320000
258.586517	145.320000
258.679443	145.600000
258.772339	145.400000
258.865265	145.320000
258.958160	144.620000
259.051086	145.940000
259.144012	145.940000
259.236938	146.700000
259.329834	147.320000
259.422791	147.540000
259.515717	146.880000
259.608612	146.340000
259.701538	146.040000
259.794464	145.760000
259.887390	145.780000
259.980316	145.640000
260.073212	145.760000
260.166138	145.100000
260.259064	145.420000
260.351990	145.740000
260.444916	145.740000
260.537842	146.260000
260.630768	146.820000
260.723694	146.540000
260.816620	146.320000
260.909546	146.460000
261.002472	146.000000
261.095398	145.360000
261.188354	145.300000
261.281281	144.880000
261.374207	144.720000
261.467133	145.480000
261.560089	146.060000
261.653015	145.800000
261.745972	146.760000
261.838867	147.260000
261.931824	146.800000
262.024780	145.880000
262.117706	146.140000
262.210663	146.060000
262.303589	145.500000
262.396515	145.780000
262.489471	147.140000
262.582397	147.180000
262.675354	146.660000
262.768280	146.860000
262.861237	146.660000
262.954163	146.280000
263.047119	146.340000
263.140045	146.200000
263.233002	146.220000
263.325958	145.820000
263.418884	145.360000
263.511841	145.380000
263.604797	145.660000
263.697723	145.440000
263.790680	145.540000
263.883636	146.100000
263.976593	145.860000
264.069550	145.780000
264.162476	145.500000
264.255463	145.760000
264.348419	145.260000
264.441376	145.740000
264.534332	145.380000
264.627289	145.760000
264.720245	146.000000
264.813202	145.600000
264.906158	145.640000
264.999115	146.300000
265.092072	146.300000
265.185028	146.420000
265.277985	147.180000
265.370941	146.680000
265.463898	146.140000
265.556854	146.100000
265.649811	145.200000
265.742798	145.140000
265.835754	145.320000
265.928711	145.980000
266.021667	146.000000
266.114655	146.460000
266.207611	146.420000
266.300568	145.760000
266.393585	145.120000
266.486511	145.560000
266.579498	144.900000
266.672485	144.680000
266.765442	145.140000
266.858429	145.800000
266.951385	144.860000
267.044342	144.940000
267.137329	144.900000
267.230316	145.300000
267.323273	144.620000
267.416260	145.580000
267.509216	145.620000
267.602203	145.840000
267.695160	146.040000
267.788147	146.280000
267.881134	145.440000
267.974091	145.860000
268.067078	145.760000
268.160065	145.220000
268.253052	145.040000
268.346008	145.220000
268.438995	145.140000
268.531982	145.360000
268.624969	145.420000
268.717987	145.900000
268.810944	146.080000
268.903961	146.280000
268.996948	145.700000
269.089905	146.080000
269.182892	146.060000
269.275879	146.440000
269.368866	145.880000
269.461853	146.260000
269.554871	145.940000
269.647858	145.780000
269.740845	146.040000
269.833832	146.560000
269.926819	146.460000
270.019806	146.540000
270.112793	146.380000
270.205811	145.920000
270.298798	145.600000
270.391785	146.020000
270.484772	145.660000
270.577789	145.920000
270.670776	145.580000
270.763763	145.540000
270.856750	145.420000
270.949768	145.280000
271.042786	145.200000
271.135773	145.440000
271.228790	145.980000
271.321808	145.540000
271.414795	145.220000
271.507782	144.880000
271.600800	144.800000
271.693817	144.740000
271.786804	145.340000
271.879822	146.180000
271.972809	146.240000
272.065826	146.360000
272.158844	145.840000
272.251831	145.940000
272.344849	145.860000
272.437866	145.480000
272.530853	145.520000
272.623871	145.900000
272.716888	145.120000
272.809906	145.340000
272.902893	145.540000
272.995911	145.360000
273.088928	145.480000
273.181946	145.960000
273.274963	145.380000
273.367981	145.660000
273.460999	145.920000
273.554047	146.100000
273.647003	146.420000
273.740051	146.660000
273.833069	146.880000
273.926086	146.840000
274.019135	146.280000
274.112152	145.760000
274.205170	145.820000
274.298187	145.800000
274.391205	145.580000
274.484222	145.720000
274.577240	146.060000
274.670258	146.020000
274.763306	145.620000
274.856323	146.000000
274.949341	146.380000
275.042358	146.520000
275.135406	146.320000
275.228424	146.660000
275.321442	146.380000
275.414490	145.840000
275.507507	145.920000
275.600525	146.460000
275.693573	146.260000
275.786591	146.060000
275.879669	146.320000
275.972656	145.900000
276.065735	145.760000
276.158752	146.260000
276.251801	147.060000
276.344818	147.140000
276.437866	147.140000
276.530884	147.020000
276.623932	146.420000
276.716980	146.200000
276.809998	146.100000
276.903046	146.520000
276.996094	147.120000
277.089111	147.800000
277.182159	148.160000
277.275208	147.760000
277.368256	147.380000
277.461304	146.940000
277.554321	146.100000
277.647369	145.720000
277.740417	145.720000
277.833466	145.720000
277.926514	145.640000
278.019562	146.480000
278.112610	145.820000
278.205688	146.200000
278.298706	146.460000
278.391785	146.180000
278.484833	145.520000
278.577881	145.960000
278.670929	146.300000
278.763977	146.220000
278.857025	146.860000
278.950073	146.920000
279.043121	146.700000
279.136169	146.320000
279.229248	145.920000
279.322296	145.500000
279.415344	145.360000
279.508392	145.340000
279.601440	145.000000
279.694519	145.100000
279.787567	145.040000
279.880615	144.920000
279.973694	144.800000
280.066742	145.260000
280.159790	145.300000
280.252869	145.200000
280.345917	145.680000
280.438995	145.500000
280.532074	145.440000
280.625122	145.960000
280.718201	146.940000
280.811279	146.760000
280.904327	146.780000
280.997406	146.980000
281.090454	146.500000
281.183533	145.280000
281.276581	145.060000
281.369659	145.080000
281.462738	144.860000
281.555786	145.380000
281.648865	145.740000
281.741943	145.960000
281.835022	146.800000
281.928070	146.600000
282.021149	146.240000
282.114227	145.920000
282.207306	145.960000
282.300385	146.240000
282.393433	146.380000
282.486511	146.280000
282.579590	147.160000
282.672668	147.440000
282.765747	146.580000
282.858856	146.360000
282.951904	146.520000
283.045013	146.560000
283.138062	146.420000
283.231171	146.420000
283.324249	146.880000
283.417328	146.800000
283.510406	146.120000
283.603485	146.100000
283.696564	145.860000
283.789642	146.060000
283.882751	146.040000
283.975830	146.660000
284.068909	146.040000
284.161987	146.900000
284.255066	146.120000
284.348175	146.100000
284.441254	145.640000
284.534332	146.560000
284.627441	145.960000
284.720520	145.800000
284.813599	145.420000
284.906708	145.700000
284.999786	144.900000
285.092896	144.560000
285.185974	145.840000
285.279053	145.760000
285.372192	145.700000
285.465240	146.480000
285.558380	146.500000
285.651459	145.820000
285.744568	146.720000
285.837677	146.200000
285.930756	146.060000
286.023865	146.520000
286.116943	146.400000
286.210052	146.140000
286.303162	146.300000
286.396240	146.320000
286.489349	145.780000
286.582458	145.920000
286.675568	145.760000
286.768646	145.720000
286.861755	145.780000
286.954865	146.800000
287.047974	146.200000
287.141083	145.960000
287.234161	146.260000
287.327271	145.920000
287.420380	146.100000
287.513519	146.480000
287.606598	146.660000
287.699738	146.440000
287.792816	146.580000
287.885956	145.900000
287.979034	145.840000
288.072174	145.840000
288.165283	145.840000
288.258392	145.960000
288.351501	145.480000
288.444611	145.740000
288.537720	146.320000
288.630859	146.400000
288.723969	146.380000
288.817078	146.900000
288.910187	146.960000
289.003296	146.140000
289.096436	145.800000
289.189545	145.600000
289.282654	145.260000
289.375763	145.540000
289.468903	145.820000
289.562012	146.300000
289.655121	146.180000
289.748260	146.480000
289.841400	146.520000
289.934509	146.440000
290.027649	146.420000
290.120728	146.420000
290.213898	146.520000
290.306976	146.320000
290.400146	146.380000
290.493256	145.860000
290.586395	145.900000
290.679535	145.740000
290.772644	145.160000
290.865784	144.480000
290.958893	144.600000
291.052032	144.580000
291.145172	144.620000
291.238281	144.800000
291.331421	145.200000
291.424561	145.920000
291.517670	145.560000
291.610809	145.740000
291.703949	145.420000
291.797089	145.600000
291.890228	144.860000
291.983337	145.320000
292.076477	145.380000
292.169617	145.880000
292.262756	146.020000
292.355927	146.000000
292.449036	145.740000
292.542206	145.480000
292.635315	145.700000
292.728485	145.740000
292.821625	145.760000
292.914764	146.980000
293.007904	147.260000
293.101044	147.180000
293.194183	147.220000
293.287323	147.300000
293.380463	146.180000
293.473602	145.980000
293.566742	146.180000
293.659882	146.640000
293.753021	146.880000
293.846191	147.140000
293.939331	147.080000
294.032471	146.580000
294.125610	146.000000
294.218781	146.320000
294.311920	146.540000
294.405060	146.480000
294.498230	146.420000
294.591370	146.600000
294.684540	145.700000
294.777679	145.160000
294.870850	145.420000
294.963959	145.360000
295.057159	144.960000
295.150299	145.620000
295.243469	145.400000
295.336609	144.800000
295.429779	145.080000
295.522919	145.520000
295.616089	145.440000
295.709229	146.360000
295.802399	146.600000
295.895569	146.340000
295.988708	146.020000
296.081879	146.000000
296.175018	145.220000
296.268188	145.360000
296.361359	145.640000
296.454529	145.840000
296.547668	145.980000
296.640839	146.520000
296.734009	146.100000
296.827179	146.280000
296.920319	146.440000
297.013519	146.120000
297.106659	146.360000
297.199860	146.640000
297.292999	146.660000
297.386200	146.320000
297.479309	146.320000
297.572510	145.780000
297.665680	145.500000
297.758850	145.220000
297.852020	145.440000
297.945190	145.180000
298.038361	144.960000
298.131531	146.100000
298.224701	146.040000
298.317871	145.560000
298.411072	145.400000
298.504242	145.480000
298.597412	144.720000
298.690582	144.980000
298.783752	145.240000
298.876923	146.080000
298.970093	146.300000
299.063293	146.600000
299.156464	146.860000
299.249634	147.200000
299.342834	146.740000
299.436005	146.960000
299.529205	146.660000
299.622345	146.780000
299.715576	146.040000
299.808716	145.800000
299.901917	145.740000
299.995117	146.000000
300.088287	145.900000
300.181488	145.940000
300.274658	146.220000
300.367828	146.100000
300.461029	145.900000
300.554199	145.700000
300.647400	145.940000
300.740601	146.520000
300.833771	146.220000
300.926971	146.620000
301.020142	146.220000
301.113342	146.160000
301.206512	145.660000
301.299713	146.200000
301.392914	145.840000
301.486084	146.120000
301.579285	146.080000
301.672516	146.560000
301.765686	146.080000
301.858887	146.060000
301.952057	146.000000
302.045288	145.940000
302.138458	145.660000
302.231659	145.600000
302.324860	145.440000
302.418060	145.640000
302.511261	145.720000
302.604462	145.840000
302.697662	145.620000
302.790863	145.400000
302.884064	144.980000
302.977264	145.280000
303.070465	145.460000
303.163666	146.560000
303.256866	147.220000
303.350067	147.240000
303.443268	146.860000
303.536469	146.680000
303.629669	145.780000
303.722870	145.680000
303.816071	145.560000
303.909271	145.800000
304.002472	145.160000
304.095673	145.300000
304.188934	144.760000
304.282104	145.680000
304.375336	145.940000
304.468506	146.020000
304.561768	145.920000
304.654968	146.640000
304.748169	146.020000
304.841370	145.600000
304.934601	146.120000
305.027802	146.000000
305.121002	145.700000
305.214233	145.660000
305.307434	145.860000
305.400665	146.240000
305.493866	146.200000
