Model Number: SPM-002-B   
Serial Number: 70087108
Firmware Version: 004.15.4
Exposure Time: 100000.000000us
Data Taken on: 11-12-2020 18:46:46.428
Wavelength	Amplitude
221.570786	0.000000
221.663406	0.000000
221.756027	0.000000
221.848648	0.000000
221.941269	0.000000
222.033905	0.000000
222.126526	0.000000
222.219162	0.000000
222.311798	0.000000
222.404419	0.000000
222.497055	0.000000
222.589676	0.000000
222.682312	0.000000
222.774933	0.000000
222.867569	0.000000
222.960205	0.000000
223.052841	0.000000
223.145462	0.000000
223.238098	0.000000
223.330734	0.000000
223.423386	0.000000
223.516022	0.000000
223.608658	0.000000
223.701309	0.000000
223.793945	0.000000
223.886581	0.000000
223.979218	0.000000
224.071869	0.000000
224.164505	0.000000
224.257156	0.000000
224.349792	0.000000
224.442444	0.000000
224.535095	0.000000
224.627747	0.000000
224.720398	0.000000
224.813034	0.000000
224.905685	0.000000
224.998337	145.820000
225.090988	145.240000
225.183640	145.480000
225.276291	145.280000
225.368942	145.880000
225.461594	146.300000
225.554245	146.740000
225.646912	146.640000
225.739578	147.160000
225.832230	147.320000
225.924896	146.460000
226.017548	146.840000
226.110199	147.320000
226.202866	146.600000
226.295532	146.380000
226.388184	146.620000
226.480850	146.140000
226.573517	145.600000
226.666168	146.140000
226.758835	146.360000
226.851501	146.720000
226.944183	146.860000
227.036850	146.480000
227.129517	146.460000
227.222183	146.520000
227.314850	146.600000
227.407516	147.000000
227.500198	148.240000
227.592865	147.840000
227.685532	147.300000
227.778214	147.040000
227.870880	147.020000
227.963562	146.840000
228.056229	147.460000
228.148926	147.640000
228.241592	148.220000
228.334274	147.760000
228.426956	147.460000
228.519638	147.340000
228.612305	147.060000
228.704987	147.020000
228.797668	147.160000
228.890350	146.940000
228.983032	146.240000
229.075714	146.840000
229.168396	146.340000
229.261108	145.840000
229.353790	146.260000
229.446472	146.740000
229.539169	146.500000
229.631851	146.560000
229.724533	147.040000
229.817230	146.740000
229.909912	147.560000
230.002609	147.540000
230.095306	147.320000
230.187988	147.360000
230.280685	147.420000
230.373383	146.280000
230.466095	146.100000
230.558792	146.460000
230.651474	146.440000
230.744171	146.320000
230.836868	146.360000
230.929581	146.680000
231.022278	146.600000
231.114975	146.480000
231.207672	146.060000
231.300369	146.500000
231.393082	146.620000
231.485779	146.480000
231.578506	146.620000
231.671204	146.920000
231.763916	146.780000
231.856613	146.420000
231.949326	146.520000
232.042023	146.600000
232.134735	146.700000
232.227448	146.500000
232.320160	146.980000
232.412872	147.200000
232.505585	147.640000
232.598297	147.880000
232.691010	147.620000
232.783722	147.200000
232.876450	147.420000
232.969162	146.980000
233.061874	146.340000
233.154587	146.220000
233.247314	146.380000
233.340027	145.760000
233.432739	146.160000
233.525467	146.260000
233.618179	146.740000
233.710907	146.540000
233.803635	147.040000
233.896347	146.380000
233.989090	147.320000
234.081818	146.980000
234.174545	147.120000
234.267258	146.400000
234.359985	146.600000
234.452713	145.980000
234.545441	145.860000
234.638168	145.780000
234.730896	146.560000
234.823639	146.640000
234.916367	146.680000
235.009094	147.080000
235.101822	147.000000
235.194580	146.520000
235.287308	146.600000
235.380051	146.600000
235.472778	147.000000
235.565521	147.340000
235.658249	146.940000
235.750992	146.740000
235.843719	146.480000
235.936462	146.260000
236.029205	145.760000
236.121948	145.780000
236.214691	146.080000
236.307449	146.800000
236.400192	146.520000
236.492935	146.340000
236.585678	146.680000
236.678421	146.300000
236.771164	145.980000
236.863907	146.640000
236.956665	146.820000
237.049408	148.380000
237.142151	148.320000
237.234909	148.920000
237.327652	148.760000
237.420410	148.740000
237.513153	147.800000
237.605927	147.840000
237.698669	147.100000
237.791428	146.300000
237.884186	146.780000
237.976944	146.100000
238.069702	146.640000
238.162445	146.260000
238.255203	146.620000
238.347961	146.780000
238.440720	146.880000
238.533478	146.120000
238.626266	146.260000
238.719025	146.400000
238.811783	145.960000
238.904541	146.080000
238.997314	146.100000
239.090073	145.700000
239.182831	146.120000
239.275604	146.900000
239.368362	146.720000
239.461136	147.220000
239.553909	147.460000
239.646667	146.960000
239.739441	146.360000
239.832214	146.660000
239.925003	146.820000
240.017761	147.700000
240.110535	148.200000
240.203308	147.940000
240.296082	148.000000
240.388855	147.560000
240.481628	147.340000
240.574417	147.040000
240.667191	147.060000
240.759964	146.660000
240.852737	146.720000
240.945526	146.180000
241.038315	145.940000
241.131088	146.040000
241.223877	146.300000
241.316650	146.000000
241.409439	146.740000
241.502228	146.580000
241.595001	147.220000
241.687790	146.900000
241.780579	147.040000
241.873367	146.800000
241.966141	147.180000
242.058929	146.440000
242.151718	146.900000
242.244507	147.160000
242.337311	146.280000
242.430099	146.520000
242.522903	146.400000
242.615692	145.720000
242.708481	145.760000
242.801270	146.420000
242.894073	146.140000
242.986862	146.660000
243.079651	147.580000
243.172455	147.220000
243.265244	147.380000
243.358063	146.880000
243.450867	147.000000
243.543655	146.500000
243.636459	146.880000
243.729263	147.180000
243.822067	147.740000
243.914856	147.780000
244.007660	147.960000
244.100464	147.860000
244.193268	147.020000
244.286072	146.560000
244.378876	146.100000
244.471680	145.640000
244.564499	145.800000
244.657318	146.780000
244.750122	147.300000
244.842926	146.920000
244.935745	147.400000
245.028549	147.200000
245.121368	146.520000
245.214172	146.260000
245.306992	147.040000
245.399796	146.740000
245.492615	146.760000
245.585434	146.760000
245.678253	146.880000
245.771072	146.520000
245.863892	146.920000
245.956711	146.940000
246.049530	146.780000
246.142349	146.760000
246.235168	147.020000
246.327988	147.360000
246.420807	147.300000
246.513626	147.640000
246.606445	147.220000
246.699280	146.960000
246.792099	146.420000
246.884918	145.780000
246.977753	145.680000
247.070587	146.140000
247.163422	146.240000
247.256241	146.060000
247.349075	146.960000
247.441895	146.920000
247.534729	146.760000
247.627563	146.380000
247.720383	147.280000
247.813217	146.760000
247.906052	146.640000
247.998886	146.740000
248.091736	146.960000
248.184570	146.340000
248.277405	146.620000
248.370239	147.420000
248.463074	148.180000
248.555908	148.520000
248.648743	148.320000
248.741592	148.100000
248.834427	147.280000
248.927261	146.020000
249.020111	146.260000
249.112946	147.080000
249.205795	146.800000
249.298630	146.840000
249.391495	147.200000
249.484344	146.740000
249.577179	146.220000
249.670029	146.700000
249.762878	147.220000
249.855728	147.260000
249.948563	147.480000
250.041412	147.080000
250.134262	147.160000
250.227112	147.380000
250.319962	147.700000
250.412827	147.800000
250.505692	147.580000
250.598541	147.520000
250.691391	146.420000
250.784241	146.100000
250.877106	145.680000
250.969955	145.780000
251.062805	146.260000
251.155670	147.320000
251.248520	147.120000
251.341385	147.640000
251.434235	147.620000
251.527100	147.560000
251.619965	146.960000
251.712814	148.020000
251.805695	147.540000
251.898560	148.060000
251.991425	147.820000
252.084290	148.180000
252.177155	147.180000
252.270020	147.120000
252.362885	146.740000
252.455750	146.900000
252.548615	146.460000
252.641479	146.720000
252.734360	146.900000
252.827240	146.640000
252.920105	146.400000
253.012970	146.500000
253.105850	146.420000
253.198715	145.960000
253.291595	146.200000
253.384460	145.960000
253.477341	145.680000
253.570221	145.640000
253.663086	145.380000
253.755966	145.940000
253.848846	146.060000
253.941727	146.380000
254.034592	146.180000
254.127472	146.220000
254.220367	146.080000
254.313248	146.280000
254.406128	146.040000
254.499008	146.260000
254.591904	147.220000
254.684784	147.540000
254.777664	147.240000
254.870544	146.900000
254.963440	146.960000
255.056335	146.780000
255.149216	146.200000
255.242111	146.760000
255.334991	147.240000
255.427887	147.440000
255.520767	147.420000
255.613663	147.880000
255.706558	147.160000
255.799438	146.920000
255.892334	146.440000
255.985229	146.500000
256.078125	146.060000
256.171021	146.380000
256.263916	146.980000
256.356812	147.260000
256.449707	147.220000
256.542603	146.900000
256.635498	147.460000
256.728394	147.080000
256.821289	146.880000
256.914215	147.100000
257.007080	147.820000
257.100006	147.540000
257.192932	147.960000
257.285828	148.240000
257.378723	147.780000
257.471619	147.540000
257.564545	147.320000
257.657440	147.240000
257.750336	147.820000
257.843262	147.660000
257.936157	148.320000
258.029053	148.660000
258.121979	148.400000
258.214874	147.680000
258.307800	147.580000
258.400696	146.640000
258.493622	146.500000
258.586517	145.560000
258.679443	146.180000
258.772339	145.940000
258.865265	146.300000
258.958160	145.580000
259.051086	146.780000
259.144012	146.200000
259.236938	147.200000
259.329834	147.380000
259.422791	147.760000
259.515717	147.520000
259.608612	147.420000
259.701538	147.440000
259.794464	146.960000
259.887390	146.840000
259.980316	146.760000
260.073212	146.560000
260.166138	145.720000
260.259064	146.160000
260.351990	146.620000
260.444916	146.300000
260.537842	146.920000
260.630768	147.520000
260.723694	147.240000
260.816620	146.960000
260.909546	147.220000
261.002472	146.740000
261.095398	146.300000
261.188354	146.300000
261.281281	146.060000
261.374207	146.200000
261.467133	147.140000
261.560089	147.340000
261.653015	147.240000
261.745972	147.880000
261.838867	148.240000
261.931824	148.240000
262.024780	147.900000
262.117706	147.960000
262.210663	147.780000
262.303589	147.240000
262.396515	146.600000
262.489471	147.600000
262.582397	147.940000
262.675354	147.560000
262.768280	147.680000
262.861237	147.780000
262.954163	147.360000
263.047119	147.160000
263.140045	147.280000
263.233002	147.480000
263.325958	147.100000
263.418884	146.400000
263.511841	146.080000
263.604797	145.960000
263.697723	145.760000
263.790680	145.920000
263.883636	146.880000
263.976593	146.880000
264.069550	146.940000
264.162476	146.900000
264.255463	146.980000
264.348419	146.340000
264.441376	146.740000
264.534332	146.460000
264.627289	146.500000
264.720245	146.480000
264.813202	146.060000
264.906158	146.180000
264.999115	146.880000
265.092072	146.820000
265.185028	147.640000
265.277985	148.080000
265.370941	147.760000
265.463898	147.640000
265.556854	147.600000
265.649811	146.360000
265.742798	146.420000
265.835754	146.520000
265.928711	146.620000
266.021667	146.580000
266.114655	147.080000
266.207611	147.460000
266.300568	147.000000
266.393585	146.240000
266.486511	146.380000
266.579498	145.920000
266.672485	145.860000
266.765442	145.840000
266.858429	146.380000
266.951385	145.940000
267.044342	146.140000
267.137329	145.800000
267.230316	146.340000
267.323273	146.260000
267.416260	147.060000
267.509216	147.100000
267.602203	147.020000
267.695160	147.340000
267.788147	147.240000
267.881134	146.540000
267.974091	146.680000
268.067078	146.760000
268.160065	146.180000
268.253052	146.160000
268.346008	146.580000
268.438995	146.500000
268.531982	146.680000
268.624969	146.420000
268.717987	146.480000
268.810944	146.360000
268.903961	146.160000
268.996948	145.860000
269.089905	146.680000
269.182892	147.080000
269.275879	147.360000
269.368866	147.380000
269.461853	147.780000
269.554871	147.480000
269.647858	147.240000
269.740845	147.400000
269.833832	147.860000
269.926819	147.460000
270.019806	147.340000
270.112793	147.100000
270.205811	147.060000
270.298798	146.720000
270.391785	147.080000
270.484772	146.700000
270.577789	146.780000
270.670776	146.160000
270.763763	146.020000
270.856750	146.140000
270.949768	146.260000
271.042786	146.220000
271.135773	146.460000
271.228790	146.660000
271.321808	146.140000
271.414795	145.900000
271.507782	145.860000
271.600800	145.740000
271.693817	145.720000
271.786804	146.380000
271.879822	146.740000
271.972809	147.020000
272.065826	147.520000
272.158844	147.340000
272.251831	147.860000
272.344849	147.660000
272.437866	147.020000
272.530853	146.440000
272.623871	146.460000
272.716888	145.020000
272.809906	145.680000
272.902893	145.980000
272.995911	145.880000
273.088928	146.200000
273.181946	146.620000
273.274963	145.840000
273.367981	145.740000
273.460999	146.340000
273.554047	146.700000
273.647003	147.360000
273.740051	147.600000
273.833069	148.180000
273.926086	147.860000
274.019135	147.280000
274.112152	146.640000
274.205170	147.080000
274.298187	146.940000
274.391205	146.800000
274.484222	146.840000
274.577240	147.120000
274.670258	146.760000
274.763306	146.700000
274.856323	147.220000
274.949341	147.460000
275.042358	147.500000
275.135406	147.520000
275.228424	147.500000
275.321442	147.160000
275.414490	146.800000
275.507507	147.220000
275.600525	147.620000
275.693573	147.320000
275.786591	146.960000
275.879669	147.260000
275.972656	146.600000
276.065735	146.600000
276.158752	147.140000
276.251801	148.060000
276.344818	148.000000
276.437866	148.220000
276.530884	147.720000
276.623932	147.320000
276.716980	147.320000
276.809998	147.180000
276.903046	146.940000
276.996094	147.900000
277.089111	148.560000
277.182159	148.780000
277.275208	148.680000
277.368256	149.060000
277.461304	148.380000
277.554321	147.380000
277.647369	147.000000
277.740417	147.080000
277.833466	146.560000
277.926514	146.640000
278.019562	147.440000
278.112610	146.820000
278.205688	147.180000
278.298706	147.440000
278.391785	146.840000
278.484833	146.280000
278.577881	146.120000
278.670929	146.320000
278.763977	146.460000
278.857025	147.060000
278.950073	147.320000
279.043121	147.440000
279.136169	147.160000
279.229248	146.820000
279.322296	146.460000
279.415344	146.080000
279.508392	146.180000
279.601440	145.560000
279.694519	145.540000
279.787567	145.640000
279.880615	145.620000
279.973694	145.520000
280.066742	146.120000
280.159790	146.400000
280.252869	146.480000
280.345917	146.660000
280.438995	146.880000
280.532074	146.640000
280.625122	146.960000
280.718201	147.900000
280.811279	147.920000
280.904327	147.980000
280.997406	148.160000
281.090454	147.780000
281.183533	146.780000
281.276581	146.720000
281.369659	146.360000
281.462738	146.320000
281.555786	146.700000
281.648865	146.860000
281.741943	146.860000
281.835022	147.840000
281.928070	147.780000
282.021149	147.240000
282.114227	147.220000
282.207306	147.080000
282.300385	146.540000
282.393433	146.500000
282.486511	146.900000
282.579590	147.240000
282.672668	147.640000
282.765747	147.520000
282.858856	147.400000
282.951904	147.100000
283.045013	147.100000
283.138062	147.220000
283.231171	147.460000
283.324249	147.920000
283.417328	148.260000
283.510406	147.580000
283.603485	147.380000
283.696564	147.120000
283.789642	146.980000
283.882751	146.660000
283.975830	147.480000
284.068909	147.120000
284.161987	147.960000
284.255066	147.400000
284.348175	147.540000
284.441254	147.240000
284.534332	147.660000
284.627441	146.780000
284.720520	146.640000
284.813599	146.800000
284.906708	146.780000
284.999786	146.380000
285.092896	146.220000
285.185974	147.500000
285.279053	146.880000
285.372192	147.100000
285.465240	147.880000
285.558380	147.920000
285.651459	147.440000
285.744568	148.220000
285.837677	147.420000
285.930756	146.940000
286.023865	147.160000
286.116943	146.700000
286.210052	146.680000
286.303162	147.040000
286.396240	147.000000
286.489349	146.880000
286.582458	147.280000
286.675568	146.980000
286.768646	146.920000
286.861755	147.180000
286.954865	147.640000
287.047974	147.080000
287.141083	146.880000
287.234161	146.520000
287.327271	146.080000
287.420380	146.360000
287.513519	146.360000
287.606598	146.340000
287.699738	146.740000
287.792816	146.620000
287.885956	146.120000
287.979034	146.120000
288.072174	146.200000
288.165283	146.100000
288.258392	146.660000
288.351501	146.160000
288.444611	146.840000
288.537720	147.380000
288.630859	147.660000
288.723969	147.800000
288.817078	148.380000
288.910187	147.680000
289.003296	147.240000
289.096436	146.740000
289.189545	146.240000
289.282654	145.420000
289.375763	146.160000
289.468903	146.420000
289.562012	146.740000
289.655121	146.840000
289.748260	147.360000
289.841400	147.400000
289.934509	147.180000
290.027649	147.280000
290.120728	147.340000
290.213898	147.400000
290.306976	147.080000
290.400146	147.380000
290.493256	146.860000
290.586395	146.960000
290.679535	147.260000
290.772644	147.000000
290.865784	145.960000
290.958893	146.320000
291.052032	145.840000
291.145172	145.660000
291.238281	145.560000
291.331421	146.140000
291.424561	146.240000
291.517670	146.600000
291.610809	147.000000
291.703949	146.820000
291.797089	146.780000
291.890228	146.520000
291.983337	146.300000
292.076477	145.800000
292.169617	146.640000
292.262756	146.800000
292.355927	146.900000
292.449036	146.900000
292.542206	147.260000
292.635315	147.260000
292.728485	147.380000
292.821625	147.120000
292.914764	148.360000
293.007904	147.940000
293.101044	147.540000
293.194183	147.540000
293.287323	148.000000
293.380463	146.900000
293.473602	147.020000
293.566742	147.160000
293.659882	147.280000
293.753021	147.400000
293.846191	147.540000
293.939331	147.160000
294.032471	147.360000
294.125610	147.220000
294.218781	147.260000
294.311920	147.660000
294.405060	148.220000
294.498230	147.860000
294.591370	148.020000
294.684540	147.560000
294.777679	147.140000
294.870850	147.100000
294.963959	147.220000
295.057159	147.020000
295.150299	147.460000
295.243469	147.300000
295.336609	146.780000
295.429779	146.840000
295.522919	146.880000
295.616089	146.860000
295.709229	147.500000
295.802399	147.540000
295.895569	147.200000
295.988708	147.240000
296.081879	147.280000
296.175018	146.660000
296.268188	146.960000
296.361359	147.360000
296.454529	147.480000
296.547668	147.400000
296.640839	147.460000
296.734009	147.180000
296.827179	147.220000
296.920319	147.200000
297.013519	146.740000
297.106659	147.000000
297.199860	147.220000
297.292999	146.880000
297.386200	146.520000
297.479309	146.700000
297.572510	146.360000
297.665680	146.160000
297.758850	146.300000
297.852020	146.040000
297.945190	146.080000
298.038361	145.760000
298.131531	146.660000
298.224701	146.680000
298.317871	146.600000
298.411072	146.040000
298.504242	146.120000
298.597412	145.460000
298.690582	145.780000
298.783752	146.320000
298.876923	147.020000
298.970093	147.340000
299.063293	147.920000
299.156464	148.000000
299.249634	147.980000
299.342834	148.240000
299.436005	148.820000
299.529205	148.320000
299.622345	148.120000
299.715576	147.400000
299.808716	147.100000
299.901917	146.600000
299.995117	146.840000
300.088287	147.060000
300.181488	147.360000
300.274658	147.200000
300.367828	147.200000
300.461029	147.280000
300.554199	147.260000
300.647400	147.460000
300.740601	147.920000
300.833771	147.780000
300.926971	147.880000
301.020142	147.340000
301.113342	147.200000
301.206512	146.860000
301.299713	146.840000
301.392914	146.520000
301.486084	146.900000
301.579285	147.140000
301.672516	147.360000
301.765686	147.200000
301.858887	147.180000
301.952057	146.980000
302.045288	146.820000
302.138458	146.700000
302.231659	146.900000
302.324860	146.820000
302.418060	146.540000
302.511261	146.660000
302.604462	146.700000
302.697662	146.600000
302.790863	146.420000
302.884064	146.520000
302.977264	146.220000
303.070465	146.380000
303.163666	146.920000
303.256866	147.240000
303.350067	147.260000
303.443268	147.320000
303.536469	147.520000
303.629669	147.100000
303.722870	147.440000
303.816071	147.320000
303.909271	147.720000
304.002472	146.900000
304.095673	146.760000
304.188934	145.800000
304.282104	146.620000
304.375336	146.440000
304.468506	146.460000
304.561768	146.320000
304.654968	146.960000
304.748169	146.380000
304.841370	146.080000
304.934601	146.420000
305.027802	146.260000
305.121002	146.040000
305.214233	145.760000
305.307434	145.980000
305.400665	146.300000
305.493866	146.260000
