Model Number: SPM-002-B   
Serial Number: 70087108
Firmware Version: 004.15.4
Exposure Time: 100000.000000us
Data Taken on: 11-12-2020 18:47:19.982
Wavelength	Amplitude
221.570786	0.000000
221.663406	0.000000
221.756027	0.000000
221.848648	0.000000
221.941269	0.000000
222.033905	0.000000
222.126526	0.000000
222.219162	0.000000
222.311798	0.000000
222.404419	0.000000
222.497055	0.000000
222.589676	0.000000
222.682312	0.000000
222.774933	0.000000
222.867569	0.000000
222.960205	0.000000
223.052841	0.000000
223.145462	0.000000
223.238098	0.000000
223.330734	0.000000
223.423386	0.000000
223.516022	0.000000
223.608658	0.000000
223.701309	0.000000
223.793945	0.000000
223.886581	0.000000
223.979218	0.000000
224.071869	0.000000
224.164505	0.000000
224.257156	0.000000
224.349792	0.000000
224.442444	0.000000
224.535095	0.000000
224.627747	0.000000
224.720398	0.000000
224.813034	0.000000
224.905685	0.000000
224.998337	146.540000
225.090988	146.600000
225.183640	146.520000
225.276291	146.280000
225.368942	146.520000
225.461594	147.120000
225.554245	147.120000
225.646912	146.880000
225.739578	147.340000
225.832230	148.000000
225.924896	147.300000
226.017548	147.380000
226.110199	147.920000
226.202866	147.380000
226.295532	146.960000
226.388184	146.760000
226.480850	146.260000
226.573517	145.680000
226.666168	146.020000
226.758835	146.460000
226.851501	146.980000
226.944183	147.280000
227.036850	146.880000
227.129517	146.740000
227.222183	147.080000
227.314850	146.860000
227.407516	146.800000
227.500198	147.740000
227.592865	147.380000
227.685532	146.720000
227.778214	146.780000
227.870880	147.100000
227.963562	147.340000
228.056229	147.980000
228.148926	148.060000
228.241592	148.580000
228.334274	148.180000
228.426956	147.760000
228.519638	147.700000
228.612305	147.100000
228.704987	146.880000
228.797668	146.800000
228.890350	146.680000
228.983032	146.140000
229.075714	146.880000
229.168396	146.860000
229.261108	146.820000
229.353790	146.860000
229.446472	147.100000
229.539169	147.000000
229.631851	146.320000
229.724533	146.480000
229.817230	146.440000
229.909912	147.420000
230.002609	147.640000
230.095306	148.000000
230.187988	148.120000
230.280685	148.060000
230.373383	146.880000
230.466095	146.440000
230.558792	146.720000
230.651474	146.580000
230.744171	146.440000
230.836868	146.380000
230.929581	146.760000
231.022278	146.620000
231.114975	146.940000
231.207672	146.960000
231.300369	147.460000
231.393082	147.380000
231.485779	147.360000
231.578506	146.980000
231.671204	147.120000
231.763916	147.000000
231.856613	146.740000
231.949326	146.820000
232.042023	146.860000
232.134735	146.640000
232.227448	146.600000
232.320160	146.900000
232.412872	146.720000
232.505585	147.500000
232.598297	148.000000
232.691010	147.860000
232.783722	147.580000
232.876450	148.460000
232.969162	147.800000
233.061874	147.440000
233.154587	147.240000
233.247314	147.640000
233.340027	147.020000
233.432739	147.360000
233.525467	147.100000
233.618179	147.600000
233.710907	146.880000
233.803635	147.080000
233.896347	146.780000
233.989090	147.520000
234.081818	147.460000
234.174545	147.820000
234.267258	147.200000
234.359985	147.460000
234.452713	147.160000
234.545441	146.740000
234.638168	146.760000
234.730896	147.360000
234.823639	147.220000
234.916367	147.700000
235.009094	147.920000
235.101822	148.000000
235.194580	147.760000
235.287308	147.440000
235.380051	146.880000
235.472778	147.280000
235.565521	147.380000
235.658249	146.740000
235.750992	147.180000
235.843719	147.300000
235.936462	147.320000
236.029205	146.960000
236.121948	147.200000
236.214691	147.460000
236.307449	147.680000
236.400192	147.280000
236.492935	147.160000
236.585678	147.360000
236.678421	147.200000
236.771164	147.040000
236.863907	147.660000
236.956665	148.020000
237.049408	149.620000
237.142151	149.160000
237.234909	150.020000
237.327652	149.760000
237.420410	149.600000
237.513153	148.640000
237.605927	148.280000
237.698669	147.180000
237.791428	146.620000
237.884186	147.120000
237.976944	146.560000
238.069702	147.120000
238.162445	146.840000
238.255203	147.100000
238.347961	147.140000
238.440720	147.120000
238.533478	146.860000
238.626266	146.820000
238.719025	147.040000
238.811783	146.700000
238.904541	146.920000
238.997314	146.960000
239.090073	146.920000
239.182831	147.040000
239.275604	147.740000
239.368362	147.260000
239.461136	147.540000
239.553909	147.740000
239.646667	147.360000
239.739441	146.780000
239.832214	147.180000
239.925003	147.000000
240.017761	147.620000
240.110535	148.060000
240.203308	147.560000
240.296082	147.440000
240.388855	147.480000
240.481628	147.300000
240.574417	147.440000
240.667191	147.680000
240.759964	147.460000
240.852737	147.420000
240.945526	146.820000
241.038315	146.380000
241.131088	146.460000
241.223877	146.660000
241.316650	146.280000
241.409439	146.800000
241.502228	146.480000
241.595001	146.560000
241.687790	146.520000
241.780579	146.860000
241.873367	147.100000
241.966141	147.680000
242.058929	147.360000
242.151718	147.560000
242.244507	147.900000
242.337311	147.060000
242.430099	147.340000
242.522903	147.660000
242.615692	147.120000
242.708481	146.860000
242.801270	147.560000
242.894073	147.060000
242.986862	147.140000
243.079651	148.220000
243.172455	148.120000
243.265244	147.880000
243.358063	147.500000
243.450867	147.860000
243.543655	147.200000
243.636459	147.480000
243.729263	147.800000
243.822067	148.080000
243.914856	147.980000
244.007660	148.100000
244.100464	147.780000
244.193268	147.420000
244.286072	147.560000
244.378876	146.800000
244.471680	146.320000
244.564499	146.580000
244.657318	147.080000
244.750122	147.200000
244.842926	147.180000
244.935745	147.580000
245.028549	147.240000
245.121368	146.800000
245.214172	146.760000
245.306992	147.500000
245.399796	147.060000
245.492615	147.020000
245.585434	146.960000
245.678253	146.760000
245.771072	146.320000
245.863892	147.140000
245.956711	147.800000
246.049530	147.560000
246.142349	147.680000
246.235168	147.780000
246.327988	148.200000
246.420807	147.740000
246.513626	147.980000
246.606445	147.580000
246.699280	147.700000
246.792099	147.140000
246.884918	146.560000
246.977753	146.320000
247.070587	146.680000
247.163422	146.480000
247.256241	146.540000
247.349075	147.300000
247.441895	147.500000
247.534729	147.580000
247.627563	147.380000
247.720383	147.640000
247.813217	147.560000
247.906052	147.440000
247.998886	147.380000
248.091736	147.700000
248.184570	147.220000
248.277405	147.280000
248.370239	148.100000
248.463074	148.600000
248.555908	148.640000
248.648743	148.640000
248.741592	148.560000
248.834427	147.820000
248.927261	146.800000
249.020111	146.960000
249.112946	147.560000
249.205795	147.140000
249.298630	147.260000
249.391495	147.480000
249.484344	147.320000
249.577179	146.840000
249.670029	147.420000
249.762878	148.120000
249.855728	148.280000
249.948563	148.100000
250.041412	147.660000
250.134262	147.680000
250.227112	147.540000
250.319962	147.640000
250.412827	147.540000
250.505692	147.380000
250.598541	147.320000
250.691391	146.800000
250.784241	146.840000
250.877106	147.400000
250.969955	147.620000
251.062805	147.880000
251.155670	148.500000
251.248520	148.440000
251.341385	148.340000
251.434235	148.480000
251.527100	148.200000
251.619965	147.140000
251.712814	147.700000
251.805695	147.420000
251.898560	147.320000
251.991425	147.620000
252.084290	148.120000
252.177155	147.240000
252.270020	147.340000
252.362885	147.280000
252.455750	147.100000
252.548615	147.000000
252.641479	146.980000
252.734360	146.540000
252.827240	146.820000
252.920105	146.800000
253.012970	146.660000
253.105850	146.920000
253.198715	146.800000
253.291595	146.600000
253.384460	146.200000
253.477341	146.280000
253.570221	146.320000
253.663086	146.620000
253.755966	147.080000
253.848846	147.240000
253.941727	147.620000
254.034592	147.720000
254.127472	147.240000
254.220367	147.180000
254.313248	147.120000
254.406128	146.440000
254.499008	146.400000
254.591904	147.280000
254.684784	147.520000
254.777664	147.660000
254.870544	147.700000
254.963440	147.480000
255.056335	147.520000
255.149216	147.160000
255.242111	147.580000
255.334991	148.400000
255.427887	148.680000
255.520767	148.300000
255.613663	148.000000
255.706558	147.340000
255.799438	146.680000
255.892334	146.360000
255.985229	146.360000
256.078125	146.400000
256.171021	146.540000
256.263916	146.780000
256.356812	147.240000
256.449707	147.240000
256.542603	147.120000
256.635498	147.580000
256.728394	147.480000
256.821289	146.940000
256.914215	147.220000
257.007080	147.600000
257.100006	147.460000
257.192932	147.820000
257.285828	148.260000
257.378723	147.860000
257.471619	147.620000
257.564545	147.240000
257.657440	147.280000
257.750336	147.360000
257.843262	147.140000
257.936157	148.320000
258.029053	148.440000
258.121979	148.280000
258.214874	147.940000
258.307800	148.080000
258.400696	146.980000
258.493622	147.140000
258.586517	146.320000
258.679443	146.680000
258.772339	146.540000
258.865265	146.040000
258.958160	145.460000
259.051086	146.420000
259.144012	146.080000
259.236938	146.800000
259.329834	147.100000
259.422791	146.940000
259.515717	146.420000
259.608612	146.320000
259.701538	146.180000
259.794464	146.480000
259.887390	146.860000
259.980316	146.660000
260.073212	146.720000
260.166138	145.820000
260.259064	145.900000
260.351990	146.520000
260.444916	146.680000
260.537842	147.020000
260.630768	148.060000
260.723694	147.820000
260.816620	147.520000
260.909546	147.520000
261.002472	147.120000
261.095398	146.520000
261.188354	146.820000
261.281281	146.100000
261.374207	146.380000
261.467133	147.280000
261.560089	147.380000
261.653015	147.120000
261.745972	148.140000
261.838867	148.160000
261.931824	148.160000
262.024780	148.120000
262.117706	148.220000
262.210663	148.320000
262.303589	148.380000
262.396515	147.960000
262.489471	148.860000
262.582397	148.860000
262.675354	147.980000
262.768280	147.960000
262.861237	148.140000
262.954163	147.800000
263.047119	147.760000
263.140045	147.760000
263.233002	147.500000
263.325958	146.880000
263.418884	146.220000
263.511841	146.000000
263.604797	146.000000
263.697723	146.140000
263.790680	146.420000
263.883636	146.940000
263.976593	147.120000
264.069550	147.560000
264.162476	147.040000
264.255463	147.060000
264.348419	146.660000
264.441376	146.800000
264.534332	146.500000
264.627289	147.120000
264.720245	147.520000
264.813202	147.300000
264.906158	147.600000
264.999115	147.960000
265.092072	147.740000
265.185028	147.920000
265.277985	148.080000
265.370941	147.600000
265.463898	147.080000
265.556854	146.880000
265.649811	145.820000
265.742798	146.240000
265.835754	146.500000
265.928711	147.300000
266.021667	147.360000
266.114655	147.600000
266.207611	147.580000
266.300568	146.800000
266.393585	146.260000
266.486511	146.780000
266.579498	146.420000
266.672485	146.100000
266.765442	146.460000
266.858429	146.800000
266.951385	146.020000
267.044342	146.560000
267.137329	146.520000
267.230316	146.880000
267.323273	146.520000
267.416260	147.460000
267.509216	147.440000
267.602203	147.600000
267.695160	147.960000
267.788147	148.020000
267.881134	147.260000
267.974091	147.080000
268.067078	146.860000
268.160065	146.480000
268.253052	146.320000
268.346008	146.600000
268.438995	146.800000
268.531982	147.520000
268.624969	147.340000
268.717987	147.800000
268.810944	147.700000
268.903961	147.800000
268.996948	146.980000
269.089905	147.480000
269.182892	147.440000
269.275879	147.680000
269.368866	146.620000
269.461853	147.080000
269.554871	146.580000
269.647858	146.440000
269.740845	146.720000
269.833832	147.940000
269.926819	147.600000
270.019806	147.880000
270.112793	147.420000
270.205811	147.280000
270.298798	146.780000
270.391785	147.340000
270.484772	146.940000
270.577789	147.040000
270.670776	146.800000
270.763763	147.020000
270.856750	146.960000
270.949768	146.780000
271.042786	147.200000
271.135773	147.180000
271.228790	147.380000
271.321808	146.460000
271.414795	146.460000
271.507782	145.920000
271.600800	145.800000
271.693817	145.680000
271.786804	146.740000
271.879822	147.340000
271.972809	147.460000
272.065826	148.080000
272.158844	147.480000
272.251831	147.700000
272.344849	147.260000
272.437866	147.080000
272.530853	146.560000
272.623871	147.080000
272.716888	145.580000
272.809906	145.900000
272.902893	146.120000
272.995911	145.660000
273.088928	145.520000
273.181946	146.560000
273.274963	146.320000
273.367981	146.080000
273.460999	146.320000
273.554047	147.040000
273.647003	147.360000
273.740051	147.200000
273.833069	148.020000
273.926086	148.300000
274.019135	147.760000
274.112152	147.200000
274.205170	147.460000
274.298187	147.380000
274.391205	146.760000
274.484222	146.560000
274.577240	146.620000
274.670258	146.260000
274.763306	145.880000
274.856323	146.660000
274.949341	146.920000
275.042358	147.100000
275.135406	147.460000
275.228424	147.500000
275.321442	147.260000
275.414490	147.040000
275.507507	147.480000
275.600525	147.820000
275.693573	147.600000
275.786591	147.400000
275.879669	147.600000
275.972656	146.840000
276.065735	146.640000
276.158752	147.420000
276.251801	148.120000
276.344818	148.160000
276.437866	148.480000
276.530884	148.180000
276.623932	147.220000
276.716980	147.160000
276.809998	147.020000
276.903046	146.920000
276.996094	147.640000
277.089111	148.500000
277.182159	148.880000
277.275208	148.680000
277.368256	148.600000
277.461304	148.060000
277.554321	147.340000
277.647369	146.860000
277.740417	146.960000
277.833466	147.100000
277.926514	147.160000
278.019562	147.940000
278.112610	147.300000
278.205688	147.400000
278.298706	147.400000
278.391785	147.240000
278.484833	146.660000
278.577881	146.980000
278.670929	147.520000
278.763977	147.700000
278.857025	148.040000
278.950073	147.920000
279.043121	147.780000
279.136169	147.220000
279.229248	146.660000
279.322296	146.760000
279.415344	146.640000
279.508392	146.580000
279.601440	146.600000
279.694519	146.660000
279.787567	146.380000
279.880615	146.720000
279.973694	146.840000
280.066742	146.920000
280.159790	147.140000
280.252869	146.980000
280.345917	146.760000
280.438995	146.640000
280.532074	146.280000
280.625122	146.720000
280.718201	147.720000
280.811279	147.620000
280.904327	147.800000
280.997406	148.260000
281.090454	147.840000
281.183533	146.600000
281.276581	146.920000
281.369659	146.580000
281.462738	146.440000
281.555786	146.740000
281.648865	147.040000
281.741943	146.940000
281.835022	147.660000
281.928070	147.420000
282.021149	146.980000
282.114227	147.100000
282.207306	146.860000
282.300385	146.980000
282.393433	147.460000
282.486511	147.540000
282.579590	147.680000
282.672668	148.180000
282.765747	147.560000
282.858856	146.960000
282.951904	147.120000
283.045013	147.320000
283.138062	147.580000
283.231171	148.060000
283.324249	148.380000
283.417328	148.460000
283.510406	147.940000
283.603485	147.600000
283.696564	147.160000
283.789642	147.320000
283.882751	147.260000
283.975830	147.880000
284.068909	147.600000
284.161987	148.520000
284.255066	147.880000
284.348175	148.100000
284.441254	147.640000
284.534332	148.060000
284.627441	147.180000
284.720520	146.980000
284.813599	146.640000
284.906708	146.820000
284.999786	146.080000
285.092896	145.880000
285.185974	147.120000
285.279053	146.900000
285.372192	146.920000
285.465240	147.880000
285.558380	148.120000
285.651459	147.380000
285.744568	148.380000
285.837677	148.220000
285.930756	148.120000
286.023865	148.240000
286.116943	148.100000
286.210052	147.640000
286.303162	147.760000
286.396240	147.480000
286.489349	147.100000
286.582458	147.540000
286.675568	147.480000
286.768646	147.300000
286.861755	147.580000
286.954865	148.080000
287.047974	147.240000
287.141083	146.460000
287.234161	146.200000
287.327271	145.740000
287.420380	146.220000
287.513519	146.600000
287.606598	147.220000
287.699738	147.880000
287.792816	148.280000
287.885956	147.760000
287.979034	148.040000
288.072174	148.000000
288.165283	147.460000
288.258392	147.480000
288.351501	147.260000
288.444611	147.480000
288.537720	147.600000
288.630859	147.760000
288.723969	147.640000
288.817078	147.740000
288.910187	147.620000
289.003296	147.020000
289.096436	146.540000
289.189545	146.260000
289.282654	145.820000
289.375763	146.100000
289.468903	146.820000
289.562012	147.200000
289.655121	147.420000
289.748260	147.740000
289.841400	147.720000
289.934509	147.500000
290.027649	147.760000
290.120728	147.200000
290.213898	147.280000
290.306976	146.980000
290.400146	147.000000
290.493256	146.420000
290.586395	146.700000
290.679535	146.780000
290.772644	146.680000
290.865784	145.980000
290.958893	146.040000
291.052032	145.980000
291.145172	145.740000
291.238281	145.360000
291.331421	145.700000
291.424561	146.280000
291.517670	145.960000
291.610809	146.400000
291.703949	146.420000
291.797089	146.700000
291.890228	146.160000
291.983337	146.380000
292.076477	145.700000
292.169617	146.200000
292.262756	146.140000
292.355927	146.040000
292.449036	146.060000
292.542206	146.320000
292.635315	146.520000
292.728485	146.720000
292.821625	146.720000
292.914764	147.760000
293.007904	148.100000
293.101044	147.800000
293.194183	147.780000
293.287323	147.980000
293.380463	147.280000
293.473602	147.020000
293.566742	147.340000
293.659882	147.540000
293.753021	147.540000
293.846191	147.200000
293.939331	146.660000
294.032471	146.120000
294.125610	145.740000
294.218781	146.140000
294.311920	146.640000
294.405060	147.160000
294.498230	147.460000
294.591370	147.480000
294.684540	147.140000
294.777679	146.680000
294.870850	147.100000
294.963959	146.840000
295.057159	147.000000
295.150299	147.220000
295.243469	147.500000
295.336609	146.720000
295.429779	146.880000
295.522919	147.140000
295.616089	147.020000
295.709229	147.340000
295.802399	147.780000
295.895569	147.680000
295.988708	147.180000
296.081879	147.180000
296.175018	146.400000
296.268188	146.060000
296.361359	146.780000
296.454529	147.040000
296.547668	146.840000
296.640839	147.640000
296.734009	147.520000
296.827179	147.380000
296.920319	147.640000
297.013519	147.860000
297.106659	147.680000
297.199860	148.060000
297.292999	147.640000
297.386200	147.160000
297.479309	146.860000
297.572510	146.540000
297.665680	146.180000
297.758850	146.260000
297.852020	146.200000
297.945190	146.340000
298.038361	146.220000
298.131531	147.160000
298.224701	146.860000
298.317871	146.980000
298.411072	146.380000
298.504242	146.220000
298.597412	145.540000
298.690582	145.920000
298.783752	145.760000
298.876923	146.480000
298.970093	146.700000
299.063293	147.120000
299.156464	147.160000
299.249634	147.380000
299.342834	147.600000
299.436005	148.220000
299.529205	147.900000
299.622345	148.000000
299.715576	147.720000
299.808716	147.220000
299.901917	146.920000
299.995117	147.300000
300.088287	147.400000
300.181488	147.040000
300.274658	147.040000
300.367828	146.840000
300.461029	146.760000
300.554199	146.900000
300.647400	147.240000
300.740601	147.660000
300.833771	147.720000
300.926971	148.020000
301.020142	147.300000
301.113342	147.440000
301.206512	147.260000
301.299713	147.600000
301.392914	147.380000
301.486084	147.900000
301.579285	147.780000
301.672516	148.200000
301.765686	147.740000
301.858887	147.600000
301.952057	147.360000
302.045288	147.320000
302.138458	146.900000
302.231659	146.780000
302.324860	146.340000
302.418060	146.160000
302.511261	146.060000
302.604462	146.220000
302.697662	146.160000
302.790863	146.360000
302.884064	146.100000
302.977264	146.340000
303.070465	146.780000
303.163666	147.420000
303.256866	147.980000
303.350067	148.440000
303.443268	148.540000
303.536469	148.080000
303.629669	147.600000
303.722870	147.260000
303.816071	146.640000
303.909271	146.800000
304.002472	146.340000
304.095673	146.020000
304.188934	145.600000
304.282104	146.740000
304.375336	146.580000
304.468506	146.400000
304.561768	146.440000
304.654968	146.920000
304.748169	146.320000
304.841370	145.940000
304.934601	146.660000
305.027802	146.600000
305.121002	146.320000
305.214233	146.360000
305.307434	146.780000
305.400665	147.100000
305.493866	147.340000
