Model Number: SPM-002-B   
Serial Number: 70087108
Firmware Version: 004.15.4
Exposure Time: 100000.000000us
Data Taken on: 11-12-2020 18:47:38.623
Wavelength	Amplitude
221.570786	0.000000
221.663406	0.000000
221.756027	0.000000
221.848648	0.000000
221.941269	0.000000
222.033905	0.000000
222.126526	0.000000
222.219162	0.000000
222.311798	0.000000
222.404419	0.000000
222.497055	0.000000
222.589676	0.000000
222.682312	0.000000
222.774933	0.000000
222.867569	0.000000
222.960205	0.000000
223.052841	0.000000
223.145462	0.000000
223.238098	0.000000
223.330734	0.000000
223.423386	0.000000
223.516022	0.000000
223.608658	0.000000
223.701309	0.000000
223.793945	0.000000
223.886581	0.000000
223.979218	0.000000
224.071869	0.000000
224.164505	0.000000
224.257156	0.000000
224.349792	0.000000
224.442444	0.000000
224.535095	0.000000
224.627747	0.000000
224.720398	0.000000
224.813034	0.000000
224.905685	0.000000
224.998337	145.180000
225.090988	145.060000
225.183640	145.260000
225.276291	145.000000
225.368942	145.380000
225.461594	146.160000
225.554245	146.280000
225.646912	146.340000
225.739578	147.000000
225.832230	147.720000
225.924896	147.280000
226.017548	147.820000
226.110199	148.160000
226.202866	147.440000
226.295532	146.860000
226.388184	146.280000
226.480850	145.280000
226.573517	144.780000
226.666168	145.080000
226.758835	145.380000
226.851501	146.140000
226.944183	146.300000
227.036850	146.060000
227.129517	146.000000
227.222183	145.740000
227.314850	145.660000
227.407516	146.020000
227.500198	146.900000
227.592865	146.400000
227.685532	146.320000
227.778214	146.040000
227.870880	146.520000
227.963562	146.420000
228.056229	147.080000
228.148926	146.880000
228.241592	147.500000
228.334274	146.960000
228.426956	146.720000
228.519638	146.700000
228.612305	146.660000
228.704987	146.600000
228.797668	146.600000
228.890350	146.380000
228.983032	145.920000
229.075714	146.720000
229.168396	146.460000
229.261108	145.920000
229.353790	145.860000
229.446472	145.980000
229.539169	145.660000
229.631851	145.440000
229.724533	146.060000
229.817230	146.380000
229.909912	147.380000
230.002609	147.180000
230.095306	147.000000
230.187988	146.900000
230.280685	146.560000
230.373383	145.460000
230.466095	145.580000
230.558792	146.020000
230.651474	145.840000
230.744171	145.800000
230.836868	145.600000
230.929581	145.700000
231.022278	145.540000
231.114975	145.660000
231.207672	145.520000
231.300369	146.380000
231.393082	146.340000
231.485779	146.380000
231.578506	146.320000
231.671204	146.840000
231.763916	146.620000
231.856613	146.520000
231.949326	146.340000
232.042023	146.140000
232.134735	145.940000
232.227448	145.300000
232.320160	145.680000
232.412872	145.800000
232.505585	146.680000
232.598297	147.120000
232.691010	147.520000
232.783722	146.880000
232.876450	147.180000
232.969162	146.280000
233.061874	145.260000
233.154587	145.080000
233.247314	145.440000
233.340027	144.880000
233.432739	145.540000
233.525467	145.680000
233.618179	145.860000
233.710907	145.660000
233.803635	146.540000
233.896347	146.260000
233.989090	147.060000
234.081818	147.140000
234.174545	147.160000
234.267258	146.200000
234.359985	146.260000
234.452713	146.200000
234.545441	146.040000
234.638168	146.120000
234.730896	146.900000
234.823639	146.800000
234.916367	146.920000
235.009094	146.960000
235.101822	146.860000
235.194580	146.560000
235.287308	146.500000
235.380051	145.740000
235.472778	145.940000
235.565521	146.340000
235.658249	146.040000
235.750992	146.160000
235.843719	146.300000
235.936462	146.380000
236.029205	145.840000
236.121948	145.440000
236.214691	145.760000
236.307449	146.500000
236.400192	146.140000
236.492935	146.080000
236.585678	146.360000
236.678421	146.140000
236.771164	146.020000
236.863907	146.520000
236.956665	146.980000
237.049408	148.940000
237.142151	148.460000
237.234909	148.560000
237.327652	148.580000
237.420410	148.300000
237.513153	146.900000
237.605927	147.340000
237.698669	146.920000
237.791428	146.180000
237.884186	146.440000
237.976944	145.820000
238.069702	145.940000
238.162445	145.460000
238.255203	145.840000
238.347961	145.940000
238.440720	146.140000
238.533478	146.020000
238.626266	146.160000
238.719025	146.200000
238.811783	146.200000
238.904541	146.140000
238.997314	146.160000
239.090073	145.960000
239.182831	146.220000
239.275604	146.860000
239.368362	146.800000
239.461136	146.600000
239.553909	146.920000
239.646667	146.420000
239.739441	145.640000
239.832214	146.100000
239.925003	146.400000
240.017761	146.980000
240.110535	147.460000
240.203308	147.220000
240.296082	147.300000
240.388855	147.020000
240.481628	146.840000
240.574417	146.880000
240.667191	146.940000
240.759964	146.400000
240.852737	146.380000
240.945526	145.980000
241.038315	145.700000
241.131088	145.700000
241.223877	146.200000
241.316650	145.840000
241.409439	146.160000
241.502228	145.600000
241.595001	146.320000
241.687790	145.780000
241.780579	145.920000
241.873367	145.960000
241.966141	146.540000
242.058929	145.760000
242.151718	146.100000
242.244507	146.500000
242.337311	145.840000
242.430099	146.220000
242.522903	146.740000
242.615692	146.540000
242.708481	146.440000
242.801270	146.880000
242.894073	146.640000
242.986862	146.420000
243.079651	146.920000
243.172455	146.520000
243.265244	146.840000
243.358063	146.460000
243.450867	146.580000
243.543655	146.340000
243.636459	146.880000
243.729263	146.900000
243.822067	147.200000
243.914856	147.660000
244.007660	147.640000
244.100464	147.340000
244.193268	146.900000
244.286072	146.500000
244.378876	145.660000
244.471680	145.540000
244.564499	145.860000
244.657318	146.480000
244.750122	147.160000
244.842926	146.620000
244.935745	146.880000
245.028549	146.520000
245.121368	146.040000
245.214172	145.580000
245.306992	146.540000
245.399796	146.240000
245.492615	146.340000
245.585434	146.420000
245.678253	146.600000
245.771072	146.000000
245.863892	146.380000
245.956711	146.800000
246.049530	146.480000
246.142349	146.200000
246.235168	146.760000
246.327988	147.060000
246.420807	146.540000
246.513626	146.760000
246.606445	146.700000
246.699280	146.400000
246.792099	145.980000
246.884918	145.860000
246.977753	145.640000
247.070587	145.840000
247.163422	145.920000
247.256241	145.880000
247.349075	146.480000
247.441895	146.400000
247.534729	146.220000
247.627563	145.860000
247.720383	146.080000
247.813217	145.820000
247.906052	145.900000
247.998886	146.220000
248.091736	146.440000
248.184570	146.360000
248.277405	146.400000
248.370239	147.280000
248.463074	147.920000
248.555908	148.240000
248.648743	147.840000
248.741592	147.760000
248.834427	146.820000
248.927261	145.620000
249.020111	145.880000
249.112946	146.840000
249.205795	146.720000
249.298630	146.980000
249.391495	147.200000
249.484344	146.640000
249.577179	146.440000
249.670029	146.520000
249.762878	146.980000
249.855728	147.320000
249.948563	147.420000
250.041412	146.680000
250.134262	146.960000
250.227112	146.960000
250.319962	146.740000
250.412827	146.720000
250.505692	146.360000
250.598541	145.980000
250.691391	145.420000
250.784241	145.500000
250.877106	145.660000
250.969955	145.800000
251.062805	146.420000
251.155670	147.040000
251.248520	146.860000
251.341385	147.040000
251.434235	147.040000
251.527100	146.680000
251.619965	145.860000
251.712814	146.400000
251.805695	146.040000
251.898560	146.440000
251.991425	146.660000
252.084290	147.300000
252.177155	146.500000
252.270020	146.380000
252.362885	146.340000
252.455750	146.260000
252.548615	145.820000
252.641479	145.980000
252.734360	145.840000
252.827240	145.840000
252.920105	145.900000
253.012970	145.840000
253.105850	145.740000
253.198715	145.840000
253.291595	145.920000
253.384460	145.300000
253.477341	145.420000
253.570221	145.900000
253.663086	145.480000
253.755966	145.660000
253.848846	145.740000
253.941727	145.960000
254.034592	145.740000
254.127472	145.780000
254.220367	146.100000
254.313248	146.680000
254.406128	146.220000
254.499008	146.600000
254.591904	147.560000
254.684784	147.520000
254.777664	147.180000
254.870544	147.200000
254.963440	146.820000
255.056335	146.760000
255.149216	146.180000
255.242111	146.520000
255.334991	146.840000
255.427887	147.160000
255.520767	146.960000
255.613663	147.260000
255.706558	146.780000
255.799438	146.440000
255.892334	146.040000
255.985229	145.960000
256.078125	146.000000
256.171021	145.960000
256.263916	146.380000
256.356812	146.860000
256.449707	146.820000
256.542603	146.420000
256.635498	146.900000
256.728394	146.900000
256.821289	146.500000
256.914215	147.020000
257.007080	147.460000
257.100006	147.540000
257.192932	147.620000
257.285828	147.860000
257.378723	147.260000
257.471619	146.860000
257.564545	146.300000
257.657440	146.340000
257.750336	146.620000
257.843262	146.280000
257.936157	147.420000
258.029053	147.760000
258.121979	147.700000
258.214874	147.100000
258.307800	147.120000
258.400696	146.080000
258.493622	145.960000
258.586517	145.060000
258.679443	145.740000
258.772339	145.600000
258.865265	145.460000
258.958160	144.900000
259.051086	145.940000
259.144012	145.560000
259.236938	146.520000
259.329834	146.520000
259.422791	146.980000
259.515717	146.180000
259.608612	145.840000
259.701538	145.480000
259.794464	145.360000
259.887390	145.220000
259.980316	145.340000
260.073212	145.540000
260.166138	144.680000
260.259064	145.120000
260.351990	145.680000
260.444916	145.920000
260.537842	146.100000
260.630768	147.100000
260.723694	146.940000
260.816620	146.520000
260.909546	146.420000
261.002472	146.120000
261.095398	145.320000
261.188354	145.300000
261.281281	145.160000
261.374207	145.160000
261.467133	145.760000
261.560089	146.200000
261.653015	145.960000
261.745972	146.380000
261.838867	147.020000
261.931824	147.040000
262.024780	146.660000
262.117706	146.960000
262.210663	147.100000
262.303589	146.400000
262.396515	146.280000
262.489471	147.280000
262.582397	147.160000
262.675354	146.440000
262.768280	146.680000
262.861237	146.520000
262.954163	146.180000
263.047119	146.140000
263.140045	146.340000
263.233002	146.380000
263.325958	146.160000
263.418884	145.660000
263.511841	145.740000
263.604797	145.700000
263.697723	145.540000
263.790680	145.520000
263.883636	146.180000
263.976593	145.800000
264.069550	146.020000
264.162476	145.760000
264.255463	146.160000
264.348419	146.040000
264.441376	146.660000
264.534332	146.320000
264.627289	146.680000
264.720245	146.820000
264.813202	146.320000
264.906158	146.340000
264.999115	146.900000
265.092072	146.800000
265.185028	147.040000
265.277985	147.480000
265.370941	147.440000
265.463898	147.100000
265.556854	146.720000
265.649811	145.760000
265.742798	145.620000
265.835754	145.320000
265.928711	145.820000
266.021667	146.100000
266.114655	146.620000
266.207611	146.640000
266.300568	146.340000
266.393585	145.540000
266.486511	145.980000
266.579498	145.280000
266.672485	145.340000
266.765442	145.400000
266.858429	146.140000
266.951385	145.200000
267.044342	145.420000
267.137329	145.080000
267.230316	145.800000
267.323273	145.360000
267.416260	146.420000
267.509216	146.400000
267.602203	146.560000
267.695160	146.640000
267.788147	146.620000
267.881134	146.000000
267.974091	146.160000
268.067078	146.280000
268.160065	146.080000
268.253052	146.020000
268.346008	146.320000
268.438995	146.520000
268.531982	146.500000
268.624969	146.200000
268.717987	146.780000
268.810944	146.700000
268.903961	146.600000
268.996948	146.240000
269.089905	146.700000
269.182892	146.280000
269.275879	146.640000
269.368866	146.220000
269.461853	146.620000
269.554871	146.680000
269.647858	146.920000
269.740845	147.160000
269.833832	147.680000
269.926819	147.340000
270.019806	146.840000
270.112793	146.360000
270.205811	146.220000
270.298798	146.020000
270.391785	146.560000
270.484772	146.520000
270.577789	146.900000
270.670776	146.340000
270.763763	146.220000
270.856750	145.840000
270.949768	145.500000
271.042786	145.400000
271.135773	145.560000
271.228790	146.000000
271.321808	145.740000
271.414795	145.620000
271.507782	145.380000
271.600800	145.160000
271.693817	145.160000
271.786804	145.820000
271.879822	146.440000
271.972809	146.560000
272.065826	147.120000
272.158844	146.720000
272.251831	147.220000
272.344849	146.780000
272.437866	146.720000
272.530853	146.580000
272.623871	146.860000
272.716888	145.760000
272.809906	146.340000
272.902893	146.100000
272.995911	145.860000
273.088928	145.760000
273.181946	145.960000
273.274963	145.680000
273.367981	145.920000
273.460999	146.000000
273.554047	146.460000
273.647003	147.220000
273.740051	146.940000
273.833069	147.120000
273.926086	147.120000
274.019135	146.660000
274.112152	146.140000
274.205170	146.300000
274.298187	146.480000
274.391205	146.080000
274.484222	146.200000
274.577240	146.020000
274.670258	146.060000
274.763306	145.700000
274.856323	146.240000
274.949341	146.000000
275.042358	146.620000
275.135406	146.600000
275.228424	146.900000
275.321442	146.620000
275.414490	146.500000
275.507507	146.460000
275.600525	146.840000
275.693573	146.380000
275.786591	146.200000
275.879669	146.500000
275.972656	146.160000
276.065735	145.940000
276.158752	146.440000
276.251801	147.200000
276.344818	147.140000
276.437866	147.060000
276.530884	146.940000
276.623932	146.420000
276.716980	146.560000
276.809998	146.620000
276.903046	146.760000
276.996094	147.680000
277.089111	148.360000
277.182159	148.540000
277.275208	148.260000
277.368256	148.020000
277.461304	147.520000
277.554321	146.760000
277.647369	146.220000
277.740417	146.320000
277.833466	146.180000
277.926514	146.000000
278.019562	146.680000
278.112610	146.260000
278.205688	146.680000
278.298706	147.200000
278.391785	146.760000
278.484833	146.360000
278.577881	146.140000
278.670929	145.960000
278.763977	145.740000
278.857025	146.020000
278.950073	145.960000
279.043121	145.900000
279.136169	145.780000
279.229248	145.600000
279.322296	145.800000
279.415344	145.640000
279.508392	145.840000
279.601440	145.840000
279.694519	145.820000
279.787567	145.660000
279.880615	145.780000
279.973694	145.840000
280.066742	145.980000
280.159790	145.980000
280.252869	145.480000
280.345917	145.620000
280.438995	145.620000
280.532074	145.460000
280.625122	145.600000
280.718201	146.820000
280.811279	146.840000
280.904327	146.900000
280.997406	146.940000
281.090454	146.980000
281.183533	146.500000
281.276581	146.200000
281.369659	145.840000
281.462738	145.760000
281.555786	145.940000
281.648865	145.700000
281.741943	145.740000
281.835022	146.500000
281.928070	146.440000
282.021149	145.840000
282.114227	145.740000
282.207306	145.920000
282.300385	146.020000
282.393433	146.160000
282.486511	146.760000
282.579590	146.960000
282.672668	147.140000
282.765747	146.560000
282.858856	146.320000
282.951904	146.160000
283.045013	146.440000
283.138062	146.640000
283.231171	146.920000
283.324249	147.280000
283.417328	147.140000
283.510406	146.460000
283.603485	146.100000
283.696564	145.760000
283.789642	145.600000
283.882751	145.540000
283.975830	146.320000
284.068909	146.180000
284.161987	147.040000
284.255066	146.560000
284.348175	146.720000
284.441254	146.540000
284.534332	147.040000
284.627441	146.580000
284.720520	146.740000
284.813599	146.840000
284.906708	147.000000
284.999786	146.160000
285.092896	145.760000
285.185974	146.500000
285.279053	146.140000
285.372192	145.840000
285.465240	146.780000
285.558380	146.960000
285.651459	146.680000
285.744568	147.600000
285.837677	147.300000
285.930756	147.160000
286.023865	147.200000
286.116943	146.960000
286.210052	146.620000
286.303162	146.760000
286.396240	146.520000
286.489349	146.020000
286.582458	146.240000
286.675568	145.720000
286.768646	145.840000
286.861755	146.140000
286.954865	147.260000
287.047974	146.560000
287.141083	146.620000
287.234161	146.320000
287.327271	146.160000
287.420380	146.240000
287.513519	146.680000
287.606598	146.720000
287.699738	147.060000
287.792816	146.680000
287.885956	146.120000
287.979034	146.300000
288.072174	146.540000
288.165283	146.240000
288.258392	146.640000
288.351501	146.420000
288.444611	146.580000
288.537720	146.440000
288.630859	146.580000
288.723969	146.760000
288.817078	147.180000
288.910187	146.960000
289.003296	146.520000
289.096436	146.160000
289.189545	145.720000
289.282654	145.240000
289.375763	145.500000
289.468903	146.220000
289.562012	146.600000
289.655121	146.680000
289.748260	147.060000
289.841400	147.080000
289.934509	146.680000
290.027649	146.920000
290.120728	146.960000
290.213898	146.980000
290.306976	146.800000
290.400146	146.840000
290.493256	146.260000
290.586395	146.300000
290.679535	146.620000
290.772644	146.400000
290.865784	146.080000
290.958893	146.160000
291.052032	146.180000
291.145172	145.400000
291.238281	145.240000
291.331421	145.200000
291.424561	145.900000
291.517670	145.640000
291.610809	146.000000
291.703949	146.280000
291.797089	146.900000
291.890228	146.160000
291.983337	146.040000
292.076477	145.860000
292.169617	145.920000
292.262756	145.640000
292.355927	145.780000
292.449036	146.080000
292.542206	146.080000
292.635315	146.240000
292.728485	146.680000
292.821625	146.300000
292.914764	147.100000
293.007904	147.380000
293.101044	147.120000
293.194183	146.880000
293.287323	147.280000
293.380463	146.480000
293.473602	146.000000
293.566742	146.200000
293.659882	146.380000
293.753021	146.740000
293.846191	147.000000
293.939331	146.860000
294.032471	146.640000
294.125610	146.360000
294.218781	146.520000
294.311920	146.660000
294.405060	147.080000
294.498230	147.000000
294.591370	147.140000
294.684540	146.240000
294.777679	145.900000
294.870850	146.180000
294.963959	146.220000
295.057159	145.800000
295.150299	146.320000
295.243469	146.040000
295.336609	145.460000
295.429779	145.580000
295.522919	145.880000
295.616089	145.880000
295.709229	146.340000
295.802399	146.460000
295.895569	145.840000
295.988708	145.780000
296.081879	145.580000
296.175018	145.120000
296.268188	145.140000
296.361359	145.680000
296.454529	145.820000
296.547668	145.920000
296.640839	146.300000
296.734009	145.880000
296.827179	146.020000
296.920319	146.160000
297.013519	145.860000
297.106659	145.800000
297.199860	146.120000
297.292999	146.080000
297.386200	145.740000
297.479309	145.760000
297.572510	145.720000
297.665680	145.700000
297.758850	145.440000
297.852020	145.420000
297.945190	145.440000
298.038361	145.200000
298.131531	146.100000
298.224701	146.360000
298.317871	146.200000
298.411072	145.700000
298.504242	145.640000
298.597412	144.620000
298.690582	144.720000
298.783752	144.640000
298.876923	145.640000
298.970093	145.900000
299.063293	146.480000
299.156464	146.580000
299.249634	147.080000
299.342834	147.040000
299.436005	147.160000
299.529205	146.880000
299.622345	146.800000
299.715576	145.980000
299.808716	145.660000
299.901917	145.440000
299.995117	145.820000
300.088287	145.900000
300.181488	145.960000
300.274658	145.820000
300.367828	145.920000
300.461029	145.820000
300.554199	145.940000
300.647400	146.600000
300.740601	147.200000
300.833771	147.120000
300.926971	147.320000
301.020142	146.640000
301.113342	146.200000
301.206512	146.060000
301.299713	146.100000
301.392914	145.760000
301.486084	146.420000
301.579285	146.580000
301.672516	146.620000
301.765686	146.360000
301.858887	146.060000
301.952057	145.800000
302.045288	145.940000
302.138458	145.680000
302.231659	145.480000
302.324860	145.820000
302.418060	145.520000
302.511261	145.200000
302.604462	145.580000
302.697662	145.820000
302.790863	145.540000
302.884064	145.400000
302.977264	145.400000
303.070465	145.560000
303.163666	146.180000
303.256866	146.580000
303.350067	146.840000
303.443268	146.960000
303.536469	146.920000
303.629669	146.280000
303.722870	146.280000
303.816071	146.000000
303.909271	146.100000
304.002472	145.200000
304.095673	145.200000
304.188934	144.560000
304.282104	145.540000
304.375336	145.540000
304.468506	145.440000
304.561768	145.460000
304.654968	146.080000
304.748169	145.520000
304.841370	145.520000
304.934601	146.200000
305.027802	145.880000
305.121002	145.640000
305.214233	145.780000
305.307434	145.720000
305.400665	146.280000
305.493866	146.380000
