Model Number: SPM-002-B   
Serial Number: 70087108
Firmware Version: 004.15.4
Exposure Time: 100000.000000us
Data Taken on: 11-12-2020 18:47:45.025
Wavelength	Amplitude
221.570786	0.000000
221.663406	0.000000
221.756027	0.000000
221.848648	0.000000
221.941269	0.000000
222.033905	0.000000
222.126526	0.000000
222.219162	0.000000
222.311798	0.000000
222.404419	0.000000
222.497055	0.000000
222.589676	0.000000
222.682312	0.000000
222.774933	0.000000
222.867569	0.000000
222.960205	0.000000
223.052841	0.000000
223.145462	0.000000
223.238098	0.000000
223.330734	0.000000
223.423386	0.000000
223.516022	0.000000
223.608658	0.000000
223.701309	0.000000
223.793945	0.000000
223.886581	0.000000
223.979218	0.000000
224.071869	0.000000
224.164505	0.000000
224.257156	0.000000
224.349792	0.000000
224.442444	0.000000
224.535095	0.000000
224.627747	0.000000
224.720398	0.000000
224.813034	0.000000
224.905685	0.000000
224.998337	145.680000
225.090988	145.540000
225.183640	145.740000
225.276291	145.560000
225.368942	146.240000
225.461594	146.540000
225.554245	146.900000
225.646912	146.500000
225.739578	147.140000
225.832230	147.320000
225.924896	146.400000
226.017548	146.800000
226.110199	147.240000
226.202866	146.440000
226.295532	145.960000
226.388184	145.920000
226.480850	145.260000
226.573517	144.780000
226.666168	145.340000
226.758835	146.080000
226.851501	146.980000
226.944183	147.280000
227.036850	147.140000
227.129517	147.220000
227.222183	147.000000
227.314850	146.600000
227.407516	146.800000
227.500198	147.400000
227.592865	146.820000
227.685532	146.400000
227.778214	146.320000
227.870880	146.220000
227.963562	146.660000
228.056229	147.180000
228.148926	147.400000
228.241592	147.700000
228.334274	147.460000
228.426956	147.000000
228.519638	147.340000
228.612305	146.760000
228.704987	146.840000
228.797668	146.840000
228.890350	146.700000
228.983032	145.740000
229.075714	146.600000
229.168396	146.000000
229.261108	145.580000
229.353790	145.460000
229.446472	145.880000
229.539169	145.580000
229.631851	145.420000
229.724533	145.980000
229.817230	146.220000
229.909912	147.040000
230.002609	146.960000
230.095306	147.000000
230.187988	146.820000
230.280685	146.820000
230.373383	145.660000
230.466095	145.360000
230.558792	145.740000
230.651474	145.760000
230.744171	145.460000
230.836868	145.600000
230.929581	146.040000
231.022278	146.240000
231.114975	146.420000
231.207672	146.440000
231.300369	146.680000
231.393082	146.600000
231.485779	146.040000
231.578506	145.940000
231.671204	146.280000
231.763916	146.480000
231.856613	146.380000
231.949326	146.800000
232.042023	146.580000
232.134735	146.320000
232.227448	146.160000
232.320160	146.440000
232.412872	146.320000
232.505585	147.240000
232.598297	147.600000
232.691010	147.260000
232.783722	147.120000
232.876450	147.900000
232.969162	147.060000
233.061874	146.540000
233.154587	146.520000
233.247314	146.740000
233.340027	145.880000
233.432739	146.480000
233.525467	146.160000
233.618179	146.560000
233.710907	146.060000
233.803635	146.640000
233.896347	145.980000
233.989090	147.000000
234.081818	146.640000
234.174545	146.880000
234.267258	146.140000
234.359985	146.700000
234.452713	146.320000
234.545441	146.380000
234.638168	146.100000
234.730896	146.660000
234.823639	146.460000
234.916367	146.960000
235.009094	147.020000
235.101822	147.400000
235.194580	147.200000
235.287308	147.180000
235.380051	146.340000
235.472778	146.580000
235.565521	146.600000
235.658249	146.360000
235.750992	146.500000
235.843719	146.500000
235.936462	146.640000
236.029205	146.120000
236.121948	146.120000
236.214691	146.360000
236.307449	147.200000
236.400192	146.620000
236.492935	146.640000
236.585678	146.700000
236.678421	146.480000
236.771164	145.820000
236.863907	146.780000
236.956665	147.200000
237.049408	148.600000
237.142151	148.060000
237.234909	149.060000
237.327652	148.540000
237.420410	148.240000
237.513153	147.380000
237.605927	147.660000
237.698669	146.800000
237.791428	146.220000
237.884186	146.760000
237.976944	146.300000
238.069702	146.620000
238.162445	146.080000
238.255203	146.520000
238.347961	146.380000
238.440720	146.440000
238.533478	146.120000
238.626266	146.320000
238.719025	146.480000
238.811783	146.360000
238.904541	146.080000
238.997314	145.980000
239.090073	145.880000
239.182831	145.960000
239.275604	146.660000
239.368362	146.700000
239.461136	146.840000
239.553909	146.680000
239.646667	146.400000
239.739441	145.920000
239.832214	146.220000
239.925003	146.420000
240.017761	147.280000
240.110535	147.960000
240.203308	147.380000
240.296082	147.280000
240.388855	146.860000
240.481628	146.860000
240.574417	146.640000
240.667191	147.040000
240.759964	147.340000
240.852737	147.360000
240.945526	146.840000
241.038315	146.520000
241.131088	146.520000
241.223877	146.380000
241.316650	146.300000
241.409439	146.540000
241.502228	146.200000
241.595001	146.840000
241.687790	146.700000
241.780579	146.820000
241.873367	147.080000
241.966141	147.600000
242.058929	146.720000
242.151718	147.140000
242.244507	147.640000
242.337311	146.840000
242.430099	147.080000
242.522903	147.220000
242.615692	146.580000
242.708481	146.340000
242.801270	147.220000
242.894073	146.960000
242.986862	147.280000
243.079651	147.740000
243.172455	147.560000
243.265244	147.260000
243.358063	146.640000
243.450867	146.560000
243.543655	146.500000
243.636459	146.500000
243.729263	146.740000
243.822067	147.420000
243.914856	147.760000
244.007660	147.840000
244.100464	147.700000
244.193268	147.240000
244.286072	146.880000
244.378876	146.440000
244.471680	146.060000
244.564499	146.340000
244.657318	147.100000
244.750122	146.940000
244.842926	146.240000
244.935745	146.680000
245.028549	146.520000
245.121368	145.940000
245.214172	146.260000
245.306992	146.940000
245.399796	146.540000
245.492615	146.400000
245.585434	146.520000
245.678253	146.360000
245.771072	146.360000
245.863892	146.800000
245.956711	147.000000
246.049530	146.620000
246.142349	146.400000
246.235168	146.220000
246.327988	146.580000
246.420807	146.560000
246.513626	146.620000
246.606445	146.700000
246.699280	147.120000
246.792099	146.660000
246.884918	146.300000
246.977753	145.940000
247.070587	146.020000
247.163422	145.740000
247.256241	145.720000
247.349075	146.220000
247.441895	146.660000
247.534729	146.780000
247.627563	146.440000
247.720383	146.780000
247.813217	146.860000
247.906052	146.600000
247.998886	146.320000
248.091736	146.260000
248.184570	145.840000
248.277405	145.740000
248.370239	146.800000
248.463074	147.680000
248.555908	148.140000
248.648743	148.320000
248.741592	148.160000
248.834427	147.240000
248.927261	146.320000
249.020111	146.620000
249.112946	147.160000
249.205795	146.920000
249.298630	147.080000
249.391495	147.440000
249.484344	147.100000
249.577179	146.540000
249.670029	146.820000
249.762878	147.120000
249.855728	147.100000
249.948563	146.920000
250.041412	146.340000
250.134262	146.360000
250.227112	146.580000
250.319962	146.460000
250.412827	146.620000
250.505692	146.280000
250.598541	146.380000
250.691391	145.840000
250.784241	145.940000
250.877106	146.180000
250.969955	146.460000
251.062805	146.760000
251.155670	147.320000
251.248520	147.180000
251.341385	147.220000
251.434235	147.380000
251.527100	146.800000
251.619965	146.040000
251.712814	146.920000
251.805695	146.680000
251.898560	146.680000
251.991425	147.420000
252.084290	147.920000
252.177155	147.060000
252.270020	147.160000
252.362885	147.280000
252.455750	146.980000
252.548615	146.920000
252.641479	146.660000
252.734360	146.600000
252.827240	146.580000
252.920105	146.700000
253.012970	146.440000
253.105850	146.540000
253.198715	146.180000
253.291595	146.140000
253.384460	145.820000
253.477341	145.900000
253.570221	146.480000
253.663086	146.520000
253.755966	147.240000
253.848846	147.160000
253.941727	147.160000
254.034592	146.660000
254.127472	146.500000
254.220367	146.180000
254.313248	146.100000
254.406128	145.600000
254.499008	145.660000
254.591904	146.340000
254.684784	146.560000
254.777664	146.520000
254.870544	146.640000
254.963440	146.820000
255.056335	146.460000
255.149216	145.900000
255.242111	146.580000
255.334991	146.960000
255.427887	147.120000
255.520767	147.420000
255.613663	147.860000
255.706558	146.920000
255.799438	146.640000
255.892334	146.280000
255.985229	145.920000
256.078125	145.480000
256.171021	146.120000
256.263916	146.660000
256.356812	146.960000
256.449707	147.260000
256.542603	147.200000
256.635498	147.540000
256.728394	147.300000
256.821289	146.720000
256.914215	146.740000
257.007080	147.000000
257.100006	147.000000
257.192932	147.500000
257.285828	148.100000
257.378723	147.920000
257.471619	147.800000
257.564545	146.940000
257.657440	146.540000
257.750336	146.720000
257.843262	146.220000
257.936157	147.320000
258.029053	147.660000
258.121979	147.780000
258.214874	147.380000
258.307800	147.480000
258.400696	146.320000
258.493622	146.440000
258.586517	145.920000
258.679443	146.320000
258.772339	146.200000
258.865265	145.980000
258.958160	145.520000
259.051086	146.200000
259.144012	146.300000
259.236938	146.980000
259.329834	147.700000
259.422791	147.760000
259.515717	147.260000
259.608612	146.520000
259.701538	146.640000
259.794464	146.000000
259.887390	146.260000
259.980316	146.000000
260.073212	145.840000
260.166138	144.900000
260.259064	145.120000
260.351990	145.320000
260.444916	145.700000
260.537842	146.340000
260.630768	147.120000
260.723694	147.320000
260.816620	147.000000
260.909546	146.860000
261.002472	146.180000
261.095398	145.500000
261.188354	145.380000
261.281281	145.220000
261.374207	145.340000
261.467133	146.280000
261.560089	146.920000
261.653015	146.580000
261.745972	147.240000
261.838867	147.460000
261.931824	147.400000
262.024780	146.780000
262.117706	147.120000
262.210663	146.760000
262.303589	146.740000
262.396515	146.720000
262.489471	147.960000
262.582397	147.740000
262.675354	147.600000
262.768280	147.120000
262.861237	147.380000
262.954163	146.860000
263.047119	147.220000
263.140045	146.960000
263.233002	147.100000
263.325958	146.600000
263.418884	146.080000
263.511841	146.100000
263.604797	146.300000
263.697723	146.400000
263.790680	146.480000
263.883636	147.020000
263.976593	146.620000
264.069550	146.780000
264.162476	146.540000
264.255463	146.620000
264.348419	146.240000
264.441376	146.660000
264.534332	146.300000
264.627289	146.380000
264.720245	146.480000
264.813202	146.340000
264.906158	146.360000
264.999115	147.040000
265.092072	147.280000
265.185028	147.400000
265.277985	147.620000
265.370941	147.440000
265.463898	147.220000
265.556854	147.120000
265.649811	146.100000
265.742798	146.020000
265.835754	146.240000
265.928711	146.280000
266.021667	146.400000
266.114655	147.180000
266.207611	147.580000
266.300568	146.880000
266.393585	146.700000
266.486511	146.880000
266.579498	146.160000
266.672485	146.160000
266.765442	146.400000
266.858429	146.640000
266.951385	145.920000
267.044342	146.260000
267.137329	145.900000
267.230316	146.080000
267.323273	145.720000
267.416260	146.900000
267.509216	146.940000
267.602203	147.000000
267.695160	147.440000
267.788147	147.600000
267.881134	146.700000
267.974091	146.980000
268.067078	146.780000
268.160065	146.280000
268.253052	146.160000
268.346008	146.560000
268.438995	146.180000
268.531982	146.560000
268.624969	146.280000
268.717987	146.520000
268.810944	146.180000
268.903961	146.340000
268.996948	145.900000
269.089905	146.560000
269.182892	146.280000
269.275879	146.660000
269.368866	146.100000
269.461853	146.460000
269.554871	146.360000
269.647858	146.420000
269.740845	146.680000
269.833832	147.440000
269.926819	146.960000
270.019806	147.020000
270.112793	146.760000
270.205811	146.480000
270.298798	146.240000
270.391785	146.820000
270.484772	146.440000
270.577789	146.600000
270.670776	146.100000
270.763763	145.920000
270.856750	145.660000
270.949768	145.720000
271.042786	145.760000
271.135773	146.060000
271.228790	146.580000
271.321808	146.360000
271.414795	145.960000
271.507782	146.000000
271.600800	145.480000
271.693817	145.360000
271.786804	145.920000
271.879822	146.600000
271.972809	146.500000
272.065826	147.140000
272.158844	146.740000
272.251831	146.800000
272.344849	146.360000
272.437866	146.140000
272.530853	146.020000
272.623871	146.060000
272.716888	144.860000
272.809906	145.180000
272.902893	145.180000
272.995911	145.080000
273.088928	145.380000
273.181946	146.220000
273.274963	145.820000
273.367981	146.040000
273.460999	146.140000
273.554047	146.520000
273.647003	147.180000
273.740051	147.260000
273.833069	147.440000
273.926086	147.520000
274.019135	146.760000
274.112152	146.160000
274.205170	146.080000
274.298187	146.240000
274.391205	145.520000
274.484222	145.880000
274.577240	145.640000
274.670258	145.660000
274.763306	145.380000
274.856323	146.080000
274.949341	146.000000
275.042358	146.560000
275.135406	146.420000
275.228424	146.400000
275.321442	146.180000
275.414490	146.140000
275.507507	146.180000
275.600525	146.800000
275.693573	146.620000
275.786591	146.200000
275.879669	146.380000
275.972656	146.040000
276.065735	145.660000
276.158752	146.060000
276.251801	147.140000
276.344818	147.080000
276.437866	147.120000
276.530884	146.880000
276.623932	146.540000
276.716980	146.240000
276.809998	146.480000
276.903046	146.440000
276.996094	147.580000
277.089111	148.160000
277.182159	148.500000
277.275208	148.120000
277.368256	147.960000
277.461304	147.200000
277.554321	146.320000
277.647369	146.080000
277.740417	146.060000
277.833466	146.100000
277.926514	145.900000
278.019562	146.920000
278.112610	146.320000
278.205688	146.300000
278.298706	146.580000
278.391785	146.680000
278.484833	145.780000
278.577881	145.880000
278.670929	146.520000
278.763977	146.400000
278.857025	146.680000
278.950073	147.040000
279.043121	146.900000
279.136169	146.300000
279.229248	146.100000
279.322296	145.700000
279.415344	145.580000
279.508392	145.600000
279.601440	145.720000
279.694519	145.520000
279.787567	145.680000
279.880615	145.880000
279.973694	145.840000
280.066742	145.660000
280.159790	145.960000
280.252869	145.840000
280.345917	145.900000
280.438995	145.960000
280.532074	146.060000
280.625122	146.600000
280.718201	147.500000
280.811279	147.500000
280.904327	147.500000
280.997406	147.900000
281.090454	147.780000
281.183533	147.100000
281.276581	146.860000
281.369659	146.740000
281.462738	146.460000
281.555786	146.200000
281.648865	146.220000
281.741943	146.100000
281.835022	146.840000
281.928070	146.340000
282.021149	146.040000
282.114227	145.820000
282.207306	146.080000
282.300385	145.960000
282.393433	146.360000
282.486511	146.500000
282.579590	146.900000
282.672668	146.900000
282.765747	146.260000
282.858856	146.040000
282.951904	146.200000
283.045013	146.200000
283.138062	146.460000
283.231171	146.980000
283.324249	147.540000
283.417328	147.520000
283.510406	147.320000
283.603485	146.940000
283.696564	146.760000
283.789642	146.760000
283.882751	146.320000
283.975830	146.780000
284.068909	146.660000
284.161987	147.400000
284.255066	146.560000
284.348175	147.000000
284.441254	146.700000
284.534332	147.140000
284.627441	146.400000
284.720520	146.560000
284.813599	146.520000
284.906708	146.520000
284.999786	145.680000
285.092896	145.200000
285.185974	146.280000
285.279053	145.660000
285.372192	145.840000
285.465240	146.820000
285.558380	147.100000
285.651459	146.720000
285.744568	148.020000
285.837677	147.500000
285.930756	147.220000
286.023865	147.440000
286.116943	146.940000
286.210052	146.460000
286.303162	146.600000
286.396240	146.460000
286.489349	146.140000
286.582458	146.500000
286.675568	146.320000
286.768646	146.180000
286.861755	146.620000
286.954865	147.360000
287.047974	146.980000
287.141083	146.800000
287.234161	146.600000
287.327271	146.240000
287.420380	146.420000
287.513519	146.080000
287.606598	146.240000
287.699738	146.700000
287.792816	146.620000
287.885956	146.280000
287.979034	146.500000
288.072174	146.420000
288.165283	146.280000
288.258392	146.540000
288.351501	146.040000
288.444611	146.260000
288.537720	146.860000
288.630859	146.740000
288.723969	146.580000
288.817078	147.180000
288.910187	147.280000
289.003296	146.620000
289.096436	146.400000
289.189545	146.260000
289.282654	145.440000
289.375763	145.760000
289.468903	146.020000
289.562012	146.400000
289.655121	146.520000
289.748260	146.960000
289.841400	147.100000
289.934509	146.880000
290.027649	147.060000
290.120728	146.960000
290.213898	146.960000
290.306976	146.280000
290.400146	146.740000
290.493256	146.120000
290.586395	146.100000
290.679535	146.560000
290.772644	146.580000
290.865784	145.600000
290.958893	145.920000
291.052032	145.880000
291.145172	145.380000
291.238281	145.140000
291.331421	145.680000
291.424561	146.020000
291.517670	145.860000
291.610809	146.180000
291.703949	146.260000
291.797089	146.480000
291.890228	146.260000
291.983337	146.340000
292.076477	146.040000
292.169617	146.280000
292.262756	145.900000
292.355927	145.580000
292.449036	145.500000
292.542206	145.480000
292.635315	145.720000
292.728485	146.100000
292.821625	146.280000
292.914764	147.500000
293.007904	147.780000
293.101044	147.400000
293.194183	147.140000
293.287323	146.920000
293.380463	145.820000
293.473602	145.640000
293.566742	146.020000
293.659882	146.500000
293.753021	146.760000
293.846191	146.900000
293.939331	146.400000
294.032471	146.360000
294.125610	145.900000
294.218781	146.520000
294.311920	147.100000
294.405060	147.480000
294.498230	147.040000
294.591370	147.240000
294.684540	146.220000
294.777679	145.440000
294.870850	145.860000
294.963959	146.140000
295.057159	145.940000
295.150299	146.440000
295.243469	146.540000
295.336609	146.100000
295.429779	146.260000
295.522919	146.640000
295.616089	146.740000
295.709229	147.460000
295.802399	147.460000
295.895569	147.080000
295.988708	146.760000
296.081879	146.880000
296.175018	146.300000
296.268188	146.040000
296.361359	146.520000
296.454529	146.620000
296.547668	146.340000
296.640839	146.680000
296.734009	147.000000
296.827179	146.860000
296.920319	147.120000
297.013519	146.780000
297.106659	146.840000
297.199860	146.780000
297.292999	146.720000
297.386200	146.400000
297.479309	146.520000
297.572510	145.900000
297.665680	145.820000
297.758850	145.960000
297.852020	145.920000
297.945190	145.860000
298.038361	145.960000
298.131531	146.900000
298.224701	146.540000
298.317871	146.120000
298.411072	145.620000
298.504242	145.400000
298.597412	144.420000
298.690582	144.440000
298.783752	144.960000
298.876923	146.000000
298.970093	146.220000
299.063293	146.720000
299.156464	147.460000
299.249634	147.620000
299.342834	147.440000
299.436005	147.620000
299.529205	147.400000
299.622345	147.160000
299.715576	146.680000
299.808716	146.460000
299.901917	146.540000
299.995117	146.720000
300.088287	146.700000
300.181488	146.540000
300.274658	146.560000
300.367828	146.700000
300.461029	146.600000
300.554199	146.580000
300.647400	146.460000
300.740601	146.940000
300.833771	146.380000
300.926971	146.660000
301.020142	146.140000
301.113342	146.520000
301.206512	146.240000
301.299713	146.620000
301.392914	146.180000
301.486084	146.600000
301.579285	146.460000
301.672516	146.920000
301.765686	146.960000
301.858887	147.140000
301.952057	147.120000
302.045288	147.280000
302.138458	147.120000
302.231659	146.860000
302.324860	146.640000
302.418060	146.220000
302.511261	146.120000
302.604462	145.880000
302.697662	145.540000
302.790863	145.420000
302.884064	145.540000
302.977264	145.760000
303.070465	145.980000
303.163666	147.000000
303.256866	147.560000
303.350067	147.660000
303.443268	147.380000
303.536469	147.380000
303.629669	146.620000
303.722870	146.540000
303.816071	146.360000
303.909271	146.740000
304.002472	146.160000
304.095673	146.140000
304.188934	145.640000
304.282104	146.560000
304.375336	146.380000
304.468506	146.180000
304.561768	146.000000
304.654968	146.400000
304.748169	145.520000
304.841370	145.160000
304.934601	145.700000
305.027802	145.480000
305.121002	145.060000
305.214233	145.500000
305.307434	145.780000
305.400665	146.220000
305.493866	146.420000
