Model Number: SPM-002-B   
Serial Number: 70087108
Firmware Version: 004.15.4
Exposure Time: 100000.000000us
Data Taken on: 11-12-2020 18:48:09.777
Wavelength	Amplitude
221.570786	0.000000
221.663406	0.000000
221.756027	0.000000
221.848648	0.000000
221.941269	0.000000
222.033905	0.000000
222.126526	0.000000
222.219162	0.000000
222.311798	0.000000
222.404419	0.000000
222.497055	0.000000
222.589676	0.000000
222.682312	0.000000
222.774933	0.000000
222.867569	0.000000
222.960205	0.000000
223.052841	0.000000
223.145462	0.000000
223.238098	0.000000
223.330734	0.000000
223.423386	0.000000
223.516022	0.000000
223.608658	0.000000
223.701309	0.000000
223.793945	0.000000
223.886581	0.000000
223.979218	0.000000
224.071869	0.000000
224.164505	0.000000
224.257156	0.000000
224.349792	0.000000
224.442444	0.000000
224.535095	0.000000
224.627747	0.000000
224.720398	0.000000
224.813034	0.000000
224.905685	0.000000
224.998337	146.020000
225.090988	145.780000
225.183640	145.640000
225.276291	145.420000
225.368942	145.620000
225.461594	146.160000
225.554245	146.260000
225.646912	146.480000
225.739578	147.000000
225.832230	147.280000
225.924896	146.220000
226.017548	146.880000
226.110199	147.440000
226.202866	146.760000
226.295532	146.660000
226.388184	147.000000
226.480850	145.880000
226.573517	145.380000
226.666168	145.880000
226.758835	146.120000
226.851501	146.660000
226.944183	147.080000
227.036850	146.400000
227.129517	146.160000
227.222183	145.900000
227.314850	145.920000
227.407516	146.120000
227.500198	147.120000
227.592865	146.900000
227.685532	146.780000
227.778214	146.380000
227.870880	146.780000
227.963562	147.000000
228.056229	147.280000
228.148926	147.140000
228.241592	147.880000
228.334274	147.260000
228.426956	147.000000
228.519638	147.200000
228.612305	146.900000
228.704987	146.680000
228.797668	146.540000
228.890350	146.120000
228.983032	145.320000
229.075714	146.300000
229.168396	146.280000
229.261108	146.040000
229.353790	146.140000
229.446472	146.620000
229.539169	146.360000
229.631851	146.000000
229.724533	146.380000
229.817230	146.620000
229.909912	147.440000
230.002609	147.140000
230.095306	146.960000
230.187988	147.020000
230.280685	146.800000
230.373383	145.880000
230.466095	145.720000
230.558792	146.020000
230.651474	145.980000
230.744171	146.100000
230.836868	145.820000
230.929581	146.300000
231.022278	146.140000
231.114975	146.360000
231.207672	146.100000
231.300369	146.840000
231.393082	146.700000
231.485779	146.760000
231.578506	146.480000
231.671204	146.920000
231.763916	146.520000
231.856613	146.240000
231.949326	146.260000
232.042023	146.120000
232.134735	146.020000
232.227448	146.060000
232.320160	146.500000
232.412872	146.680000
232.505585	147.460000
232.598297	147.600000
232.691010	147.380000
232.783722	146.980000
232.876450	147.400000
232.969162	146.760000
233.061874	146.340000
233.154587	146.020000
233.247314	146.420000
233.340027	145.720000
233.432739	145.900000
233.525467	145.920000
233.618179	146.360000
233.710907	145.940000
233.803635	146.480000
233.896347	146.120000
233.989090	146.660000
234.081818	146.660000
234.174545	146.980000
234.267258	146.380000
234.359985	146.920000
234.452713	146.580000
234.545441	146.340000
234.638168	146.280000
234.730896	146.840000
234.823639	146.780000
234.916367	147.100000
235.009094	147.300000
235.101822	147.120000
235.194580	146.800000
235.287308	146.700000
235.380051	145.920000
235.472778	146.240000
235.565521	146.520000
235.658249	146.280000
235.750992	146.280000
235.843719	146.860000
235.936462	146.560000
236.029205	145.880000
236.121948	145.720000
236.214691	146.180000
236.307449	146.620000
236.400192	146.180000
236.492935	146.380000
236.585678	146.780000
236.678421	146.340000
236.771164	145.960000
236.863907	146.620000
236.956665	147.140000
237.049408	148.820000
237.142151	148.640000
237.234909	148.920000
237.327652	148.800000
237.420410	148.360000
237.513153	146.900000
237.605927	146.680000
237.698669	146.280000
237.791428	146.060000
237.884186	146.600000
237.976944	146.000000
238.069702	146.340000
238.162445	145.620000
238.255203	145.660000
238.347961	145.680000
238.440720	146.120000
238.533478	146.240000
238.626266	146.560000
238.719025	147.200000
238.811783	146.720000
238.904541	146.360000
238.997314	146.180000
239.090073	145.860000
239.182831	145.560000
239.275604	146.400000
239.368362	146.440000
239.461136	146.340000
239.553909	146.540000
239.646667	146.400000
239.739441	146.040000
239.832214	146.520000
239.925003	146.780000
240.017761	147.680000
240.110535	148.240000
240.203308	147.700000
240.296082	147.820000
240.388855	147.760000
240.481628	147.760000
240.574417	147.620000
240.667191	147.940000
240.759964	147.540000
240.852737	147.560000
240.945526	146.920000
241.038315	146.560000
241.131088	146.360000
241.223877	146.840000
241.316650	146.460000
241.409439	146.900000
241.502228	146.780000
241.595001	147.180000
241.687790	146.640000
241.780579	146.660000
241.873367	146.400000
241.966141	146.460000
242.058929	145.980000
242.151718	146.180000
242.244507	146.680000
242.337311	146.100000
242.430099	146.760000
242.522903	147.180000
242.615692	146.940000
242.708481	146.780000
242.801270	147.640000
242.894073	147.060000
242.986862	147.200000
243.079651	147.600000
243.172455	147.300000
243.265244	147.200000
243.358063	146.580000
243.450867	146.600000
243.543655	146.540000
243.636459	146.520000
243.729263	146.880000
243.822067	147.500000
243.914856	147.580000
244.007660	147.580000
244.100464	147.800000
244.193268	147.040000
244.286072	146.820000
244.378876	146.280000
244.471680	145.880000
244.564499	146.100000
244.657318	146.900000
244.750122	147.060000
244.842926	146.740000
244.935745	147.000000
245.028549	146.420000
245.121368	145.540000
245.214172	145.680000
245.306992	146.340000
245.399796	146.180000
245.492615	146.680000
245.585434	146.680000
245.678253	146.440000
245.771072	146.100000
245.863892	146.460000
245.956711	146.340000
246.049530	146.660000
246.142349	146.620000
246.235168	146.780000
246.327988	147.160000
246.420807	147.080000
246.513626	147.040000
246.606445	146.820000
246.699280	146.780000
246.792099	146.160000
246.884918	145.800000
246.977753	145.360000
247.070587	145.760000
247.163422	145.700000
247.256241	145.880000
247.349075	146.460000
247.441895	146.680000
247.534729	146.640000
247.627563	146.460000
247.720383	146.740000
247.813217	146.440000
247.906052	146.260000
247.998886	146.300000
248.091736	146.380000
248.184570	145.900000
248.277405	146.060000
248.370239	147.120000
248.463074	147.780000
248.555908	147.840000
248.648743	147.780000
248.741592	147.900000
248.834427	147.120000
248.927261	146.000000
249.020111	146.520000
249.112946	147.200000
249.205795	146.740000
249.298630	146.840000
249.391495	146.960000
249.484344	146.500000
249.577179	146.400000
249.670029	146.920000
249.762878	147.580000
249.855728	147.960000
249.948563	148.000000
250.041412	147.380000
250.134262	147.360000
250.227112	147.100000
250.319962	147.260000
250.412827	147.360000
250.505692	147.060000
250.598541	147.020000
250.691391	146.680000
250.784241	146.460000
250.877106	146.540000
250.969955	146.800000
251.062805	147.320000
251.155670	147.800000
251.248520	147.420000
251.341385	147.480000
251.434235	147.580000
251.527100	147.080000
251.619965	146.560000
251.712814	147.540000
251.805695	147.660000
251.898560	147.740000
251.991425	147.880000
252.084290	148.040000
252.177155	147.220000
252.270020	146.820000
252.362885	146.640000
252.455750	146.880000
252.548615	146.500000
252.641479	146.600000
252.734360	146.540000
252.827240	146.540000
252.920105	146.140000
253.012970	146.340000
253.105850	146.260000
253.198715	146.060000
253.291595	146.140000
253.384460	145.680000
253.477341	145.500000
253.570221	145.720000
253.663086	145.400000
253.755966	145.740000
253.848846	145.840000
253.941727	146.180000
254.034592	145.920000
254.127472	146.000000
254.220367	146.120000
254.313248	146.620000
254.406128	146.360000
254.499008	146.720000
254.591904	147.260000
254.684784	147.240000
254.777664	146.940000
254.870544	146.640000
254.963440	146.540000
255.056335	146.600000
255.149216	146.240000
255.242111	146.520000
255.334991	147.260000
255.427887	147.520000
255.520767	147.340000
255.613663	147.780000
255.706558	147.420000
255.799438	147.080000
255.892334	146.740000
255.985229	146.860000
256.078125	146.420000
256.171021	146.540000
256.263916	146.780000
256.356812	147.060000
256.449707	147.280000
256.542603	147.140000
256.635498	147.640000
256.728394	147.420000
256.821289	146.860000
256.914215	146.880000
257.007080	147.480000
257.100006	147.200000
257.192932	147.540000
257.285828	148.040000
257.378723	147.560000
257.471619	147.220000
257.564545	146.860000
257.657440	146.680000
257.750336	147.040000
257.843262	146.900000
257.936157	147.980000
258.029053	148.500000
258.121979	148.600000
258.214874	147.600000
258.307800	147.600000
258.400696	146.300000
258.493622	146.060000
258.586517	145.160000
258.679443	145.680000
258.772339	145.440000
258.865265	145.300000
258.958160	145.020000
259.051086	146.240000
259.144012	146.340000
259.236938	147.520000
259.329834	147.800000
259.422791	147.860000
259.515717	146.960000
259.608612	146.620000
259.701538	146.320000
259.794464	146.300000
259.887390	146.260000
259.980316	146.440000
260.073212	146.040000
260.166138	145.060000
260.259064	145.480000
260.351990	146.040000
260.444916	146.040000
260.537842	146.760000
260.630768	147.680000
260.723694	147.360000
260.816620	147.120000
260.909546	146.900000
261.002472	146.560000
261.095398	146.160000
261.188354	146.260000
261.281281	145.820000
261.374207	146.020000
261.467133	146.780000
261.560089	146.680000
261.653015	146.140000
261.745972	146.660000
261.838867	146.900000
261.931824	147.040000
262.024780	146.420000
262.117706	146.980000
262.210663	147.040000
262.303589	146.980000
262.396515	146.400000
262.489471	147.680000
262.582397	147.580000
262.675354	146.980000
262.768280	147.060000
262.861237	147.200000
262.954163	146.920000
263.047119	146.740000
263.140045	146.880000
263.233002	146.740000
263.325958	146.400000
263.418884	146.000000
263.511841	146.240000
263.604797	146.360000
263.697723	146.340000
263.790680	146.220000
263.883636	146.780000
263.976593	146.420000
264.069550	146.400000
264.162476	146.320000
264.255463	146.700000
264.348419	146.360000
264.441376	146.740000
264.534332	146.360000
264.627289	146.480000
264.720245	147.060000
264.813202	146.820000
264.906158	146.840000
264.999115	147.540000
265.092072	147.320000
265.185028	147.160000
265.277985	147.500000
265.370941	147.240000
265.463898	146.940000
265.556854	146.820000
265.649811	145.640000
265.742798	145.440000
265.835754	145.900000
265.928711	146.100000
266.021667	146.240000
266.114655	146.860000
266.207611	147.040000
266.300568	146.200000
266.393585	145.880000
266.486511	146.300000
266.579498	145.660000
266.672485	145.180000
266.765442	145.220000
266.858429	145.660000
266.951385	145.260000
267.044342	145.820000
267.137329	145.980000
267.230316	146.660000
267.323273	145.860000
267.416260	146.860000
267.509216	146.580000
267.602203	146.660000
267.695160	146.680000
267.788147	147.220000
267.881134	146.040000
267.974091	146.300000
268.067078	146.280000
268.160065	146.080000
268.253052	146.000000
268.346008	146.440000
268.438995	146.280000
268.531982	146.400000
268.624969	146.060000
268.717987	146.420000
268.810944	146.360000
268.903961	146.620000
268.996948	146.320000
269.089905	146.920000
269.182892	146.920000
269.275879	147.140000
269.368866	146.620000
269.461853	147.160000
269.554871	147.060000
269.647858	147.100000
269.740845	147.560000
269.833832	148.320000
269.926819	147.680000
270.019806	147.440000
270.112793	146.740000
270.205811	146.380000
270.298798	146.000000
270.391785	146.700000
270.484772	146.580000
270.577789	147.060000
270.670776	146.380000
270.763763	146.320000
270.856750	146.160000
270.949768	145.860000
271.042786	145.840000
271.135773	146.460000
271.228790	146.840000
271.321808	146.860000
271.414795	146.820000
271.507782	146.380000
271.600800	145.740000
271.693817	145.620000
271.786804	145.900000
271.879822	146.600000
271.972809	146.900000
272.065826	147.340000
272.158844	146.880000
272.251831	147.020000
272.344849	146.800000
272.437866	146.380000
272.530853	146.460000
272.623871	146.860000
272.716888	145.740000
272.809906	145.780000
272.902893	145.860000
272.995911	145.340000
273.088928	145.340000
273.181946	145.840000
273.274963	145.540000
273.367981	145.860000
273.460999	146.140000
273.554047	146.700000
273.647003	147.180000
273.740051	147.320000
273.833069	147.400000
273.926086	147.820000
274.019135	147.120000
274.112152	146.720000
274.205170	147.040000
274.298187	147.600000
274.391205	147.040000
274.484222	146.940000
274.577240	147.160000
274.670258	147.040000
274.763306	146.680000
274.856323	147.280000
274.949341	147.640000
275.042358	148.120000
275.135406	147.840000
275.228424	147.620000
275.321442	147.440000
275.414490	147.000000
275.507507	146.700000
275.600525	147.160000
275.693573	146.940000
275.786591	146.380000
275.879669	146.900000
275.972656	146.400000
276.065735	146.040000
276.158752	146.580000
276.251801	147.260000
276.344818	146.980000
276.437866	147.300000
276.530884	147.300000
276.623932	146.660000
276.716980	146.940000
276.809998	147.020000
276.903046	147.100000
276.996094	147.700000
277.089111	148.140000
277.182159	148.440000
277.275208	148.140000
277.368256	147.980000
277.461304	147.560000
277.554321	147.020000
277.647369	146.300000
277.740417	146.380000
277.833466	146.360000
277.926514	145.960000
278.019562	146.760000
278.112610	146.180000
278.205688	146.520000
278.298706	146.680000
278.391785	146.940000
278.484833	146.280000
278.577881	146.680000
278.670929	146.800000
278.763977	146.780000
278.857025	146.980000
278.950073	147.100000
279.043121	146.840000
279.136169	146.860000
279.229248	146.520000
279.322296	146.420000
279.415344	146.060000
279.508392	146.100000
279.601440	145.780000
279.694519	145.760000
279.787567	145.820000
279.880615	145.940000
279.973694	145.920000
280.066742	145.980000
280.159790	146.380000
280.252869	145.960000
280.345917	146.000000
280.438995	145.940000
280.532074	145.600000
280.625122	145.740000
280.718201	146.520000
280.811279	146.920000
280.904327	146.980000
280.997406	147.220000
281.090454	147.040000
281.183533	146.420000
281.276581	146.340000
281.369659	145.940000
281.462738	145.980000
281.555786	145.980000
281.648865	146.060000
281.741943	145.900000
281.835022	146.800000
281.928070	146.600000
282.021149	146.280000
282.114227	146.200000
282.207306	146.000000
282.300385	146.180000
282.393433	146.240000
282.486511	146.540000
282.579590	147.240000
282.672668	147.660000
282.765747	146.740000
282.858856	146.640000
282.951904	146.760000
283.045013	146.600000
283.138062	146.840000
283.231171	147.380000
283.324249	148.000000
283.417328	147.800000
283.510406	147.300000
283.603485	146.880000
283.696564	146.620000
283.789642	146.360000
283.882751	145.900000
283.975830	146.500000
284.068909	146.260000
284.161987	147.060000
284.255066	146.500000
284.348175	146.900000
284.441254	146.540000
284.534332	147.120000
284.627441	146.560000
284.720520	146.660000
284.813599	146.800000
284.906708	146.920000
284.999786	146.120000
285.092896	145.840000
285.185974	146.920000
285.279053	146.340000
285.372192	146.380000
285.465240	147.300000
285.558380	147.080000
285.651459	146.240000
285.744568	147.200000
285.837677	146.540000
285.930756	146.180000
286.023865	146.380000
286.116943	145.860000
286.210052	145.780000
286.303162	145.980000
286.396240	145.960000
286.489349	146.120000
286.582458	147.020000
286.675568	146.640000
286.768646	146.840000
286.861755	147.340000
286.954865	147.840000
287.047974	147.420000
287.141083	147.220000
287.234161	147.120000
287.327271	146.700000
287.420380	146.760000
287.513519	146.680000
287.606598	146.840000
287.699738	147.100000
287.792816	146.780000
287.885956	146.400000
287.979034	146.560000
288.072174	146.720000
288.165283	146.360000
288.258392	146.660000
288.351501	146.160000
288.444611	146.400000
288.537720	146.700000
288.630859	146.680000
288.723969	146.660000
288.817078	147.280000
288.910187	147.140000
289.003296	146.280000
289.096436	146.240000
289.189545	146.060000
289.282654	145.460000
289.375763	145.420000
289.468903	145.700000
289.562012	145.900000
289.655121	146.020000
289.748260	146.320000
289.841400	146.880000
289.934509	147.040000
290.027649	147.160000
290.120728	146.920000
290.213898	146.840000
290.306976	146.340000
290.400146	146.520000
290.493256	146.100000
290.586395	146.540000
290.679535	147.080000
290.772644	146.800000
290.865784	145.940000
290.958893	146.160000
291.052032	145.660000
291.145172	145.480000
291.238281	145.540000
291.331421	145.860000
291.424561	146.400000
291.517670	146.540000
291.610809	146.700000
291.703949	146.600000
291.797089	147.000000
291.890228	146.320000
291.983337	146.180000
292.076477	145.680000
292.169617	145.960000
292.262756	145.920000
292.355927	145.620000
292.449036	145.740000
292.542206	146.020000
292.635315	146.100000
292.728485	145.820000
292.821625	145.840000
292.914764	146.720000
293.007904	146.700000
293.101044	146.500000
293.194183	146.640000
293.287323	146.700000
293.380463	146.100000
293.473602	145.900000
293.566742	146.300000
293.659882	146.860000
293.753021	147.440000
293.846191	147.180000
293.939331	146.660000
294.032471	146.520000
294.125610	145.780000
294.218781	146.120000
294.311920	146.680000
294.405060	147.260000
294.498230	146.920000
294.591370	147.320000
294.684540	146.480000
294.777679	145.920000
294.870850	146.160000
294.963959	146.120000
295.057159	145.780000
295.150299	146.260000
295.243469	146.140000
295.336609	145.560000
295.429779	145.700000
295.522919	145.980000
295.616089	145.680000
295.709229	146.480000
295.802399	146.700000
295.895569	146.320000
295.988708	146.020000
296.081879	146.160000
296.175018	145.300000
296.268188	145.460000
296.361359	145.960000
296.454529	146.280000
296.547668	146.240000
296.640839	146.800000
296.734009	146.380000
296.827179	146.340000
296.920319	146.460000
297.013519	146.280000
297.106659	145.820000
297.199860	146.020000
297.292999	146.040000
297.386200	145.680000
297.479309	145.540000
297.572510	145.780000
297.665680	145.660000
297.758850	145.480000
297.852020	145.600000
297.945190	145.820000
298.038361	145.580000
298.131531	146.500000
298.224701	146.500000
298.317871	146.200000
298.411072	145.620000
298.504242	145.820000
298.597412	145.120000
298.690582	145.380000
298.783752	145.700000
298.876923	146.500000
298.970093	146.200000
299.063293	146.400000
299.156464	146.560000
299.249634	146.620000
299.342834	146.580000
299.436005	147.200000
299.529205	147.080000
299.622345	146.840000
299.715576	146.380000
299.808716	146.340000
299.901917	145.920000
299.995117	146.080000
300.088287	146.320000
300.181488	146.360000
300.274658	146.060000
300.367828	146.260000
300.461029	146.180000
300.554199	146.280000
300.647400	146.400000
300.740601	146.960000
300.833771	146.960000
300.926971	147.340000
301.020142	146.780000
301.113342	146.680000
301.206512	146.420000
301.299713	146.540000
301.392914	146.480000
301.486084	146.800000
301.579285	146.700000
301.672516	147.120000
301.765686	146.800000
301.858887	146.420000
301.952057	146.220000
302.045288	146.500000
302.138458	146.360000
302.231659	146.360000
302.324860	146.300000
302.418060	146.200000
302.511261	146.100000
302.604462	145.940000
302.697662	145.860000
302.790863	145.780000
302.884064	145.680000
302.977264	145.580000
303.070465	145.820000
303.163666	146.540000
303.256866	146.880000
303.350067	147.120000
303.443268	147.180000
303.536469	146.880000
303.629669	146.120000
303.722870	146.020000
303.816071	145.860000
303.909271	146.260000
304.002472	145.800000
304.095673	145.920000
304.188934	145.360000
304.282104	146.320000
304.375336	146.280000
304.468506	146.440000
304.561768	146.540000
304.654968	147.360000
304.748169	146.720000
304.841370	146.060000
304.934601	146.560000
305.027802	146.200000
305.121002	145.580000
305.214233	145.640000
305.307434	145.900000
305.400665	146.180000
305.493866	146.160000
