Model Number: SPM-002-B   
Serial Number: 70087108
Firmware Version: 004.15.4
Exposure Time: 100000.000000us
Data Taken on: 11-12-2020 18:48:23.979
Wavelength	Amplitude
221.570786	0.000000
221.663406	0.000000
221.756027	0.000000
221.848648	0.000000
221.941269	0.000000
222.033905	0.000000
222.126526	0.000000
222.219162	0.000000
222.311798	0.000000
222.404419	0.000000
222.497055	0.000000
222.589676	0.000000
222.682312	0.000000
222.774933	0.000000
222.867569	0.000000
222.960205	0.000000
223.052841	0.000000
223.145462	0.000000
223.238098	0.000000
223.330734	0.000000
223.423386	0.000000
223.516022	0.000000
223.608658	0.000000
223.701309	0.000000
223.793945	0.000000
223.886581	0.000000
223.979218	0.000000
224.071869	0.000000
224.164505	0.000000
224.257156	0.000000
224.349792	0.000000
224.442444	0.000000
224.535095	0.000000
224.627747	0.000000
224.720398	0.000000
224.813034	0.000000
224.905685	0.000000
224.998337	145.540000
225.090988	145.420000
225.183640	145.480000
225.276291	145.340000
225.368942	145.840000
225.461594	146.120000
225.554245	146.140000
225.646912	146.180000
225.739578	146.840000
225.832230	146.800000
225.924896	145.960000
226.017548	146.280000
226.110199	146.560000
226.202866	145.500000
226.295532	145.400000
226.388184	145.700000
226.480850	145.160000
226.573517	144.740000
226.666168	145.680000
226.758835	145.800000
226.851501	146.240000
226.944183	146.380000
227.036850	146.160000
227.129517	145.860000
227.222183	146.060000
227.314850	146.100000
227.407516	146.320000
227.500198	147.000000
227.592865	146.660000
227.685532	146.280000
227.778214	145.720000
227.870880	146.080000
227.963562	146.400000
228.056229	147.040000
228.148926	147.000000
228.241592	147.740000
228.334274	147.160000
228.426956	146.960000
228.519638	146.780000
228.612305	146.500000
228.704987	146.260000
228.797668	146.380000
228.890350	145.880000
228.983032	145.320000
229.075714	145.940000
229.168396	145.760000
229.261108	145.200000
229.353790	145.040000
229.446472	145.260000
229.539169	145.220000
229.631851	144.660000
229.724533	145.140000
229.817230	145.700000
229.909912	146.440000
230.002609	146.200000
230.095306	146.600000
230.187988	146.800000
230.280685	146.380000
230.373383	145.360000
230.466095	145.380000
230.558792	145.760000
230.651474	145.380000
230.744171	145.280000
230.836868	145.100000
230.929581	145.360000
231.022278	145.320000
231.114975	145.720000
231.207672	145.740000
231.300369	146.580000
231.393082	146.700000
231.485779	146.480000
231.578506	146.000000
231.671204	146.260000
231.763916	146.200000
231.856613	145.800000
231.949326	145.900000
232.042023	146.100000
232.134735	145.920000
232.227448	145.540000
232.320160	146.120000
232.412872	146.140000
232.505585	146.960000
232.598297	147.500000
232.691010	147.480000
232.783722	146.980000
232.876450	147.420000
232.969162	146.700000
233.061874	146.000000
233.154587	145.860000
233.247314	146.360000
233.340027	145.860000
233.432739	146.180000
233.525467	146.500000
233.618179	146.940000
233.710907	146.260000
233.803635	146.860000
233.896347	146.660000
233.989090	147.280000
234.081818	147.120000
234.174545	147.700000
234.267258	146.820000
234.359985	146.960000
234.452713	146.300000
234.545441	146.160000
234.638168	145.580000
234.730896	146.180000
234.823639	145.840000
234.916367	146.300000
235.009094	146.240000
235.101822	146.360000
235.194580	145.780000
235.287308	145.900000
235.380051	145.380000
235.472778	145.760000
235.565521	146.280000
235.658249	146.400000
235.750992	146.500000
235.843719	146.740000
235.936462	146.780000
236.029205	146.000000
236.121948	145.820000
236.214691	145.960000
236.307449	146.120000
236.400192	145.700000
236.492935	145.800000
236.585678	146.020000
236.678421	146.080000
236.771164	145.720000
236.863907	146.420000
236.956665	146.880000
237.049408	148.340000
237.142151	147.840000
237.234909	148.720000
237.327652	148.360000
237.420410	147.840000
237.513153	146.920000
237.605927	146.860000
237.698669	146.060000
237.791428	145.680000
237.884186	146.300000
237.976944	145.820000
238.069702	146.140000
238.162445	145.820000
238.255203	146.040000
238.347961	146.200000
238.440720	146.360000
238.533478	146.040000
238.626266	145.880000
238.719025	145.940000
238.811783	145.600000
238.904541	145.320000
238.997314	145.580000
239.090073	145.520000
239.182831	145.620000
239.275604	146.100000
239.368362	146.000000
239.461136	146.100000
239.553909	146.320000
239.646667	146.220000
239.739441	145.720000
239.832214	146.060000
239.925003	146.000000
240.017761	146.760000
240.110535	147.100000
240.203308	146.800000
240.296082	146.980000
240.388855	147.020000
240.481628	146.780000
240.574417	146.480000
240.667191	146.900000
240.759964	146.380000
240.852737	146.160000
240.945526	145.880000
241.038315	145.920000
241.131088	145.780000
241.223877	146.200000
241.316650	146.060000
241.409439	146.220000
241.502228	145.900000
241.595001	146.480000
241.687790	146.520000
241.780579	146.660000
241.873367	146.920000
241.966141	147.240000
242.058929	146.540000
242.151718	146.380000
242.244507	146.900000
242.337311	146.020000
242.430099	146.360000
242.522903	146.780000
242.615692	146.500000
242.708481	146.020000
242.801270	146.880000
242.894073	146.720000
242.986862	146.800000
243.079651	147.480000
243.172455	147.460000
243.265244	147.100000
243.358063	146.360000
243.450867	146.540000
243.543655	146.160000
243.636459	146.480000
243.729263	146.740000
243.822067	147.080000
243.914856	147.080000
244.007660	147.280000
244.100464	146.920000
244.193268	146.480000
244.286072	146.780000
244.378876	146.440000
244.471680	146.240000
244.564499	146.440000
244.657318	147.320000
244.750122	147.660000
244.842926	146.900000
244.935745	147.140000
245.028549	146.900000
245.121368	146.180000
245.214172	145.920000
245.306992	146.780000
245.399796	146.200000
245.492615	146.560000
245.585434	146.360000
245.678253	146.320000
245.771072	145.940000
245.863892	146.920000
245.956711	146.960000
246.049530	146.820000
246.142349	146.400000
246.235168	146.620000
246.327988	146.700000
246.420807	146.480000
246.513626	146.640000
246.606445	146.740000
246.699280	146.600000
246.792099	146.060000
246.884918	145.780000
246.977753	145.600000
247.070587	145.560000
247.163422	145.500000
247.256241	145.520000
247.349075	146.100000
247.441895	146.240000
247.534729	146.480000
247.627563	146.460000
247.720383	146.980000
247.813217	146.520000
247.906052	146.440000
247.998886	146.140000
248.091736	146.020000
248.184570	145.320000
248.277405	145.400000
248.370239	146.320000
248.463074	147.340000
248.555908	147.740000
248.648743	147.920000
248.741592	148.400000
248.834427	147.720000
248.927261	146.620000
249.020111	147.100000
249.112946	147.580000
249.205795	147.120000
249.298630	147.280000
249.391495	147.540000
249.484344	146.740000
249.577179	146.320000
249.670029	146.440000
249.762878	146.920000
249.855728	147.100000
249.948563	147.180000
250.041412	146.640000
250.134262	146.420000
250.227112	146.100000
250.319962	146.100000
250.412827	145.940000
250.505692	145.800000
250.598541	145.980000
250.691391	145.600000
250.784241	145.220000
250.877106	145.540000
250.969955	145.800000
251.062805	146.060000
251.155670	146.680000
251.248520	146.800000
251.341385	146.820000
251.434235	146.760000
251.527100	146.620000
251.619965	146.060000
251.712814	146.780000
251.805695	146.780000
251.898560	147.100000
251.991425	147.240000
252.084290	147.340000
252.177155	146.400000
252.270020	145.880000
252.362885	145.800000
252.455750	145.460000
252.548615	145.480000
252.641479	145.720000
252.734360	145.960000
252.827240	145.780000
252.920105	146.120000
253.012970	145.760000
253.105850	145.840000
253.198715	145.840000
253.291595	145.860000
253.384460	145.300000
253.477341	145.300000
253.570221	145.560000
253.663086	145.160000
253.755966	145.800000
253.848846	145.900000
253.941727	146.600000
254.034592	146.120000
254.127472	145.980000
254.220367	145.780000
254.313248	146.140000
254.406128	145.440000
254.499008	145.900000
254.591904	146.880000
254.684784	147.000000
254.777664	147.060000
254.870544	147.000000
254.963440	146.800000
255.056335	146.920000
255.149216	146.820000
255.242111	147.100000
255.334991	147.760000
255.427887	147.840000
255.520767	147.340000
255.613663	147.300000
255.706558	146.620000
255.799438	146.100000
255.892334	145.740000
255.985229	145.720000
256.078125	145.380000
256.171021	145.480000
256.263916	146.280000
256.356812	146.580000
256.449707	146.780000
256.542603	146.760000
256.635498	147.380000
256.728394	146.820000
256.821289	146.620000
256.914215	146.480000
257.007080	146.900000
257.100006	146.860000
257.192932	147.160000
257.285828	147.560000
257.378723	147.160000
257.471619	146.820000
257.564545	146.320000
257.657440	146.380000
257.750336	146.440000
257.843262	146.380000
257.936157	147.500000
258.029053	147.680000
258.121979	147.740000
258.214874	147.600000
258.307800	147.900000
258.400696	146.340000
258.493622	146.280000
258.586517	145.340000
258.679443	145.560000
258.772339	145.280000
258.865265	145.620000
258.958160	145.080000
259.051086	146.320000
259.144012	145.840000
259.236938	146.340000
259.329834	146.580000
259.422791	146.480000
259.515717	145.240000
259.608612	145.100000
259.701538	145.180000
259.794464	144.820000
259.887390	145.040000
259.980316	145.460000
260.073212	145.620000
260.166138	144.840000
260.259064	145.360000
260.351990	146.020000
260.444916	145.980000
260.537842	146.400000
260.630768	147.140000
260.723694	146.960000
260.816620	146.660000
260.909546	146.840000
261.002472	146.140000
261.095398	145.740000
261.188354	145.540000
261.281281	145.280000
261.374207	145.380000
261.467133	146.300000
261.560089	146.560000
261.653015	146.360000
261.745972	147.180000
261.838867	147.300000
261.931824	147.060000
262.024780	146.420000
262.117706	146.820000
262.210663	146.600000
262.303589	146.380000
262.396515	146.220000
262.489471	147.280000
262.582397	147.300000
262.675354	146.800000
262.768280	146.960000
262.861237	147.200000
262.954163	146.800000
263.047119	146.680000
263.140045	146.660000
263.233002	146.340000
263.325958	146.000000
263.418884	145.580000
263.511841	145.700000
263.604797	145.840000
263.697723	145.800000
263.790680	145.960000
263.883636	146.300000
263.976593	145.940000
264.069550	145.640000
264.162476	145.380000
264.255463	145.420000
264.348419	145.480000
264.441376	145.780000
264.534332	145.860000
264.627289	146.200000
264.720245	146.660000
264.813202	146.120000
264.906158	146.380000
264.999115	146.780000
265.092072	147.000000
265.185028	147.060000
265.277985	147.560000
265.370941	147.360000
265.463898	147.060000
265.556854	146.700000
265.649811	145.460000
265.742798	145.480000
265.835754	145.560000
265.928711	145.960000
266.021667	145.980000
266.114655	146.540000
266.207611	146.780000
266.300568	146.240000
266.393585	145.660000
266.486511	146.100000
266.579498	145.500000
266.672485	145.220000
266.765442	145.440000
266.858429	146.080000
266.951385	145.880000
267.044342	146.540000
267.137329	146.600000
267.230316	146.960000
267.323273	146.560000
267.416260	147.040000
267.509216	146.660000
267.602203	146.600000
267.695160	146.920000
267.788147	146.980000
267.881134	146.120000
267.974091	146.520000
268.067078	146.420000
268.160065	145.760000
268.253052	145.840000
268.346008	145.880000
268.438995	145.360000
268.531982	145.800000
268.624969	145.860000
268.717987	145.660000
268.810944	146.180000
268.903961	146.540000
268.996948	145.960000
269.089905	146.460000
269.182892	146.500000
269.275879	146.360000
269.368866	146.260000
269.461853	146.400000
269.554871	146.160000
269.647858	146.260000
269.740845	146.720000
269.833832	147.160000
269.926819	146.820000
270.019806	146.660000
270.112793	146.460000
270.205811	146.280000
270.298798	145.880000
270.391785	146.800000
270.484772	146.700000
270.577789	146.720000
270.670776	146.280000
270.763763	146.080000
270.856750	145.960000
270.949768	145.760000
271.042786	145.660000
271.135773	145.660000
271.228790	146.280000
271.321808	145.720000
271.414795	145.460000
271.507782	145.440000
271.600800	145.420000
271.693817	145.120000
271.786804	145.500000
271.879822	145.980000
271.972809	146.120000
272.065826	146.600000
272.158844	146.380000
272.251831	146.980000
272.344849	147.020000
272.437866	146.800000
272.530853	146.400000
272.623871	146.580000
272.716888	145.620000
272.809906	145.760000
272.902893	145.940000
272.995911	145.580000
273.088928	145.380000
273.181946	145.640000
273.274963	145.640000
273.367981	145.580000
273.460999	145.980000
273.554047	146.380000
273.647003	147.080000
273.740051	146.700000
273.833069	147.160000
273.926086	147.060000
274.019135	146.660000
274.112152	146.040000
274.205170	146.080000
274.298187	146.300000
274.391205	146.260000
274.484222	146.480000
274.577240	146.460000
274.670258	146.500000
274.763306	145.720000
274.856323	145.660000
274.949341	145.680000
275.042358	146.140000
275.135406	146.000000
275.228424	146.220000
275.321442	146.320000
275.414490	145.960000
275.507507	146.040000
275.600525	146.300000
275.693573	146.300000
275.786591	146.060000
275.879669	146.440000
275.972656	145.680000
276.065735	146.060000
276.158752	146.340000
276.251801	147.160000
276.344818	147.060000
276.437866	147.080000
276.530884	146.500000
276.623932	145.700000
276.716980	145.620000
276.809998	145.780000
276.903046	146.240000
276.996094	147.180000
277.089111	148.320000
277.182159	148.620000
277.275208	148.180000
277.368256	147.820000
277.461304	147.620000
277.554321	146.760000
277.647369	146.300000
277.740417	146.280000
277.833466	146.200000
277.926514	145.680000
278.019562	146.260000
278.112610	145.820000
278.205688	146.420000
278.298706	146.720000
278.391785	146.480000
278.484833	145.880000
278.577881	145.960000
278.670929	145.720000
278.763977	145.660000
278.857025	146.120000
278.950073	146.240000
279.043121	145.940000
279.136169	146.080000
279.229248	146.000000
279.322296	145.880000
279.415344	145.880000
279.508392	146.020000
279.601440	146.060000
279.694519	145.940000
279.787567	145.760000
279.880615	145.640000
279.973694	145.720000
280.066742	145.740000
280.159790	145.920000
280.252869	145.780000
280.345917	146.280000
280.438995	146.340000
280.532074	145.780000
280.625122	146.040000
280.718201	147.020000
280.811279	146.820000
280.904327	147.020000
280.997406	147.440000
281.090454	147.360000
281.183533	146.480000
281.276581	146.500000
281.369659	146.160000
281.462738	146.080000
281.555786	146.080000
281.648865	146.120000
281.741943	145.900000
281.835022	146.420000
281.928070	146.500000
282.021149	146.260000
282.114227	146.460000
282.207306	146.560000
282.300385	146.600000
282.393433	146.540000
282.486511	146.580000
282.579590	147.060000
282.672668	147.500000
282.765747	147.120000
282.858856	146.800000
282.951904	146.680000
283.045013	146.400000
283.138062	146.520000
283.231171	146.840000
283.324249	147.460000
283.417328	147.600000
283.510406	147.220000
283.603485	146.900000
283.696564	146.640000
283.789642	146.520000
283.882751	146.140000
283.975830	146.860000
284.068909	146.660000
284.161987	147.460000
284.255066	146.680000
284.348175	147.240000
284.441254	146.900000
284.534332	147.340000
284.627441	146.620000
284.720520	146.660000
284.813599	146.340000
284.906708	146.220000
284.999786	145.500000
285.092896	145.200000
285.185974	146.540000
285.279053	146.060000
285.372192	146.000000
285.465240	146.660000
285.558380	146.720000
285.651459	145.860000
285.744568	146.880000
285.837677	146.840000
285.930756	146.700000
286.023865	146.560000
286.116943	146.280000
286.210052	146.120000
286.303162	146.000000
286.396240	146.000000
286.489349	146.100000
286.582458	146.520000
286.675568	146.260000
286.768646	146.200000
286.861755	146.340000
286.954865	146.980000
287.047974	146.400000
287.141083	146.480000
287.234161	146.520000
287.327271	146.140000
287.420380	146.080000
287.513519	146.460000
287.606598	146.340000
287.699738	146.640000
287.792816	146.700000
287.885956	146.460000
287.979034	146.480000
288.072174	146.600000
288.165283	146.080000
288.258392	146.300000
288.351501	146.000000
288.444611	146.140000
288.537720	146.280000
288.630859	146.560000
288.723969	146.660000
288.817078	146.860000
288.910187	146.800000
289.003296	146.220000
289.096436	145.660000
289.189545	145.040000
289.282654	144.680000
289.375763	144.840000
289.468903	145.360000
289.562012	146.020000
289.655121	146.320000
289.748260	146.660000
289.841400	146.720000
289.934509	146.680000
290.027649	146.960000
290.120728	147.000000
290.213898	146.920000
290.306976	146.820000
290.400146	146.980000
290.493256	146.320000
290.586395	146.420000
290.679535	146.460000
290.772644	146.120000
290.865784	145.280000
290.958893	145.380000
291.052032	145.140000
291.145172	145.280000
291.238281	145.080000
291.331421	145.440000
291.424561	146.220000
291.517670	146.160000
291.610809	145.920000
291.703949	145.980000
291.797089	146.120000
291.890228	145.200000
291.983337	145.240000
292.076477	145.120000
292.169617	145.820000
292.262756	146.020000
292.355927	146.220000
292.449036	146.100000
292.542206	146.520000
292.635315	146.400000
292.728485	146.640000
292.821625	146.300000
292.914764	147.380000
293.007904	147.740000
293.101044	147.700000
293.194183	147.240000
293.287323	147.520000
293.380463	146.860000
293.473602	146.440000
293.566742	146.560000
293.659882	147.260000
293.753021	147.440000
293.846191	147.000000
293.939331	146.800000
294.032471	146.660000
294.125610	145.960000
294.218781	146.480000
294.311920	147.120000
294.405060	147.220000
294.498230	147.100000
294.591370	147.220000
294.684540	146.360000
294.777679	145.920000
294.870850	146.100000
294.963959	146.120000
295.057159	146.000000
295.150299	146.620000
295.243469	146.600000
295.336609	146.280000
295.429779	146.080000
295.522919	146.460000
295.616089	146.400000
295.709229	147.080000
295.802399	147.120000
295.895569	147.220000
295.988708	146.940000
296.081879	146.740000
296.175018	145.900000
296.268188	145.880000
296.361359	146.480000
296.454529	146.740000
296.547668	146.760000
296.640839	147.300000
296.734009	147.020000
296.827179	146.620000
296.920319	146.700000
297.013519	146.720000
297.106659	146.400000
297.199860	146.780000
297.292999	146.800000
297.386200	146.320000
297.479309	146.200000
297.572510	146.180000
297.665680	145.740000
297.758850	145.640000
297.852020	145.780000
297.945190	145.460000
298.038361	145.120000
298.131531	146.240000
298.224701	145.860000
298.317871	145.660000
298.411072	145.700000
298.504242	145.680000
298.597412	144.960000
298.690582	145.600000
298.783752	145.380000
298.876923	145.980000
298.970093	146.420000
299.063293	146.740000
299.156464	146.780000
299.249634	147.240000
299.342834	146.820000
299.436005	147.040000
299.529205	146.860000
299.622345	146.700000
299.715576	146.120000
299.808716	146.120000
299.901917	145.800000
299.995117	145.860000
300.088287	146.120000
300.181488	146.220000
300.274658	146.340000
300.367828	146.580000
300.461029	146.540000
300.554199	146.480000
300.647400	146.540000
300.740601	146.680000
300.833771	146.260000
300.926971	146.520000
301.020142	145.780000
301.113342	145.900000
301.206512	145.900000
301.299713	146.420000
301.392914	146.280000
301.486084	147.020000
301.579285	146.800000
301.672516	147.140000
301.765686	146.800000
301.858887	146.420000
301.952057	146.280000
302.045288	146.460000
302.138458	146.160000
302.231659	146.100000
302.324860	146.400000
302.418060	146.020000
302.511261	146.040000
302.604462	146.020000
302.697662	145.600000
302.790863	145.180000
302.884064	144.860000
302.977264	144.900000
303.070465	145.060000
303.163666	145.880000
303.256866	146.340000
303.350067	146.840000
303.443268	146.980000
303.536469	146.940000
303.629669	146.620000
303.722870	146.820000
303.816071	146.160000
303.909271	146.300000
304.002472	145.680000
304.095673	145.320000
304.188934	144.720000
304.282104	146.060000
304.375336	145.800000
304.468506	146.100000
304.561768	146.400000
304.654968	146.920000
304.748169	146.120000
304.841370	146.080000
304.934601	146.200000
305.027802	145.840000
305.121002	145.400000
305.214233	145.600000
305.307434	145.560000
305.400665	146.140000
305.493866	146.380000
