Model Number: SPM-002-B   
Serial Number: 70087108
Firmware Version: 004.15.4
Exposure Time: 100000.000000us
Data Taken on: 11-12-2020 18:48:31.163
Wavelength	Amplitude
221.570786	0.000000
221.663406	0.000000
221.756027	0.000000
221.848648	0.000000
221.941269	0.000000
222.033905	0.000000
222.126526	0.000000
222.219162	0.000000
222.311798	0.000000
222.404419	0.000000
222.497055	0.000000
222.589676	0.000000
222.682312	0.000000
222.774933	0.000000
222.867569	0.000000
222.960205	0.000000
223.052841	0.000000
223.145462	0.000000
223.238098	0.000000
223.330734	0.000000
223.423386	0.000000
223.516022	0.000000
223.608658	0.000000
223.701309	0.000000
223.793945	0.000000
223.886581	0.000000
223.979218	0.000000
224.071869	0.000000
224.164505	0.000000
224.257156	0.000000
224.349792	0.000000
224.442444	0.000000
224.535095	0.000000
224.627747	0.000000
224.720398	0.000000
224.813034	0.000000
224.905685	0.000000
224.998337	145.220000
225.090988	145.260000
225.183640	145.160000
225.276291	145.240000
225.368942	145.980000
225.461594	146.180000
225.554245	146.080000
225.646912	145.940000
225.739578	146.480000
225.832230	146.640000
225.924896	145.940000
226.017548	146.160000
226.110199	146.940000
226.202866	146.260000
226.295532	146.260000
226.388184	146.260000
226.480850	145.740000
226.573517	145.260000
226.666168	145.720000
226.758835	145.720000
226.851501	146.580000
226.944183	146.780000
227.036850	146.140000
227.129517	145.880000
227.222183	145.840000
227.314850	145.320000
227.407516	145.680000
227.500198	146.660000
227.592865	146.300000
227.685532	145.960000
227.778214	145.740000
227.870880	146.000000
227.963562	146.180000
228.056229	146.840000
228.148926	146.940000
228.241592	147.660000
228.334274	147.260000
228.426956	146.720000
228.519638	146.600000
228.612305	146.220000
228.704987	146.320000
228.797668	146.240000
228.890350	146.060000
228.983032	145.520000
229.075714	146.360000
229.168396	146.000000
229.261108	145.720000
229.353790	145.620000
229.446472	145.880000
229.539169	145.680000
229.631851	145.120000
229.724533	145.200000
229.817230	145.720000
229.909912	146.480000
230.002609	146.340000
230.095306	146.620000
230.187988	146.660000
230.280685	146.520000
230.373383	145.420000
230.466095	145.080000
230.558792	145.480000
230.651474	145.560000
230.744171	145.460000
230.836868	145.560000
230.929581	146.100000
231.022278	145.900000
231.114975	146.160000
231.207672	146.100000
231.300369	146.720000
231.393082	146.720000
231.485779	146.480000
231.578506	146.240000
231.671204	146.400000
231.763916	146.140000
231.856613	145.840000
231.949326	145.920000
232.042023	145.940000
232.134735	145.660000
232.227448	145.140000
232.320160	145.560000
232.412872	145.880000
232.505585	146.460000
232.598297	146.940000
232.691010	147.300000
232.783722	146.700000
232.876450	147.060000
232.969162	146.420000
233.061874	145.640000
233.154587	145.280000
233.247314	145.780000
233.340027	145.300000
233.432739	145.960000
233.525467	146.160000
233.618179	147.120000
233.710907	146.640000
233.803635	146.680000
233.896347	146.300000
233.989090	146.780000
234.081818	146.240000
234.174545	146.620000
234.267258	146.420000
234.359985	146.400000
234.452713	146.360000
234.545441	146.100000
234.638168	145.700000
234.730896	146.120000
234.823639	146.160000
234.916367	146.260000
235.009094	146.460000
235.101822	146.620000
235.194580	146.620000
235.287308	146.520000
235.380051	145.880000
235.472778	146.100000
235.565521	146.500000
235.658249	146.080000
235.750992	146.040000
235.843719	146.540000
235.936462	146.720000
236.029205	146.400000
236.121948	146.120000
236.214691	146.380000
236.307449	146.820000
236.400192	146.320000
236.492935	146.120000
236.585678	146.440000
236.678421	146.220000
236.771164	145.820000
236.863907	146.320000
236.956665	146.680000
237.049408	148.240000
237.142151	147.920000
237.234909	148.280000
237.327652	148.340000
237.420410	147.840000
237.513153	146.740000
237.605927	146.440000
237.698669	145.980000
237.791428	145.260000
237.884186	145.900000
237.976944	145.060000
238.069702	146.020000
238.162445	145.800000
238.255203	146.020000
238.347961	146.120000
238.440720	146.440000
238.533478	145.940000
238.626266	145.540000
238.719025	145.880000
238.811783	145.460000
238.904541	145.420000
238.997314	145.220000
239.090073	145.360000
239.182831	145.600000
239.275604	146.240000
239.368362	146.060000
239.461136	146.300000
239.553909	146.440000
239.646667	145.760000
239.739441	145.140000
239.832214	145.480000
239.925003	145.700000
240.017761	146.360000
240.110535	147.080000
240.203308	146.860000
240.296082	146.980000
240.388855	146.880000
240.481628	146.600000
240.574417	146.660000
240.667191	147.180000
240.759964	146.720000
240.852737	146.540000
240.945526	146.200000
241.038315	145.640000
241.131088	145.320000
241.223877	145.800000
241.316650	145.380000
241.409439	145.700000
241.502228	145.340000
241.595001	146.020000
241.687790	145.920000
241.780579	146.180000
241.873367	146.580000
241.966141	147.020000
242.058929	146.460000
242.151718	146.560000
242.244507	147.120000
242.337311	145.800000
242.430099	146.260000
242.522903	146.200000
242.615692	145.760000
242.708481	145.700000
242.801270	146.860000
242.894073	146.500000
242.986862	146.520000
243.079651	147.500000
243.172455	147.040000
243.265244	146.960000
243.358063	146.560000
243.450867	146.820000
243.543655	146.140000
243.636459	146.620000
243.729263	146.720000
243.822067	147.000000
243.914856	147.420000
244.007660	147.560000
244.100464	147.460000
244.193268	146.880000
244.286072	146.600000
244.378876	146.000000
244.471680	145.840000
244.564499	145.840000
244.657318	146.800000
244.750122	146.960000
244.842926	146.340000
244.935745	146.720000
245.028549	146.460000
245.121368	145.620000
245.214172	145.680000
245.306992	146.260000
245.399796	145.840000
245.492615	145.780000
245.585434	145.960000
245.678253	146.060000
245.771072	146.180000
245.863892	146.780000
245.956711	147.440000
246.049530	147.200000
246.142349	147.060000
246.235168	147.060000
246.327988	147.260000
246.420807	146.480000
246.513626	146.540000
246.606445	146.300000
246.699280	146.020000
246.792099	145.300000
246.884918	145.080000
246.977753	144.880000
247.070587	145.180000
247.163422	145.160000
247.256241	145.360000
247.349075	146.000000
247.441895	146.240000
247.534729	146.140000
247.627563	145.980000
247.720383	146.680000
247.813217	146.420000
247.906052	146.180000
247.998886	146.220000
248.091736	146.500000
248.184570	145.840000
248.277405	145.900000
248.370239	146.820000
248.463074	147.880000
248.555908	148.040000
248.648743	147.800000
248.741592	147.840000
248.834427	147.340000
248.927261	146.100000
249.020111	146.340000
249.112946	146.940000
249.205795	146.700000
249.298630	146.780000
249.391495	146.700000
249.484344	146.440000
249.577179	146.200000
249.670029	146.240000
249.762878	146.480000
249.855728	146.860000
249.948563	146.880000
250.041412	146.160000
250.134262	146.620000
250.227112	146.480000
250.319962	146.660000
250.412827	146.600000
250.505692	146.480000
250.598541	146.160000
250.691391	145.820000
250.784241	145.500000
250.877106	145.740000
250.969955	145.780000
251.062805	146.340000
251.155670	147.020000
251.248520	147.060000
251.341385	147.200000
251.434235	147.340000
251.527100	146.880000
251.619965	145.980000
251.712814	146.540000
251.805695	146.100000
251.898560	146.420000
251.991425	146.440000
252.084290	146.900000
252.177155	146.400000
252.270020	146.380000
252.362885	146.100000
252.455750	146.520000
252.548615	146.040000
252.641479	145.640000
252.734360	145.500000
252.827240	145.420000
252.920105	145.100000
253.012970	145.300000
253.105850	145.680000
253.198715	145.540000
253.291595	145.940000
253.384460	145.500000
253.477341	145.540000
253.570221	145.540000
253.663086	145.460000
253.755966	145.860000
253.848846	146.120000
253.941727	146.380000
254.034592	146.220000
254.127472	145.960000
254.220367	145.740000
254.313248	145.760000
254.406128	145.260000
254.499008	145.720000
254.591904	146.580000
254.684784	147.020000
254.777664	146.880000
254.870544	146.740000
254.963440	146.780000
255.056335	146.880000
255.149216	146.240000
255.242111	147.220000
255.334991	147.680000
255.427887	147.540000
255.520767	147.560000
255.613663	148.000000
255.706558	146.880000
255.799438	146.580000
255.892334	146.380000
255.985229	146.160000
256.078125	145.900000
256.171021	146.460000
256.263916	147.020000
256.356812	147.100000
256.449707	147.180000
256.542603	146.700000
256.635498	146.800000
256.728394	146.580000
256.821289	146.400000
256.914215	146.560000
257.007080	147.180000
257.100006	147.120000
257.192932	147.540000
257.285828	147.840000
257.378723	147.660000
257.471619	147.220000
257.564545	146.660000
257.657440	146.400000
257.750336	146.640000
257.843262	146.320000
257.936157	147.580000
258.029053	148.200000
258.121979	148.220000
258.214874	147.860000
258.307800	147.580000
258.400696	146.280000
258.493622	146.240000
258.586517	145.620000
258.679443	145.840000
258.772339	146.100000
258.865265	146.140000
258.958160	145.420000
259.051086	146.060000
259.144012	145.780000
259.236938	146.480000
259.329834	146.700000
259.422791	146.820000
259.515717	146.480000
259.608612	146.340000
259.701538	146.020000
259.794464	145.780000
259.887390	145.740000
259.980316	145.600000
260.073212	145.580000
260.166138	144.520000
260.259064	145.140000
260.351990	146.180000
260.444916	146.580000
260.537842	146.880000
260.630768	148.100000
260.723694	147.400000
260.816620	146.720000
260.909546	146.560000
261.002472	146.180000
261.095398	145.420000
261.188354	145.740000
261.281281	145.540000
261.374207	145.480000
261.467133	146.260000
261.560089	146.660000
261.653015	146.520000
261.745972	147.300000
261.838867	147.600000
261.931824	147.580000
262.024780	147.120000
262.117706	147.440000
262.210663	147.140000
262.303589	147.100000
262.396515	146.500000
262.489471	147.460000
262.582397	147.020000
262.675354	146.660000
262.768280	146.500000
262.861237	146.840000
262.954163	146.660000
263.047119	146.700000
263.140045	146.540000
263.233002	146.280000
263.325958	146.020000
263.418884	145.020000
263.511841	145.340000
263.604797	145.480000
263.697723	145.640000
263.790680	145.560000
263.883636	146.460000
263.976593	146.160000
264.069550	146.180000
264.162476	146.020000
264.255463	146.640000
264.348419	146.080000
264.441376	146.500000
264.534332	145.880000
264.627289	146.040000
264.720245	146.020000
264.813202	145.980000
264.906158	146.180000
264.999115	147.060000
265.092072	147.040000
265.185028	147.000000
265.277985	147.360000
265.370941	146.760000
265.463898	146.560000
265.556854	146.260000
265.649811	145.460000
265.742798	145.660000
265.835754	145.760000
265.928711	146.100000
266.021667	146.160000
266.114655	146.800000
266.207611	146.780000
266.300568	146.280000
266.393585	145.840000
266.486511	146.100000
266.579498	145.380000
266.672485	145.120000
266.765442	145.360000
266.858429	145.940000
266.951385	145.640000
267.044342	146.040000
267.137329	146.280000
267.230316	146.740000
267.323273	146.160000
267.416260	146.980000
267.509216	146.980000
267.602203	146.960000
267.695160	147.120000
267.788147	147.400000
267.881134	146.760000
267.974091	146.820000
268.067078	146.380000
268.160065	145.980000
268.253052	145.560000
268.346008	145.620000
268.438995	145.480000
268.531982	145.620000
268.624969	145.420000
268.717987	145.860000
268.810944	145.780000
268.903961	145.800000
268.996948	145.680000
269.089905	146.340000
269.182892	146.440000
269.275879	146.660000
269.368866	146.380000
269.461853	146.820000
269.554871	146.080000
269.647858	145.820000
269.740845	146.260000
269.833832	146.680000
269.926819	146.260000
270.019806	146.760000
270.112793	146.320000
270.205811	146.380000
270.298798	146.180000
270.391785	146.700000
270.484772	146.280000
270.577789	146.640000
270.670776	146.100000
270.763763	146.200000
270.856750	146.140000
270.949768	146.420000
271.042786	146.560000
271.135773	146.580000
271.228790	146.880000
271.321808	146.160000
271.414795	145.700000
271.507782	145.300000
271.600800	144.920000
271.693817	144.380000
271.786804	145.080000
271.879822	145.480000
271.972809	145.760000
272.065826	146.520000
272.158844	146.380000
272.251831	146.600000
272.344849	146.220000
272.437866	146.100000
272.530853	146.160000
272.623871	146.680000
272.716888	145.740000
272.809906	146.280000
272.902893	146.220000
272.995911	145.560000
273.088928	145.840000
273.181946	146.300000
273.274963	146.060000
273.367981	146.060000
273.460999	146.320000
273.554047	146.440000
273.647003	147.260000
273.740051	147.260000
273.833069	147.760000
273.926086	148.040000
274.019135	147.680000
274.112152	147.120000
274.205170	147.280000
274.298187	147.440000
274.391205	146.820000
274.484222	146.720000
274.577240	146.480000
274.670258	146.080000
274.763306	145.520000
274.856323	146.160000
274.949341	146.240000
275.042358	146.900000
275.135406	147.080000
275.228424	147.120000
275.321442	146.800000
275.414490	146.420000
275.507507	146.320000
275.600525	146.920000
275.693573	147.020000
275.786591	146.600000
275.879669	147.100000
275.972656	146.580000
276.065735	146.100000
276.158752	146.460000
276.251801	147.060000
276.344818	146.840000
276.437866	147.060000
276.530884	146.880000
276.623932	146.060000
276.716980	146.140000
276.809998	146.100000
276.903046	146.200000
276.996094	147.040000
277.089111	147.820000
277.182159	148.240000
277.275208	148.400000
277.368256	147.980000
277.461304	147.440000
277.554321	146.640000
277.647369	146.200000
277.740417	145.780000
277.833466	145.800000
277.926514	145.680000
278.019562	146.400000
278.112610	145.580000
278.205688	145.980000
278.298706	146.260000
278.391785	146.040000
278.484833	145.440000
278.577881	145.820000
278.670929	146.020000
278.763977	146.140000
278.857025	146.740000
278.950073	146.600000
279.043121	146.440000
279.136169	146.000000
279.229248	145.480000
279.322296	145.280000
279.415344	145.500000
279.508392	145.420000
279.601440	145.520000
279.694519	145.540000
279.787567	145.360000
279.880615	145.440000
279.973694	145.360000
280.066742	145.520000
280.159790	146.040000
280.252869	145.480000
280.345917	145.500000
280.438995	145.840000
280.532074	145.680000
280.625122	145.780000
280.718201	147.100000
280.811279	147.180000
280.904327	147.100000
280.997406	147.160000
281.090454	147.000000
281.183533	146.100000
281.276581	145.960000
281.369659	145.840000
281.462738	145.980000
281.555786	145.920000
281.648865	146.060000
281.741943	146.220000
281.835022	147.100000
281.928070	146.780000
282.021149	146.760000
282.114227	146.660000
282.207306	146.480000
282.300385	146.340000
282.393433	146.500000
282.486511	146.080000
282.579590	146.680000
282.672668	146.920000
282.765747	146.140000
282.858856	146.140000
282.951904	146.600000
283.045013	146.360000
283.138062	146.580000
283.231171	147.020000
283.324249	147.480000
283.417328	147.440000
283.510406	147.060000
283.603485	146.720000
283.696564	146.540000
283.789642	146.240000
283.882751	146.040000
283.975830	146.720000
284.068909	146.340000
284.161987	147.040000
284.255066	146.520000
284.348175	146.600000
284.441254	145.980000
284.534332	146.700000
284.627441	146.120000
284.720520	145.880000
284.813599	145.840000
284.906708	146.300000
284.999786	145.580000
285.092896	145.120000
285.185974	146.400000
285.279053	146.100000
285.372192	146.060000
285.465240	146.960000
285.558380	147.060000
285.651459	146.540000
285.744568	147.460000
285.837677	146.800000
285.930756	146.200000
286.023865	146.340000
286.116943	145.840000
286.210052	145.520000
286.303162	145.840000
286.396240	145.820000
286.489349	145.860000
286.582458	146.180000
286.675568	145.640000
286.768646	145.780000
286.861755	146.140000
286.954865	146.860000
287.047974	146.380000
287.141083	146.360000
287.234161	146.020000
287.327271	145.720000
287.420380	145.480000
287.513519	145.440000
287.606598	145.720000
287.699738	146.080000
287.792816	145.760000
287.885956	145.860000
287.979034	146.360000
288.072174	146.500000
288.165283	146.140000
288.258392	146.860000
288.351501	146.020000
288.444611	145.940000
288.537720	146.080000
288.630859	146.140000
288.723969	146.120000
288.817078	146.440000
288.910187	146.260000
289.003296	145.840000
289.096436	145.680000
289.189545	145.300000
289.282654	145.180000
289.375763	145.740000
289.468903	146.260000
289.562012	146.720000
289.655121	146.920000
289.748260	147.080000
289.841400	147.340000
289.934509	147.040000
290.027649	146.980000
290.120728	146.560000
290.213898	146.660000
290.306976	146.120000
290.400146	146.220000
290.493256	146.180000
290.586395	146.640000
290.679535	146.680000
290.772644	146.540000
290.865784	145.580000
290.958893	145.420000
291.052032	145.220000
291.145172	145.060000
291.238281	144.760000
291.331421	145.160000
291.424561	145.560000
291.517670	145.240000
291.610809	145.560000
291.703949	145.580000
291.797089	145.800000
291.890228	145.120000
291.983337	145.200000
292.076477	144.780000
292.169617	145.160000
292.262756	145.420000
292.355927	145.920000
292.449036	145.860000
292.542206	146.100000
292.635315	146.340000
292.728485	146.660000
292.821625	146.100000
292.914764	147.280000
293.007904	147.160000
293.101044	146.920000
293.194183	146.340000
293.287323	146.560000
293.380463	145.760000
293.473602	145.860000
293.566742	145.920000
293.659882	146.400000
293.753021	147.000000
293.846191	146.780000
293.939331	146.500000
294.032471	146.500000
294.125610	146.140000
294.218781	146.000000
294.311920	146.560000
294.405060	146.680000
294.498230	146.800000
294.591370	146.960000
294.684540	146.240000
294.777679	145.720000
294.870850	146.160000
294.963959	145.720000
295.057159	145.320000
295.150299	145.820000
295.243469	145.720000
295.336609	145.020000
295.429779	145.300000
295.522919	145.820000
295.616089	145.700000
295.709229	146.460000
295.802399	146.760000
295.895569	146.460000
295.988708	146.400000
296.081879	146.720000
296.175018	146.140000
296.268188	146.060000
296.361359	146.800000
296.454529	147.020000
296.547668	146.820000
296.640839	147.220000
296.734009	146.880000
296.827179	146.780000
296.920319	146.800000
297.013519	146.680000
297.106659	146.540000
297.199860	146.900000
297.292999	146.520000
297.386200	146.100000
297.479309	145.940000
297.572510	145.800000
297.665680	145.620000
297.758850	145.860000
297.852020	145.940000
297.945190	146.000000
298.038361	145.720000
298.131531	146.720000
298.224701	146.260000
298.317871	145.920000
298.411072	145.780000
298.504242	145.920000
298.597412	144.920000
298.690582	145.180000
298.783752	145.580000
298.876923	146.080000
298.970093	146.160000
299.063293	146.800000
299.156464	147.040000
299.249634	147.000000
299.342834	147.040000
299.436005	147.120000
299.529205	146.820000
299.622345	147.040000
299.715576	146.600000
299.808716	146.280000
299.901917	146.240000
299.995117	146.260000
300.088287	146.000000
300.181488	145.620000
300.274658	145.720000
300.367828	145.520000
300.461029	145.680000
300.554199	145.860000
300.647400	146.320000
300.740601	146.600000
300.833771	146.600000
300.926971	146.800000
301.020142	146.360000
301.113342	146.580000
301.206512	146.420000
301.299713	146.700000
301.392914	146.640000
301.486084	146.980000
301.579285	146.840000
301.672516	147.380000
301.765686	147.180000
301.858887	146.900000
301.952057	146.880000
302.045288	146.740000
302.138458	146.040000
302.231659	145.740000
302.324860	145.520000
302.418060	145.000000
302.511261	144.980000
302.604462	145.300000
302.697662	145.440000
302.790863	145.740000
302.884064	145.740000
302.977264	145.980000
303.070465	146.060000
303.163666	146.660000
303.256866	146.720000
303.350067	146.860000
303.443268	146.840000
303.536469	146.680000
303.629669	146.140000
303.722870	146.500000
303.816071	146.240000
303.909271	146.340000
304.002472	145.900000
304.095673	145.800000
304.188934	144.800000
304.282104	145.720000
304.375336	145.660000
304.468506	145.760000
304.561768	145.460000
304.654968	146.300000
304.748169	145.660000
304.841370	145.380000
304.934601	145.740000
305.027802	145.880000
305.121002	145.220000
305.214233	145.480000
305.307434	145.680000
305.400665	146.100000
305.493866	146.420000
