Model Number: SPM-002-B   
Serial Number: 70087108
Firmware Version: 004.15.4
Exposure Time: 100000.000000us
Data Taken on: 11-12-2020 18:48:49.757
Wavelength	Amplitude
221.570786	0.000000
221.663406	0.000000
221.756027	0.000000
221.848648	0.000000
221.941269	0.000000
222.033905	0.000000
222.126526	0.000000
222.219162	0.000000
222.311798	0.000000
222.404419	0.000000
222.497055	0.000000
222.589676	0.000000
222.682312	0.000000
222.774933	0.000000
222.867569	0.000000
222.960205	0.000000
223.052841	0.000000
223.145462	0.000000
223.238098	0.000000
223.330734	0.000000
223.423386	0.000000
223.516022	0.000000
223.608658	0.000000
223.701309	0.000000
223.793945	0.000000
223.886581	0.000000
223.979218	0.000000
224.071869	0.000000
224.164505	0.000000
224.257156	0.000000
224.349792	0.000000
224.442444	0.000000
224.535095	0.000000
224.627747	0.000000
224.720398	0.000000
224.813034	0.000000
224.905685	0.000000
224.998337	145.660000
225.090988	145.140000
225.183640	144.900000
225.276291	145.040000
225.368942	145.220000
225.461594	145.680000
225.554245	146.320000
225.646912	146.260000
225.739578	146.600000
225.832230	147.180000
225.924896	146.260000
226.017548	146.620000
226.110199	147.480000
226.202866	146.800000
226.295532	146.440000
226.388184	146.340000
226.480850	145.860000
226.573517	145.020000
226.666168	145.400000
226.758835	145.820000
226.851501	146.780000
226.944183	146.640000
227.036850	146.520000
227.129517	146.620000
227.222183	146.820000
227.314850	146.420000
227.407516	146.980000
227.500198	147.860000
227.592865	147.300000
227.685532	146.600000
227.778214	146.340000
227.870880	146.460000
227.963562	146.460000
228.056229	147.180000
228.148926	147.160000
228.241592	148.200000
228.334274	147.540000
228.426956	147.040000
228.519638	147.180000
228.612305	146.960000
228.704987	146.280000
228.797668	146.700000
228.890350	146.620000
228.983032	145.720000
229.075714	146.520000
229.168396	146.320000
229.261108	145.700000
229.353790	145.820000
229.446472	146.260000
229.539169	145.700000
229.631851	145.480000
229.724533	145.900000
229.817230	146.200000
229.909912	147.000000
230.002609	147.020000
230.095306	146.940000
230.187988	146.820000
230.280685	146.760000
230.373383	146.040000
230.466095	146.080000
230.558792	146.540000
230.651474	146.440000
230.744171	146.280000
230.836868	145.780000
230.929581	146.060000
231.022278	146.100000
231.114975	146.520000
231.207672	146.200000
231.300369	146.880000
231.393082	147.120000
231.485779	146.960000
231.578506	146.840000
231.671204	147.340000
231.763916	146.860000
231.856613	146.440000
231.949326	146.880000
232.042023	146.660000
232.134735	146.360000
232.227448	146.580000
232.320160	146.840000
232.412872	146.520000
232.505585	147.240000
232.598297	147.640000
232.691010	147.380000
232.783722	147.040000
232.876450	147.580000
232.969162	147.160000
233.061874	146.440000
233.154587	146.480000
233.247314	146.880000
233.340027	145.780000
233.432739	145.820000
233.525467	146.020000
233.618179	146.480000
233.710907	145.860000
233.803635	146.600000
233.896347	146.460000
233.989090	147.100000
234.081818	146.800000
234.174545	147.540000
234.267258	147.120000
234.359985	147.340000
234.452713	147.020000
234.545441	146.800000
234.638168	146.340000
234.730896	146.700000
234.823639	146.360000
234.916367	146.640000
235.009094	146.880000
235.101822	146.860000
235.194580	146.760000
235.287308	147.000000
235.380051	146.400000
235.472778	146.540000
235.565521	146.740000
235.658249	146.420000
235.750992	146.300000
235.843719	146.520000
235.936462	146.620000
236.029205	146.320000
236.121948	146.440000
236.214691	146.980000
236.307449	147.400000
236.400192	146.920000
236.492935	146.540000
236.585678	146.460000
236.678421	146.140000
236.771164	145.760000
236.863907	146.460000
236.956665	147.120000
237.049408	148.680000
237.142151	148.160000
237.234909	148.820000
237.327652	148.440000
237.420410	147.900000
237.513153	146.940000
237.605927	146.940000
237.698669	146.260000
237.791428	145.780000
237.884186	146.320000
237.976944	145.500000
238.069702	145.920000
238.162445	145.580000
238.255203	146.000000
238.347961	146.320000
238.440720	146.920000
238.533478	146.740000
238.626266	146.700000
238.719025	146.920000
238.811783	146.540000
238.904541	146.180000
238.997314	145.960000
239.090073	145.860000
239.182831	146.040000
239.275604	146.680000
239.368362	146.520000
239.461136	146.720000
239.553909	146.880000
239.646667	146.720000
239.739441	146.240000
239.832214	146.680000
239.925003	146.800000
240.017761	147.440000
240.110535	147.500000
240.203308	146.940000
240.296082	147.020000
240.388855	146.840000
240.481628	146.820000
240.574417	146.880000
240.667191	147.220000
240.759964	146.720000
240.852737	146.720000
240.945526	146.180000
241.038315	146.100000
241.131088	146.320000
241.223877	146.720000
241.316650	146.600000
241.409439	146.940000
241.502228	146.240000
241.595001	146.280000
241.687790	146.100000
241.780579	146.260000
241.873367	146.480000
241.966141	146.760000
242.058929	146.200000
242.151718	146.480000
242.244507	146.840000
242.337311	145.980000
242.430099	146.520000
242.522903	146.920000
242.615692	146.080000
242.708481	145.860000
242.801270	146.680000
242.894073	146.340000
242.986862	146.460000
243.079651	147.480000
243.172455	147.020000
243.265244	146.980000
243.358063	146.520000
243.450867	146.500000
243.543655	145.780000
243.636459	146.140000
243.729263	146.340000
243.822067	146.760000
243.914856	147.060000
244.007660	147.480000
244.100464	147.380000
244.193268	146.800000
244.286072	146.720000
244.378876	145.980000
244.471680	145.680000
244.564499	145.980000
244.657318	146.760000
244.750122	146.920000
244.842926	146.460000
244.935745	146.700000
245.028549	146.380000
245.121368	145.580000
245.214172	145.440000
245.306992	146.400000
245.399796	146.360000
245.492615	146.740000
245.585434	146.600000
245.678253	146.600000
245.771072	146.360000
245.863892	146.600000
245.956711	146.640000
246.049530	146.860000
246.142349	146.980000
246.235168	147.040000
246.327988	147.280000
246.420807	147.020000
246.513626	147.080000
246.606445	146.880000
246.699280	146.700000
246.792099	146.300000
246.884918	145.980000
246.977753	145.780000
247.070587	145.820000
247.163422	145.980000
247.256241	146.120000
247.349075	146.640000
247.441895	146.800000
247.534729	146.840000
247.627563	146.480000
247.720383	146.840000
247.813217	146.240000
247.906052	146.000000
247.998886	145.960000
248.091736	146.060000
248.184570	145.600000
248.277405	145.960000
248.370239	147.040000
248.463074	148.100000
248.555908	148.280000
248.648743	148.480000
248.741592	148.340000
248.834427	147.760000
248.927261	146.480000
249.020111	146.740000
249.112946	147.140000
249.205795	147.040000
249.298630	147.000000
249.391495	147.040000
249.484344	146.840000
249.577179	146.500000
249.670029	146.900000
249.762878	147.300000
249.855728	147.720000
249.948563	147.580000
250.041412	146.960000
250.134262	146.760000
250.227112	146.640000
250.319962	146.620000
250.412827	146.940000
250.505692	146.900000
250.598541	147.040000
250.691391	146.300000
250.784241	146.220000
250.877106	146.180000
250.969955	145.920000
251.062805	146.120000
251.155670	147.020000
251.248520	146.660000
251.341385	146.660000
251.434235	146.940000
251.527100	146.320000
251.619965	145.640000
251.712814	146.580000
251.805695	146.760000
251.898560	147.040000
251.991425	147.600000
252.084290	147.800000
252.177155	146.940000
252.270020	146.640000
252.362885	146.480000
252.455750	146.500000
252.548615	146.080000
252.641479	146.040000
252.734360	145.940000
252.827240	145.940000
252.920105	146.140000
253.012970	146.440000
253.105850	146.560000
253.198715	146.260000
253.291595	146.500000
253.384460	145.880000
253.477341	145.900000
253.570221	146.220000
253.663086	146.320000
253.755966	146.740000
253.848846	146.700000
253.941727	146.840000
254.034592	146.520000
254.127472	146.400000
254.220367	146.420000
254.313248	146.840000
254.406128	146.380000
254.499008	146.760000
254.591904	147.500000
254.684784	147.860000
254.777664	147.580000
254.870544	147.620000
254.963440	147.360000
255.056335	147.240000
255.149216	146.180000
255.242111	146.760000
255.334991	147.120000
255.427887	147.300000
255.520767	147.180000
255.613663	147.660000
255.706558	146.660000
255.799438	146.060000
255.892334	145.840000
255.985229	145.520000
256.078125	145.200000
256.171021	145.880000
256.263916	146.620000
256.356812	146.940000
256.449707	147.260000
256.542603	147.140000
256.635498	147.620000
256.728394	147.500000
256.821289	147.140000
256.914215	147.200000
257.007080	147.640000
257.100006	147.620000
257.192932	147.940000
257.285828	148.260000
257.378723	147.800000
257.471619	147.560000
257.564545	146.720000
257.657440	146.580000
257.750336	146.940000
257.843262	146.820000
257.936157	147.740000
258.029053	148.280000
258.121979	148.240000
258.214874	147.600000
258.307800	147.840000
258.400696	146.760000
258.493622	146.780000
258.586517	145.840000
258.679443	146.340000
258.772339	145.880000
258.865265	145.920000
258.958160	145.400000
259.051086	146.720000
259.144012	146.380000
259.236938	147.400000
259.329834	147.720000
259.422791	147.900000
259.515717	147.000000
259.608612	146.800000
259.701538	146.680000
259.794464	146.420000
259.887390	146.080000
259.980316	146.140000
260.073212	146.000000
260.166138	145.100000
260.259064	145.580000
260.351990	146.520000
260.444916	146.480000
260.537842	147.080000
260.630768	147.940000
260.723694	147.500000
260.816620	147.120000
260.909546	147.360000
261.002472	146.820000
261.095398	146.160000
261.188354	146.340000
261.281281	145.880000
261.374207	146.040000
261.467133	146.480000
261.560089	146.980000
261.653015	146.660000
261.745972	147.340000
261.838867	147.600000
261.931824	147.720000
262.024780	147.300000
262.117706	147.420000
262.210663	147.240000
262.303589	146.860000
262.396515	147.000000
262.489471	147.960000
262.582397	148.000000
262.675354	147.660000
262.768280	147.780000
262.861237	147.700000
262.954163	147.040000
263.047119	147.240000
263.140045	147.120000
263.233002	146.860000
263.325958	146.660000
263.418884	146.380000
263.511841	146.020000
263.604797	146.320000
263.697723	146.580000
263.790680	146.380000
263.883636	146.800000
263.976593	146.720000
264.069550	146.680000
264.162476	146.200000
264.255463	146.280000
264.348419	146.000000
264.441376	146.640000
264.534332	146.420000
264.627289	146.700000
264.720245	146.860000
264.813202	146.660000
264.906158	146.380000
264.999115	146.800000
265.092072	146.800000
265.185028	147.120000
265.277985	147.460000
265.370941	147.120000
265.463898	146.540000
265.556854	146.360000
265.649811	145.440000
265.742798	145.560000
265.835754	145.800000
265.928711	146.500000
266.021667	146.520000
266.114655	147.060000
266.207611	146.900000
266.300568	146.100000
266.393585	145.520000
266.486511	145.920000
266.579498	145.400000
266.672485	145.540000
266.765442	146.080000
266.858429	146.760000
266.951385	146.160000
267.044342	146.380000
267.137329	146.080000
267.230316	146.280000
267.323273	145.540000
267.416260	146.220000
267.509216	146.060000
267.602203	146.180000
267.695160	146.860000
267.788147	147.320000
267.881134	146.600000
267.974091	146.960000
268.067078	146.840000
268.160065	146.300000
268.253052	146.060000
268.346008	146.520000
268.438995	146.520000
268.531982	146.860000
268.624969	146.780000
268.717987	146.980000
268.810944	146.940000
268.903961	146.920000
268.996948	146.400000
269.089905	146.620000
269.182892	146.760000
269.275879	146.860000
269.368866	146.440000
269.461853	146.800000
269.554871	146.740000
269.647858	146.440000
269.740845	146.540000
269.833832	146.760000
269.926819	146.480000
270.019806	146.400000
270.112793	146.300000
270.205811	146.420000
270.298798	146.540000
270.391785	147.360000
270.484772	147.040000
270.577789	146.980000
270.670776	146.460000
270.763763	146.400000
270.856750	145.960000
270.949768	145.780000
271.042786	145.820000
271.135773	145.980000
271.228790	146.440000
271.321808	146.260000
271.414795	146.260000
271.507782	145.900000
271.600800	145.640000
271.693817	145.380000
271.786804	145.800000
271.879822	146.200000
271.972809	146.540000
272.065826	147.380000
272.158844	146.920000
272.251831	147.260000
272.344849	147.140000
272.437866	146.960000
272.530853	146.700000
272.623871	147.260000
272.716888	146.120000
272.809906	146.540000
272.902893	146.660000
272.995911	145.980000
273.088928	146.060000
273.181946	146.620000
273.274963	145.980000
273.367981	146.040000
273.460999	146.640000
273.554047	146.700000
273.647003	147.160000
273.740051	147.400000
273.833069	147.700000
273.926086	147.600000
274.019135	147.100000
274.112152	146.740000
274.205170	146.700000
274.298187	146.740000
274.391205	146.060000
274.484222	146.060000
274.577240	145.980000
274.670258	145.940000
274.763306	145.700000
274.856323	146.400000
274.949341	146.780000
275.042358	147.340000
275.135406	147.360000
275.228424	147.480000
275.321442	147.680000
275.414490	147.340000
275.507507	147.360000
275.600525	147.660000
275.693573	147.420000
275.786591	147.000000
275.879669	147.040000
275.972656	146.400000
276.065735	146.280000
276.158752	146.800000
276.251801	147.380000
276.344818	147.600000
276.437866	147.760000
276.530884	147.820000
276.623932	147.060000
276.716980	146.920000
276.809998	146.980000
276.903046	146.940000
276.996094	147.620000
277.089111	148.420000
277.182159	148.940000
277.275208	148.560000
277.368256	148.380000
277.461304	148.060000
277.554321	147.360000
277.647369	146.720000
277.740417	147.000000
277.833466	146.940000
277.926514	146.380000
278.019562	146.840000
278.112610	146.140000
278.205688	145.960000
278.298706	145.980000
278.391785	145.740000
278.484833	145.540000
278.577881	145.740000
278.670929	146.260000
278.763977	146.480000
278.857025	147.100000
278.950073	146.820000
279.043121	146.820000
279.136169	146.580000
279.229248	146.480000
279.322296	146.420000
279.415344	146.400000
279.508392	146.580000
279.601440	146.360000
279.694519	146.360000
279.787567	146.160000
279.880615	146.180000
279.973694	145.980000
280.066742	146.040000
280.159790	146.140000
280.252869	145.880000
280.345917	146.180000
280.438995	146.360000
280.532074	146.280000
280.625122	146.260000
280.718201	147.400000
280.811279	147.400000
280.904327	147.440000
280.997406	147.700000
281.090454	147.840000
281.183533	146.900000
281.276581	146.920000
281.369659	146.920000
281.462738	146.760000
281.555786	146.780000
281.648865	146.860000
281.741943	146.760000
281.835022	147.280000
281.928070	146.980000
282.021149	146.540000
282.114227	146.600000
282.207306	146.380000
282.300385	146.200000
282.393433	146.600000
282.486511	147.060000
282.579590	147.460000
282.672668	148.220000
282.765747	147.580000
282.858856	147.260000
282.951904	147.240000
283.045013	147.080000
283.138062	146.860000
283.231171	147.380000
283.324249	148.060000
283.417328	148.020000
283.510406	147.620000
283.603485	147.220000
283.696564	147.140000
283.789642	146.840000
283.882751	146.520000
283.975830	147.220000
284.068909	146.900000
284.161987	147.440000
284.255066	146.920000
284.348175	147.080000
284.441254	146.500000
284.534332	147.160000
284.627441	146.440000
284.720520	146.220000
284.813599	146.200000
284.906708	146.380000
284.999786	145.640000
285.092896	145.720000
285.185974	147.020000
285.279053	146.480000
285.372192	146.520000
285.465240	147.520000
285.558380	147.360000
285.651459	146.500000
285.744568	147.640000
285.837677	147.120000
285.930756	146.800000
286.023865	147.000000
286.116943	146.840000
286.210052	146.580000
286.303162	146.840000
286.396240	146.840000
286.489349	146.520000
286.582458	147.140000
286.675568	146.760000
286.768646	146.680000
286.861755	146.980000
286.954865	147.700000
287.047974	146.520000
287.141083	146.540000
287.234161	146.460000
287.327271	146.120000
287.420380	146.460000
287.513519	146.760000
287.606598	146.760000
287.699738	147.060000
287.792816	146.600000
287.885956	146.060000
287.979034	146.500000
288.072174	146.380000
288.165283	146.100000
288.258392	146.560000
288.351501	145.900000
288.444611	145.800000
288.537720	146.380000
288.630859	146.360000
288.723969	146.520000
288.817078	147.120000
288.910187	147.120000
289.003296	146.320000
289.096436	146.160000
289.189545	145.860000
289.282654	145.360000
289.375763	145.760000
289.468903	146.300000
289.562012	146.600000
289.655121	146.600000
289.748260	146.780000
289.841400	146.960000
289.934509	146.720000
290.027649	146.700000
290.120728	146.640000
290.213898	146.680000
290.306976	146.140000
290.400146	146.440000
290.493256	145.920000
290.586395	146.140000
290.679535	146.380000
290.772644	146.320000
290.865784	145.200000
290.958893	145.540000
291.052032	145.340000
291.145172	145.280000
291.238281	145.160000
291.331421	145.860000
291.424561	146.460000
291.517670	146.300000
291.610809	146.440000
291.703949	146.660000
291.797089	146.720000
291.890228	146.340000
291.983337	146.440000
292.076477	146.100000
292.169617	146.600000
292.262756	146.520000
292.355927	146.260000
292.449036	145.980000
292.542206	145.980000
292.635315	145.380000
292.728485	145.740000
292.821625	145.660000
292.914764	147.020000
293.007904	147.160000
293.101044	147.280000
293.194183	147.320000
293.287323	147.540000
293.380463	146.700000
293.473602	146.700000
293.566742	146.900000
293.659882	147.220000
293.753021	147.320000
293.846191	147.080000
293.939331	146.800000
294.032471	146.500000
294.125610	145.800000
294.218781	146.120000
294.311920	146.440000
294.405060	146.860000
294.498230	146.740000
294.591370	147.000000
294.684540	146.280000
294.777679	145.900000
294.870850	146.160000
294.963959	146.500000
295.057159	146.180000
295.150299	146.780000
295.243469	146.660000
295.336609	145.600000
295.429779	145.680000
295.522919	146.140000
295.616089	145.960000
295.709229	146.820000
295.802399	147.600000
295.895569	147.260000
295.988708	146.980000
296.081879	147.120000
296.175018	146.200000
296.268188	145.920000
296.361359	146.360000
296.454529	146.520000
296.547668	146.140000
296.640839	146.740000
296.734009	146.580000
296.827179	146.440000
296.920319	146.580000
297.013519	146.740000
297.106659	146.420000
297.199860	146.520000
297.292999	146.500000
297.386200	146.160000
297.479309	146.080000
297.572510	146.340000
297.665680	146.240000
297.758850	146.360000
297.852020	146.280000
297.945190	146.160000
298.038361	145.740000
298.131531	146.760000
298.224701	146.440000
298.317871	146.200000
298.411072	145.740000
298.504242	145.640000
298.597412	144.840000
298.690582	145.180000
298.783752	145.320000
298.876923	145.880000
298.970093	146.140000
299.063293	146.660000
299.156464	146.760000
299.249634	147.060000
299.342834	147.380000
299.436005	147.940000
299.529205	147.440000
299.622345	147.520000
299.715576	146.880000
299.808716	146.520000
299.901917	146.080000
299.995117	146.340000
300.088287	146.380000
300.181488	146.640000
300.274658	146.440000
300.367828	146.340000
300.461029	146.060000
300.554199	146.040000
300.647400	146.160000
300.740601	146.800000
300.833771	146.720000
300.926971	147.020000
301.020142	146.560000
301.113342	146.420000
301.206512	146.080000
301.299713	146.420000
301.392914	146.240000
301.486084	146.420000
301.579285	146.720000
301.672516	147.200000
301.765686	147.080000
301.858887	146.900000
301.952057	146.920000
302.045288	146.840000
302.138458	146.360000
302.231659	146.140000
302.324860	146.240000
302.418060	146.100000
302.511261	145.980000
302.604462	146.300000
302.697662	146.520000
302.790863	146.500000
302.884064	146.100000
302.977264	146.020000
303.070465	146.180000
303.163666	146.440000
303.256866	146.700000
303.350067	147.020000
303.443268	147.240000
303.536469	147.140000
303.629669	146.480000
303.722870	146.600000
303.816071	146.360000
303.909271	146.280000
304.002472	145.380000
304.095673	145.340000
304.188934	144.600000
304.282104	145.520000
304.375336	145.720000
304.468506	146.240000
304.561768	146.220000
304.654968	146.920000
304.748169	146.540000
304.841370	146.420000
304.934601	146.660000
305.027802	146.740000
305.121002	146.160000
305.214233	146.040000
305.307434	146.060000
305.400665	146.380000
305.493866	146.220000
