Model Number: SPM-002-B   
Serial Number: 70087108
Firmware Version: 004.15.4
Exposure Time: 100000.000000us
Data Taken on: 11-12-2020 18:49:53.964
Wavelength	Amplitude
221.570786	0.000000
221.663406	0.000000
221.756027	0.000000
221.848648	0.000000
221.941269	0.000000
222.033905	0.000000
222.126526	0.000000
222.219162	0.000000
222.311798	0.000000
222.404419	0.000000
222.497055	0.000000
222.589676	0.000000
222.682312	0.000000
222.774933	0.000000
222.867569	0.000000
222.960205	0.000000
223.052841	0.000000
223.145462	0.000000
223.238098	0.000000
223.330734	0.000000
223.423386	0.000000
223.516022	0.000000
223.608658	0.000000
223.701309	0.000000
223.793945	0.000000
223.886581	0.000000
223.979218	0.000000
224.071869	0.000000
224.164505	0.000000
224.257156	0.000000
224.349792	0.000000
224.442444	0.000000
224.535095	0.000000
224.627747	0.000000
224.720398	0.000000
224.813034	0.000000
224.905685	0.000000
224.998337	145.860000
225.090988	145.480000
225.183640	145.220000
225.276291	145.300000
225.368942	145.520000
225.461594	145.680000
225.554245	146.220000
225.646912	146.100000
225.739578	146.400000
225.832230	146.720000
225.924896	146.060000
226.017548	145.980000
226.110199	146.800000
226.202866	146.220000
226.295532	145.920000
226.388184	146.320000
226.480850	145.920000
226.573517	145.280000
226.666168	145.400000
226.758835	145.780000
226.851501	146.080000
226.944183	146.320000
227.036850	145.880000
227.129517	145.920000
227.222183	145.760000
227.314850	145.560000
227.407516	145.600000
227.500198	146.660000
227.592865	146.420000
227.685532	146.260000
227.778214	146.200000
227.870880	146.660000
227.963562	147.020000
228.056229	147.500000
228.148926	147.420000
228.241592	148.120000
228.334274	147.620000
228.426956	146.960000
228.519638	147.220000
228.612305	146.900000
228.704987	146.760000
228.797668	146.800000
228.890350	147.060000
228.983032	146.200000
229.075714	147.120000
229.168396	146.860000
229.261108	146.540000
229.353790	146.080000
229.446472	146.520000
229.539169	146.120000
229.631851	145.700000
229.724533	146.220000
229.817230	146.540000
229.909912	147.480000
230.002609	147.280000
230.095306	147.160000
230.187988	147.120000
230.280685	146.840000
230.373383	145.580000
230.466095	145.660000
230.558792	146.160000
230.651474	145.740000
230.744171	145.460000
230.836868	145.500000
230.929581	145.500000
231.022278	145.220000
231.114975	145.540000
231.207672	145.400000
231.300369	145.680000
231.393082	145.800000
231.485779	145.640000
231.578506	145.300000
231.671204	145.960000
231.763916	145.960000
231.856613	146.160000
231.949326	146.360000
232.042023	146.360000
232.134735	146.000000
232.227448	145.740000
232.320160	145.600000
232.412872	145.780000
232.505585	146.620000
232.598297	146.880000
232.691010	146.920000
232.783722	146.640000
232.876450	147.100000
232.969162	146.620000
233.061874	146.480000
233.154587	146.000000
233.247314	146.360000
233.340027	145.680000
233.432739	145.920000
233.525467	145.520000
233.618179	146.340000
233.710907	145.900000
233.803635	146.240000
233.896347	145.860000
233.989090	146.740000
234.081818	146.420000
234.174545	146.700000
234.267258	146.160000
234.359985	146.360000
234.452713	145.960000
234.545441	145.500000
234.638168	145.320000
234.730896	146.000000
234.823639	145.800000
234.916367	146.140000
235.009094	146.660000
235.101822	146.560000
235.194580	146.360000
235.287308	146.420000
235.380051	145.740000
235.472778	145.900000
235.565521	146.300000
235.658249	145.860000
235.750992	146.120000
235.843719	146.320000
235.936462	146.540000
236.029205	146.100000
236.121948	146.040000
236.214691	146.040000
236.307449	146.400000
236.400192	145.740000
236.492935	145.620000
236.585678	145.880000
236.678421	145.840000
236.771164	145.580000
236.863907	146.160000
236.956665	146.540000
237.049408	147.920000
237.142151	147.380000
237.234909	148.200000
237.327652	148.180000
237.420410	147.700000
237.513153	146.800000
237.605927	146.840000
237.698669	146.280000
237.791428	145.780000
237.884186	146.460000
237.976944	145.700000
238.069702	146.180000
238.162445	145.480000
238.255203	145.420000
238.347961	145.580000
238.440720	145.680000
238.533478	145.440000
238.626266	145.620000
238.719025	146.180000
238.811783	145.540000
238.904541	145.740000
238.997314	145.520000
239.090073	145.220000
239.182831	145.040000
239.275604	145.960000
239.368362	145.460000
239.461136	145.680000
239.553909	145.700000
239.646667	145.880000
239.739441	145.380000
239.832214	145.900000
239.925003	145.960000
240.017761	146.560000
240.110535	146.880000
240.203308	146.480000
240.296082	146.660000
240.388855	146.580000
240.481628	146.760000
240.574417	146.620000
240.667191	147.040000
240.759964	146.980000
240.852737	147.000000
240.945526	146.340000
241.038315	146.160000
241.131088	146.220000
241.223877	146.280000
241.316650	146.120000
241.409439	146.860000
241.502228	146.260000
241.595001	146.440000
241.687790	146.280000
241.780579	146.040000
241.873367	146.020000
241.966141	146.780000
242.058929	146.120000
242.151718	146.240000
242.244507	146.880000
242.337311	145.900000
242.430099	145.960000
242.522903	146.500000
242.615692	145.800000
242.708481	145.520000
242.801270	146.480000
242.894073	146.120000
242.986862	145.980000
243.079651	146.900000
243.172455	146.880000
243.265244	146.840000
243.358063	146.540000
243.450867	146.680000
243.543655	146.280000
243.636459	146.560000
243.729263	146.600000
243.822067	147.100000
243.914856	147.440000
244.007660	147.720000
244.100464	147.400000
244.193268	147.080000
244.286072	147.020000
244.378876	146.620000
244.471680	146.280000
244.564499	146.580000
244.657318	147.140000
244.750122	147.160000
244.842926	146.300000
244.935745	146.460000
245.028549	146.260000
245.121368	145.680000
245.214172	145.580000
245.306992	146.440000
245.399796	146.220000
245.492615	146.360000
245.585434	146.260000
245.678253	146.000000
245.771072	145.960000
245.863892	146.660000
245.956711	146.740000
246.049530	147.040000
246.142349	147.060000
246.235168	146.980000
246.327988	147.100000
246.420807	146.920000
246.513626	146.640000
246.606445	146.560000
246.699280	146.360000
246.792099	145.880000
246.884918	145.580000
246.977753	145.560000
247.070587	146.020000
247.163422	146.080000
247.256241	146.220000
247.349075	146.400000
247.441895	146.440000
247.534729	146.340000
247.627563	146.060000
247.720383	146.580000
247.813217	146.680000
247.906052	146.340000
247.998886	146.200000
248.091736	146.540000
248.184570	146.120000
248.277405	146.180000
248.370239	147.240000
248.463074	147.700000
248.555908	148.060000
248.648743	147.560000
248.741592	147.620000
248.834427	146.860000
248.927261	145.960000
249.020111	146.020000
249.112946	146.980000
249.205795	146.920000
249.298630	147.040000
249.391495	147.440000
249.484344	147.060000
249.577179	146.680000
249.670029	146.880000
249.762878	147.160000
249.855728	147.200000
249.948563	147.200000
250.041412	146.580000
250.134262	146.720000
250.227112	146.840000
250.319962	146.840000
250.412827	146.680000
250.505692	146.640000
250.598541	146.140000
250.691391	145.580000
250.784241	145.440000
250.877106	145.860000
250.969955	145.720000
251.062805	146.280000
251.155670	146.880000
251.248520	146.580000
251.341385	146.640000
251.434235	146.780000
251.527100	146.300000
251.619965	145.780000
251.712814	147.060000
251.805695	146.720000
251.898560	146.720000
251.991425	147.040000
252.084290	147.280000
252.177155	146.080000
252.270020	145.960000
252.362885	145.980000
252.455750	145.660000
252.548615	145.560000
252.641479	145.900000
252.734360	145.600000
252.827240	145.680000
252.920105	145.820000
253.012970	145.540000
253.105850	145.400000
253.198715	145.380000
253.291595	145.560000
253.384460	145.380000
253.477341	145.420000
253.570221	145.720000
253.663086	145.960000
253.755966	146.340000
253.848846	146.460000
253.941727	146.960000
254.034592	146.660000
254.127472	146.180000
254.220367	146.000000
254.313248	146.040000
254.406128	145.260000
254.499008	145.720000
254.591904	146.640000
254.684784	147.080000
254.777664	147.100000
254.870544	146.920000
254.963440	146.640000
255.056335	146.620000
255.149216	145.820000
255.242111	146.420000
255.334991	146.880000
255.427887	147.000000
255.520767	146.940000
255.613663	147.360000
255.706558	146.340000
255.799438	146.340000
255.892334	145.960000
255.985229	145.940000
256.078125	145.520000
256.171021	145.920000
256.263916	146.400000
256.356812	146.720000
256.449707	146.660000
256.542603	146.440000
256.635498	146.920000
256.728394	146.460000
256.821289	146.420000
256.914215	146.540000
257.007080	147.340000
257.100006	146.860000
257.192932	147.660000
257.285828	147.680000
257.378723	147.280000
257.471619	146.880000
257.564545	146.620000
257.657440	146.340000
257.750336	146.800000
257.843262	146.720000
257.936157	147.600000
258.029053	147.680000
258.121979	147.560000
258.214874	146.720000
258.307800	146.340000
258.400696	145.140000
258.493622	145.120000
258.586517	144.260000
258.679443	144.880000
258.772339	144.620000
258.865265	144.540000
258.958160	144.220000
259.051086	145.180000
259.144012	144.840000
259.236938	146.100000
259.329834	146.280000
259.422791	146.540000
259.515717	145.900000
259.608612	145.700000
259.701538	145.340000
259.794464	145.460000
259.887390	145.280000
259.980316	145.280000
260.073212	145.160000
260.166138	144.380000
260.259064	144.560000
260.351990	145.500000
260.444916	145.540000
260.537842	146.200000
260.630768	147.300000
260.723694	147.140000
260.816620	146.700000
260.909546	146.680000
261.002472	146.020000
261.095398	145.080000
261.188354	145.080000
261.281281	144.520000
261.374207	144.660000
261.467133	145.600000
261.560089	146.160000
261.653015	145.760000
261.745972	146.760000
261.838867	147.040000
261.931824	146.900000
262.024780	146.300000
262.117706	146.840000
262.210663	146.260000
262.303589	146.160000
262.396515	145.820000
262.489471	147.020000
262.582397	146.640000
262.675354	146.320000
262.768280	146.160000
262.861237	146.420000
262.954163	145.860000
263.047119	146.100000
263.140045	146.220000
263.233002	146.280000
263.325958	145.940000
263.418884	145.600000
263.511841	145.620000
263.604797	145.520000
263.697723	145.520000
263.790680	145.340000
263.883636	145.940000
263.976593	145.660000
264.069550	145.780000
264.162476	145.340000
264.255463	145.620000
264.348419	145.100000
264.441376	145.800000
264.534332	145.580000
264.627289	146.100000
264.720245	146.480000
264.813202	146.380000
264.906158	146.080000
264.999115	146.700000
265.092072	146.620000
265.185028	146.720000
265.277985	146.940000
265.370941	146.420000
265.463898	146.120000
265.556854	145.940000
265.649811	145.000000
265.742798	144.840000
265.835754	145.260000
265.928711	145.780000
266.021667	145.780000
266.114655	146.120000
266.207611	146.640000
266.300568	146.100000
266.393585	145.540000
266.486511	146.080000
266.579498	145.600000
266.672485	145.280000
266.765442	145.440000
266.858429	145.520000
266.951385	144.900000
267.044342	145.040000
267.137329	144.920000
267.230316	145.600000
267.323273	145.400000
267.416260	146.120000
267.509216	146.440000
267.602203	146.480000
267.695160	146.380000
267.788147	146.260000
267.881134	145.580000
267.974091	145.540000
268.067078	145.360000
268.160065	145.120000
268.253052	145.100000
268.346008	145.180000
268.438995	145.180000
268.531982	145.260000
268.624969	145.200000
268.717987	145.680000
268.810944	145.820000
268.903961	146.020000
268.996948	145.960000
269.089905	146.380000
269.182892	146.380000
269.275879	146.520000
269.368866	145.940000
269.461853	146.220000
269.554871	146.020000
269.647858	145.940000
269.740845	146.220000
269.833832	146.880000
269.926819	146.540000
270.019806	146.240000
270.112793	146.000000
270.205811	146.120000
270.298798	145.580000
270.391785	146.340000
270.484772	146.360000
270.577789	146.560000
270.670776	145.760000
270.763763	146.040000
270.856750	145.740000
270.949768	145.800000
271.042786	145.700000
271.135773	145.980000
271.228790	146.200000
271.321808	145.760000
271.414795	145.280000
271.507782	145.260000
271.600800	145.060000
271.693817	145.100000
271.786804	145.720000
271.879822	146.280000
271.972809	146.300000
272.065826	146.780000
272.158844	146.120000
272.251831	146.620000
272.344849	146.220000
272.437866	145.860000
272.530853	145.740000
272.623871	146.020000
272.716888	144.700000
272.809906	145.220000
272.902893	145.560000
272.995911	144.920000
273.088928	145.100000
273.181946	145.500000
273.274963	144.860000
273.367981	144.860000
273.460999	145.440000
273.554047	145.860000
273.647003	146.480000
273.740051	146.920000
273.833069	147.180000
273.926086	147.360000
274.019135	147.120000
274.112152	146.520000
274.205170	146.540000
274.298187	146.820000
274.391205	146.280000
274.484222	146.020000
274.577240	146.240000
274.670258	145.920000
274.763306	145.160000
274.856323	145.780000
274.949341	145.980000
275.042358	145.960000
275.135406	146.440000
275.228424	146.760000
275.321442	146.400000
275.414490	146.060000
275.507507	146.280000
275.600525	146.380000
275.693573	146.340000
275.786591	145.840000
275.879669	146.160000
275.972656	145.860000
276.065735	145.700000
276.158752	145.960000
276.251801	147.000000
276.344818	147.100000
276.437866	147.440000
276.530884	147.020000
276.623932	146.280000
276.716980	146.020000
276.809998	146.160000
276.903046	145.840000
276.996094	146.800000
277.089111	147.600000
277.182159	147.960000
277.275208	147.120000
277.368256	147.280000
277.461304	146.920000
277.554321	146.240000
277.647369	146.020000
277.740417	146.120000
277.833466	145.960000
277.926514	145.740000
278.019562	146.360000
278.112610	145.660000
278.205688	146.180000
278.298706	146.120000
278.391785	145.860000
278.484833	145.400000
278.577881	145.380000
278.670929	145.560000
278.763977	145.740000
278.857025	146.340000
278.950073	146.480000
279.043121	146.680000
279.136169	146.100000
279.229248	145.780000
279.322296	145.380000
279.415344	144.980000
279.508392	144.900000
279.601440	144.940000
279.694519	144.820000
279.787567	144.780000
279.880615	144.860000
279.973694	144.680000
280.066742	144.940000
280.159790	145.260000
280.252869	144.960000
280.345917	145.380000
280.438995	145.780000
280.532074	145.460000
280.625122	145.960000
280.718201	146.940000
280.811279	146.960000
280.904327	146.780000
280.997406	147.120000
281.090454	146.720000
281.183533	146.040000
281.276581	145.920000
281.369659	145.880000
281.462738	146.000000
281.555786	146.280000
281.648865	146.420000
281.741943	146.480000
281.835022	147.220000
281.928070	146.720000
282.021149	146.240000
282.114227	146.200000
282.207306	146.260000
282.300385	145.980000
282.393433	146.380000
282.486511	146.420000
282.579590	146.920000
282.672668	147.160000
282.765747	146.600000
282.858856	146.300000
282.951904	146.580000
283.045013	146.480000
283.138062	146.340000
283.231171	146.720000
283.324249	147.140000
283.417328	147.560000
283.510406	147.120000
283.603485	146.640000
283.696564	146.480000
283.789642	146.460000
283.882751	145.640000
283.975830	146.020000
284.068909	146.420000
284.161987	146.900000
284.255066	146.220000
284.348175	146.640000
284.441254	146.740000
284.534332	146.840000
284.627441	146.220000
284.720520	146.100000
284.813599	146.040000
284.906708	145.740000
284.999786	145.280000
285.092896	145.200000
285.185974	146.340000
285.279053	145.520000
285.372192	145.760000
285.465240	146.580000
285.558380	146.660000
285.651459	145.940000
285.744568	147.200000
285.837677	146.700000
285.930756	146.260000
286.023865	146.560000
286.116943	146.600000
286.210052	146.360000
286.303162	146.560000
286.396240	146.220000
286.489349	145.800000
286.582458	146.240000
286.675568	145.860000
286.768646	145.680000
286.861755	146.040000
286.954865	146.780000
287.047974	145.960000
287.141083	145.980000
287.234161	145.700000
287.327271	145.560000
287.420380	145.660000
287.513519	145.820000
287.606598	145.740000
287.699738	146.160000
287.792816	146.060000
287.885956	145.480000
287.979034	145.340000
288.072174	145.620000
288.165283	145.500000
288.258392	145.760000
288.351501	145.240000
288.444611	145.760000
288.537720	146.100000
288.630859	145.980000
288.723969	146.040000
288.817078	146.780000
288.910187	146.740000
289.003296	146.180000
289.096436	145.860000
289.189545	145.560000
289.282654	145.180000
289.375763	145.680000
289.468903	145.960000
289.562012	146.540000
289.655121	146.360000
289.748260	146.460000
289.841400	146.420000
289.934509	146.160000
290.027649	146.240000
290.120728	146.320000
290.213898	146.540000
290.306976	146.280000
290.400146	146.720000
290.493256	146.420000
290.586395	146.740000
290.679535	146.800000
290.772644	146.480000
290.865784	145.740000
290.958893	145.760000
291.052032	145.520000
291.145172	145.380000
291.238281	145.440000
291.331421	145.540000
291.424561	145.860000
291.517670	146.000000
291.610809	146.220000
291.703949	146.040000
291.797089	146.380000
291.890228	145.960000
291.983337	145.800000
292.076477	145.580000
292.169617	145.980000
292.262756	145.900000
292.355927	145.900000
292.449036	145.660000
292.542206	145.600000
292.635315	145.580000
292.728485	145.740000
292.821625	145.680000
292.914764	146.780000
293.007904	146.680000
293.101044	146.480000
293.194183	145.980000
293.287323	146.440000
293.380463	145.480000
293.473602	145.580000
293.566742	146.320000
293.659882	147.320000
293.753021	147.220000
293.846191	147.440000
293.939331	147.060000
294.032471	146.420000
294.125610	145.420000
294.218781	145.640000
294.311920	146.300000
294.405060	147.000000
294.498230	147.020000
294.591370	147.440000
294.684540	146.740000
294.777679	145.880000
294.870850	145.820000
294.963959	145.660000
295.057159	145.500000
295.150299	146.040000
295.243469	145.880000
295.336609	145.400000
295.429779	145.560000
295.522919	146.020000
295.616089	146.160000
295.709229	147.060000
295.802399	147.400000
295.895569	147.320000
295.988708	146.920000
296.081879	146.720000
296.175018	145.820000
296.268188	145.880000
296.361359	146.360000
296.454529	146.540000
296.547668	146.420000
296.640839	146.960000
296.734009	146.540000
296.827179	146.360000
296.920319	146.620000
297.013519	146.500000
297.106659	146.760000
297.199860	146.820000
297.292999	146.460000
297.386200	146.060000
297.479309	146.000000
297.572510	145.720000
297.665680	145.460000
297.758850	145.700000
297.852020	145.560000
297.945190	145.420000
298.038361	144.800000
298.131531	145.800000
298.224701	145.400000
298.317871	145.420000
298.411072	145.020000
298.504242	145.020000
298.597412	144.500000
298.690582	145.100000
298.783752	145.200000
298.876923	146.300000
298.970093	146.560000
299.063293	146.760000
299.156464	146.800000
299.249634	146.820000
299.342834	146.740000
299.436005	147.320000
299.529205	147.100000
299.622345	147.000000
299.715576	146.340000
299.808716	145.920000
299.901917	145.480000
299.995117	145.880000
300.088287	145.800000
300.181488	145.880000
300.274658	145.700000
300.367828	145.720000
300.461029	145.060000
300.554199	145.100000
300.647400	145.620000
300.740601	146.260000
300.833771	146.160000
300.926971	146.720000
301.020142	146.340000
301.113342	146.200000
301.206512	145.900000
301.299713	146.520000
301.392914	146.460000
301.486084	146.980000
301.579285	146.920000
301.672516	147.520000
301.765686	147.160000
301.858887	147.080000
301.952057	146.960000
302.045288	146.980000
302.138458	146.460000
302.231659	146.200000
302.324860	146.240000
302.418060	145.960000
302.511261	146.100000
302.604462	146.240000
302.697662	146.520000
302.790863	146.160000
302.884064	146.020000
302.977264	145.960000
303.070465	146.020000
303.163666	146.280000
303.256866	146.760000
303.350067	147.120000
303.443268	147.180000
303.536469	147.060000
303.629669	146.520000
303.722870	146.460000
303.816071	146.180000
303.909271	146.200000
304.002472	145.680000
304.095673	145.700000
304.188934	145.160000
304.282104	146.020000
304.375336	145.840000
304.468506	146.160000
304.561768	146.180000
304.654968	146.760000
304.748169	145.980000
304.841370	145.840000
304.934601	146.060000
305.027802	145.880000
305.121002	145.500000
305.214233	145.700000
305.307434	146.140000
305.400665	146.580000
305.493866	146.380000
