Model Number: SPM-002-B   
Serial Number: 70087108
Firmware Version: 004.15.4
Exposure Time: 100000.000000us
Data Taken on: 11-12-2020 18:50:05.594
Wavelength	Amplitude
221.570786	0.000000
221.663406	0.000000
221.756027	0.000000
221.848648	0.000000
221.941269	0.000000
222.033905	0.000000
222.126526	0.000000
222.219162	0.000000
222.311798	0.000000
222.404419	0.000000
222.497055	0.000000
222.589676	0.000000
222.682312	0.000000
222.774933	0.000000
222.867569	0.000000
222.960205	0.000000
223.052841	0.000000
223.145462	0.000000
223.238098	0.000000
223.330734	0.000000
223.423386	0.000000
223.516022	0.000000
223.608658	0.000000
223.701309	0.000000
223.793945	0.000000
223.886581	0.000000
223.979218	0.000000
224.071869	0.000000
224.164505	0.000000
224.257156	0.000000
224.349792	0.000000
224.442444	0.000000
224.535095	0.000000
224.627747	0.000000
224.720398	0.000000
224.813034	0.000000
224.905685	0.000000
224.998337	144.800000
225.090988	144.480000
225.183640	144.620000
225.276291	144.740000
225.368942	145.040000
225.461594	145.560000
225.554245	145.840000
225.646912	145.680000
225.739578	146.100000
225.832230	146.340000
225.924896	145.320000
226.017548	145.700000
226.110199	146.280000
226.202866	145.380000
226.295532	145.340000
226.388184	145.700000
226.480850	145.220000
226.573517	144.480000
226.666168	145.160000
226.758835	145.200000
226.851501	145.680000
226.944183	145.660000
227.036850	145.320000
227.129517	144.960000
227.222183	144.800000
227.314850	144.640000
227.407516	145.060000
227.500198	146.060000
227.592865	145.860000
227.685532	145.660000
227.778214	145.480000
227.870880	145.620000
227.963562	145.740000
228.056229	146.280000
228.148926	146.560000
228.241592	147.540000
228.334274	147.060000
228.426956	146.960000
228.519638	146.900000
228.612305	146.600000
228.704987	145.820000
228.797668	145.940000
228.890350	145.640000
228.983032	144.880000
229.075714	145.540000
229.168396	145.420000
229.261108	144.700000
229.353790	144.680000
229.446472	145.220000
229.539169	144.920000
229.631851	144.700000
229.724533	145.500000
229.817230	145.820000
229.909912	146.520000
230.002609	146.300000
230.095306	146.160000
230.187988	146.060000
230.280685	145.880000
230.373383	144.740000
230.466095	144.840000
230.558792	145.160000
230.651474	145.080000
230.744171	144.920000
230.836868	144.980000
230.929581	145.120000
231.022278	145.280000
231.114975	145.220000
231.207672	145.080000
231.300369	145.700000
231.393082	145.840000
231.485779	145.900000
231.578506	146.060000
231.671204	146.080000
231.763916	146.080000
231.856613	146.040000
231.949326	145.760000
232.042023	145.600000
232.134735	145.860000
232.227448	145.420000
232.320160	145.180000
232.412872	145.420000
232.505585	146.120000
232.598297	146.380000
232.691010	146.520000
232.783722	146.260000
232.876450	146.600000
232.969162	145.820000
233.061874	145.240000
233.154587	144.740000
233.247314	145.000000
233.340027	144.580000
233.432739	145.280000
233.525467	145.480000
233.618179	146.100000
233.710907	145.960000
233.803635	146.240000
233.896347	145.900000
233.989090	146.440000
234.081818	146.300000
234.174545	146.440000
234.267258	145.880000
234.359985	146.040000
234.452713	145.520000
234.545441	145.360000
234.638168	145.360000
234.730896	145.860000
234.823639	145.580000
234.916367	146.020000
235.009094	146.480000
235.101822	146.580000
235.194580	146.500000
235.287308	146.420000
235.380051	145.600000
235.472778	145.620000
235.565521	145.680000
235.658249	145.220000
235.750992	145.380000
235.843719	145.400000
235.936462	145.360000
236.029205	145.080000
236.121948	145.140000
236.214691	145.460000
236.307449	146.200000
236.400192	145.900000
236.492935	145.380000
236.585678	145.460000
236.678421	145.160000
236.771164	144.560000
236.863907	144.980000
236.956665	145.480000
237.049408	147.020000
237.142151	146.460000
237.234909	147.640000
237.327652	147.260000
237.420410	147.080000
237.513153	145.960000
237.605927	146.180000
237.698669	145.440000
237.791428	145.060000
237.884186	145.700000
237.976944	145.420000
238.069702	145.700000
238.162445	144.980000
238.255203	145.360000
238.347961	145.380000
238.440720	145.300000
238.533478	145.380000
238.626266	145.440000
238.719025	145.620000
238.811783	145.180000
238.904541	145.000000
238.997314	144.600000
239.090073	144.280000
239.182831	144.160000
239.275604	144.840000
239.368362	144.900000
239.461136	145.280000
239.553909	146.000000
239.646667	145.940000
239.739441	145.300000
239.832214	145.820000
239.925003	146.020000
240.017761	146.340000
240.110535	146.720000
240.203308	146.480000
240.296082	146.300000
240.388855	145.940000
240.481628	145.880000
240.574417	145.860000
240.667191	146.400000
240.759964	145.960000
240.852737	145.720000
240.945526	145.420000
241.038315	145.040000
241.131088	144.980000
241.223877	145.620000
241.316650	145.860000
241.409439	145.960000
241.502228	145.680000
241.595001	145.780000
241.687790	145.360000
241.780579	145.400000
241.873367	145.540000
241.966141	146.120000
242.058929	145.780000
242.151718	145.940000
242.244507	146.320000
242.337311	145.460000
242.430099	145.720000
242.522903	146.200000
242.615692	145.840000
242.708481	145.540000
242.801270	146.580000
242.894073	146.400000
242.986862	145.920000
243.079651	146.520000
243.172455	146.160000
243.265244	146.060000
243.358063	145.360000
243.450867	146.000000
243.543655	145.760000
243.636459	146.060000
243.729263	146.020000
243.822067	146.600000
243.914856	146.900000
244.007660	146.980000
244.100464	147.080000
244.193268	146.920000
244.286072	146.780000
244.378876	145.660000
244.471680	145.240000
244.564499	145.260000
244.657318	145.640000
244.750122	145.640000
244.842926	145.320000
244.935745	145.700000
245.028549	145.400000
245.121368	144.780000
245.214172	144.760000
245.306992	145.260000
245.399796	144.840000
245.492615	144.780000
245.585434	145.040000
245.678253	145.200000
245.771072	145.320000
245.863892	146.120000
245.956711	146.720000
246.049530	146.340000
246.142349	145.900000
246.235168	145.800000
246.327988	146.000000
246.420807	145.420000
246.513626	145.920000
246.606445	146.020000
246.699280	146.200000
246.792099	145.560000
246.884918	145.680000
246.977753	145.360000
247.070587	145.680000
247.163422	145.800000
247.256241	145.720000
247.349075	145.900000
247.441895	145.900000
247.534729	145.680000
247.627563	145.100000
247.720383	146.020000
247.813217	146.140000
247.906052	146.120000
247.998886	146.240000
248.091736	146.480000
248.184570	146.040000
248.277405	145.660000
248.370239	146.760000
248.463074	147.400000
248.555908	147.960000
248.648743	147.520000
248.741592	147.880000
248.834427	147.020000
248.927261	146.020000
249.020111	146.080000
249.112946	146.620000
249.205795	146.220000
249.298630	146.200000
249.391495	146.700000
249.484344	146.140000
249.577179	146.120000
249.670029	146.300000
249.762878	146.940000
249.855728	146.720000
249.948563	146.920000
250.041412	146.380000
250.134262	146.560000
250.227112	146.220000
250.319962	146.080000
250.412827	145.880000
250.505692	145.700000
250.598541	145.700000
250.691391	145.360000
250.784241	145.540000
250.877106	145.600000
250.969955	145.500000
251.062805	146.000000
251.155670	146.660000
251.248520	146.220000
251.341385	146.340000
251.434235	146.740000
251.527100	146.240000
251.619965	145.540000
251.712814	146.520000
251.805695	146.580000
251.898560	146.460000
251.991425	146.660000
252.084290	146.980000
252.177155	146.240000
252.270020	145.820000
252.362885	145.760000
252.455750	145.560000
252.548615	145.100000
252.641479	145.300000
252.734360	145.360000
252.827240	145.040000
252.920105	144.900000
253.012970	144.700000
253.105850	144.480000
253.198715	144.400000
253.291595	144.840000
253.384460	144.780000
253.477341	144.960000
253.570221	145.060000
253.663086	144.860000
253.755966	145.340000
253.848846	145.500000
253.941727	145.700000
254.034592	145.720000
254.127472	145.480000
254.220367	145.100000
254.313248	145.200000
254.406128	144.740000
254.499008	145.040000
254.591904	146.120000
254.684784	146.560000
254.777664	146.500000
254.870544	146.420000
254.963440	146.240000
255.056335	146.080000
255.149216	145.480000
255.242111	146.020000
255.334991	146.460000
255.427887	146.240000
255.520767	146.120000
255.613663	146.600000
255.706558	145.640000
255.799438	145.760000
255.892334	145.920000
255.985229	145.740000
256.078125	145.400000
256.171021	145.940000
256.263916	146.180000
256.356812	146.360000
256.449707	146.540000
256.542603	146.280000
256.635498	146.340000
256.728394	146.220000
256.821289	145.860000
256.914215	146.240000
257.007080	146.780000
257.100006	146.840000
257.192932	147.120000
257.285828	147.640000
257.378723	147.240000
257.471619	146.960000
257.564545	146.660000
257.657440	146.420000
257.750336	146.660000
257.843262	146.500000
257.936157	147.480000
258.029053	147.840000
258.121979	148.000000
258.214874	147.240000
258.307800	147.140000
258.400696	146.020000
258.493622	145.780000
258.586517	145.040000
258.679443	145.660000
258.772339	145.660000
258.865265	145.720000
258.958160	145.180000
259.051086	145.980000
259.144012	145.620000
259.236938	146.380000
259.329834	146.520000
259.422791	146.520000
259.515717	145.940000
259.608612	145.920000
259.701538	145.440000
259.794464	145.020000
259.887390	145.340000
259.980316	145.460000
260.073212	145.140000
260.166138	144.140000
260.259064	144.720000
260.351990	145.060000
260.444916	144.920000
260.537842	145.420000
260.630768	146.720000
260.723694	146.600000
260.816620	146.500000
260.909546	146.340000
261.002472	145.960000
261.095398	145.300000
261.188354	145.460000
261.281281	145.020000
261.374207	145.340000
261.467133	146.140000
261.560089	146.360000
261.653015	145.760000
261.745972	146.280000
261.838867	146.680000
261.931824	146.620000
262.024780	146.100000
262.117706	146.480000
262.210663	146.860000
262.303589	146.480000
262.396515	146.060000
262.489471	146.980000
262.582397	146.940000
262.675354	146.020000
262.768280	146.160000
262.861237	146.120000
262.954163	145.840000
263.047119	145.860000
263.140045	145.940000
263.233002	145.860000
263.325958	145.900000
263.418884	145.140000
263.511841	145.160000
263.604797	145.480000
263.697723	145.600000
263.790680	145.500000
263.883636	146.360000
263.976593	145.920000
264.069550	145.580000
264.162476	145.020000
264.255463	145.060000
264.348419	144.860000
264.441376	145.300000
264.534332	145.080000
264.627289	145.360000
264.720245	145.980000
264.813202	145.800000
264.906158	146.060000
264.999115	146.900000
265.092072	146.860000
265.185028	146.940000
265.277985	146.940000
265.370941	146.740000
265.463898	146.260000
265.556854	146.260000
265.649811	145.280000
265.742798	145.280000
265.835754	145.300000
265.928711	145.580000
266.021667	145.560000
266.114655	145.800000
266.207611	146.020000
266.300568	145.400000
266.393585	144.820000
266.486511	144.920000
266.579498	144.180000
266.672485	144.040000
266.765442	144.440000
266.858429	144.980000
266.951385	144.680000
267.044342	145.400000
267.137329	145.620000
267.230316	145.720000
267.323273	145.400000
267.416260	146.180000
267.509216	145.860000
267.602203	145.540000
267.695160	145.960000
267.788147	146.080000
267.881134	145.260000
267.974091	145.700000
268.067078	145.640000
268.160065	144.960000
268.253052	144.780000
268.346008	145.160000
268.438995	144.780000
268.531982	145.140000
268.624969	145.320000
268.717987	145.680000
268.810944	145.600000
268.903961	145.980000
268.996948	145.460000
269.089905	145.900000
269.182892	145.980000
269.275879	146.460000
269.368866	145.900000
269.461853	146.520000
269.554871	146.340000
269.647858	146.040000
269.740845	146.280000
269.833832	146.820000
269.926819	146.400000
270.019806	146.420000
270.112793	146.400000
270.205811	146.140000
270.298798	145.940000
270.391785	146.700000
270.484772	146.280000
270.577789	146.400000
270.670776	145.800000
270.763763	145.820000
270.856750	145.360000
270.949768	145.360000
271.042786	145.360000
271.135773	145.620000
271.228790	145.960000
271.321808	145.480000
271.414795	145.300000
271.507782	145.040000
271.600800	144.620000
271.693817	144.120000
271.786804	144.700000
271.879822	145.160000
271.972809	144.940000
272.065826	145.620000
272.158844	145.540000
272.251831	145.960000
272.344849	145.740000
272.437866	145.740000
272.530853	145.800000
272.623871	146.160000
272.716888	145.060000
272.809906	145.620000
272.902893	145.740000
272.995911	145.120000
273.088928	145.040000
273.181946	145.440000
273.274963	144.800000
273.367981	144.960000
273.460999	145.200000
273.554047	145.640000
273.647003	146.300000
273.740051	146.760000
273.833069	147.160000
273.926086	147.380000
274.019135	147.120000
274.112152	146.580000
274.205170	146.340000
274.298187	146.500000
274.391205	145.740000
274.484222	145.560000
274.577240	145.520000
274.670258	145.140000
274.763306	144.520000
274.856323	145.360000
274.949341	145.500000
275.042358	145.960000
275.135406	146.280000
275.228424	146.440000
275.321442	146.100000
275.414490	145.640000
275.507507	145.560000
275.600525	145.920000
275.693573	145.640000
275.786591	145.700000
275.879669	146.100000
275.972656	145.840000
276.065735	145.660000
276.158752	146.480000
276.251801	147.060000
276.344818	147.160000
276.437866	147.060000
276.530884	146.800000
276.623932	145.880000
276.716980	145.440000
276.809998	145.460000
276.903046	145.680000
276.996094	146.380000
277.089111	147.280000
277.182159	148.040000
277.275208	147.780000
277.368256	147.940000
277.461304	147.620000
277.554321	146.880000
277.647369	146.540000
277.740417	146.840000
277.833466	146.440000
277.926514	146.400000
278.019562	147.020000
278.112610	146.280000
278.205688	146.000000
278.298706	146.080000
278.391785	146.140000
278.484833	145.760000
278.577881	145.740000
278.670929	146.080000
278.763977	146.300000
278.857025	146.380000
278.950073	146.620000
279.043121	146.560000
279.136169	146.540000
279.229248	146.140000
279.322296	146.120000
279.415344	145.620000
279.508392	145.500000
279.601440	145.240000
279.694519	145.160000
279.787567	144.880000
279.880615	144.840000
279.973694	144.940000
280.066742	145.000000
280.159790	145.460000
280.252869	145.320000
280.345917	145.660000
280.438995	146.060000
280.532074	145.960000
280.625122	145.920000
280.718201	146.840000
280.811279	146.860000
280.904327	146.540000
280.997406	146.980000
281.090454	147.120000
281.183533	146.180000
281.276581	146.180000
281.369659	145.940000
281.462738	145.720000
281.555786	145.620000
281.648865	145.820000
281.741943	145.700000
281.835022	146.520000
281.928070	146.320000
282.021149	145.980000
282.114227	145.660000
282.207306	145.500000
282.300385	145.680000
282.393433	145.840000
282.486511	145.860000
282.579590	146.360000
282.672668	146.860000
282.765747	146.060000
282.858856	145.900000
282.951904	146.260000
283.045013	146.460000
283.138062	146.420000
283.231171	146.620000
283.324249	146.980000
283.417328	146.680000
283.510406	146.080000
283.603485	145.760000
283.696564	145.640000
283.789642	145.480000
283.882751	145.300000
283.975830	145.780000
284.068909	145.720000
284.161987	146.340000
284.255066	146.020000
284.348175	146.540000
284.441254	146.240000
284.534332	146.720000
284.627441	146.320000
284.720520	145.800000
284.813599	145.520000
284.906708	145.880000
284.999786	145.040000
285.092896	144.840000
285.185974	146.400000
285.279053	146.060000
285.372192	145.800000
285.465240	146.620000
285.558380	146.360000
285.651459	145.300000
285.744568	146.420000
285.837677	146.000000
285.930756	145.720000
286.023865	145.980000
286.116943	146.200000
286.210052	145.940000
286.303162	146.300000
286.396240	146.320000
286.489349	146.160000
286.582458	146.300000
286.675568	145.680000
286.768646	145.640000
286.861755	146.060000
286.954865	146.680000
287.047974	146.220000
287.141083	146.120000
287.234161	145.820000
287.327271	145.320000
287.420380	145.560000
287.513519	145.460000
287.606598	145.500000
287.699738	146.040000
287.792816	146.040000
287.885956	145.560000
287.979034	145.740000
288.072174	146.020000
288.165283	145.660000
288.258392	145.800000
288.351501	145.360000
288.444611	145.560000
288.537720	145.960000
288.630859	146.040000
288.723969	146.120000
288.817078	146.800000
288.910187	146.600000
289.003296	146.000000
289.096436	145.720000
289.189545	145.460000
289.282654	145.000000
289.375763	145.400000
289.468903	145.700000
289.562012	146.060000
289.655121	146.320000
289.748260	146.480000
289.841400	146.540000
289.934509	146.520000
290.027649	146.840000
290.120728	146.600000
290.213898	146.480000
290.306976	146.100000
290.400146	146.120000
290.493256	145.400000
290.586395	145.380000
290.679535	145.880000
290.772644	145.880000
290.865784	145.140000
290.958893	145.220000
291.052032	145.180000
291.145172	144.820000
291.238281	144.640000
291.331421	145.160000
291.424561	145.680000
291.517670	145.560000
291.610809	145.780000
291.703949	145.980000
291.797089	146.280000
291.890228	145.960000
291.983337	145.920000
292.076477	145.800000
292.169617	146.020000
292.262756	145.620000
292.355927	145.320000
292.449036	145.340000
292.542206	145.520000
292.635315	145.440000
292.728485	145.540000
292.821625	145.520000
292.914764	146.620000
293.007904	146.540000
293.101044	146.400000
293.194183	146.340000
293.287323	146.480000
293.380463	145.720000
293.473602	145.080000
293.566742	145.440000
293.659882	145.940000
293.753021	146.440000
293.846191	146.200000
293.939331	146.240000
294.032471	145.740000
294.125610	145.420000
294.218781	145.620000
294.311920	146.120000
294.405060	146.760000
294.498230	147.140000
294.591370	147.280000
294.684540	146.540000
294.777679	145.780000
294.870850	145.960000
294.963959	145.840000
295.057159	145.460000
295.150299	146.140000
295.243469	146.340000
295.336609	145.580000
295.429779	145.540000
295.522919	145.940000
295.616089	145.680000
295.709229	146.320000
295.802399	146.840000
295.895569	146.660000
295.988708	146.320000
296.081879	146.180000
296.175018	145.620000
296.268188	145.360000
296.361359	145.820000
296.454529	146.120000
296.547668	145.900000
296.640839	146.300000
296.734009	146.040000
296.827179	146.200000
296.920319	146.380000
297.013519	146.440000
297.106659	146.620000
297.199860	146.760000
297.292999	146.520000
297.386200	146.060000
297.479309	146.020000
297.572510	145.660000
297.665680	145.500000
297.758850	145.500000
297.852020	145.600000
297.945190	145.660000
298.038361	145.080000
298.131531	146.000000
298.224701	145.560000
298.317871	145.360000
298.411072	144.840000
298.504242	145.280000
298.597412	144.640000
298.690582	144.740000
298.783752	145.140000
298.876923	145.820000
298.970093	145.720000
299.063293	146.040000
299.156464	146.660000
299.249634	146.580000
299.342834	146.880000
299.436005	147.140000
299.529205	146.880000
299.622345	146.520000
299.715576	145.780000
299.808716	145.160000
299.901917	144.960000
299.995117	145.040000
300.088287	145.100000
300.181488	145.160000
300.274658	145.180000
300.367828	145.140000
300.461029	145.180000
300.554199	145.600000
300.647400	145.800000
300.740601	146.220000
300.833771	146.320000
300.926971	146.480000
301.020142	145.880000
301.113342	146.100000
301.206512	146.080000
301.299713	146.440000
301.392914	146.360000
301.486084	146.480000
301.579285	146.300000
301.672516	146.660000
301.765686	146.200000
301.858887	146.120000
301.952057	146.220000
302.045288	146.440000
302.138458	146.000000
302.231659	146.000000
302.324860	146.080000
302.418060	145.600000
302.511261	145.320000
302.604462	145.640000
302.697662	145.380000
302.790863	144.960000
302.884064	145.160000
302.977264	145.460000
303.070465	145.440000
303.163666	146.480000
303.256866	146.860000
303.350067	146.620000
303.443268	146.300000
303.536469	146.480000
303.629669	145.860000
303.722870	145.840000
303.816071	146.080000
303.909271	146.240000
304.002472	145.300000
304.095673	145.140000
304.188934	144.400000
304.282104	145.180000
304.375336	145.200000
304.468506	145.600000
304.561768	145.640000
304.654968	146.420000
304.748169	145.600000
304.841370	145.460000
304.934601	145.780000
305.027802	145.240000
305.121002	145.140000
305.214233	145.280000
305.307434	145.580000
305.400665	145.720000
305.493866	145.900000
