Model Number: SPM-002-B   
Serial Number: 70087108
Firmware Version: 004.15.4
Exposure Time: 100000.000000us
Data Taken on: 11-12-2020 18:50:10.549
Wavelength	Amplitude
221.570786	0.000000
221.663406	0.000000
221.756027	0.000000
221.848648	0.000000
221.941269	0.000000
222.033905	0.000000
222.126526	0.000000
222.219162	0.000000
222.311798	0.000000
222.404419	0.000000
222.497055	0.000000
222.589676	0.000000
222.682312	0.000000
222.774933	0.000000
222.867569	0.000000
222.960205	0.000000
223.052841	0.000000
223.145462	0.000000
223.238098	0.000000
223.330734	0.000000
223.423386	0.000000
223.516022	0.000000
223.608658	0.000000
223.701309	0.000000
223.793945	0.000000
223.886581	0.000000
223.979218	0.000000
224.071869	0.000000
224.164505	0.000000
224.257156	0.000000
224.349792	0.000000
224.442444	0.000000
224.535095	0.000000
224.627747	0.000000
224.720398	0.000000
224.813034	0.000000
224.905685	0.000000
224.998337	144.940000
225.090988	144.840000
225.183640	144.800000
225.276291	144.400000
225.368942	144.920000
225.461594	145.360000
225.554245	145.600000
225.646912	145.900000
225.739578	146.420000
225.832230	146.600000
225.924896	145.920000
226.017548	146.220000
226.110199	146.840000
226.202866	146.220000
226.295532	146.140000
226.388184	146.380000
226.480850	146.120000
226.573517	145.240000
226.666168	145.540000
226.758835	145.660000
226.851501	146.000000
226.944183	145.800000
227.036850	145.780000
227.129517	145.760000
227.222183	145.680000
227.314850	145.520000
227.407516	145.740000
227.500198	146.620000
227.592865	146.100000
227.685532	145.720000
227.778214	145.560000
227.870880	145.960000
227.963562	146.100000
228.056229	147.020000
228.148926	147.040000
228.241592	147.780000
228.334274	147.320000
228.426956	146.760000
228.519638	146.260000
228.612305	146.260000
228.704987	146.040000
228.797668	146.020000
228.890350	146.260000
228.983032	145.980000
229.075714	146.300000
229.168396	145.620000
229.261108	145.300000
229.353790	145.020000
229.446472	145.340000
229.539169	145.080000
229.631851	144.980000
229.724533	145.260000
229.817230	145.400000
229.909912	146.240000
230.002609	146.540000
230.095306	146.680000
230.187988	146.840000
230.280685	146.860000
230.373383	145.860000
230.466095	145.520000
230.558792	145.980000
230.651474	146.100000
230.744171	145.800000
230.836868	145.900000
230.929581	146.160000
231.022278	145.900000
231.114975	145.840000
231.207672	145.820000
231.300369	146.240000
231.393082	146.340000
231.485779	146.320000
231.578506	146.380000
231.671204	146.300000
231.763916	146.180000
231.856613	145.880000
231.949326	145.920000
232.042023	145.460000
232.134735	145.480000
232.227448	145.080000
232.320160	145.520000
232.412872	145.520000
232.505585	146.360000
232.598297	146.780000
232.691010	147.020000
232.783722	146.600000
232.876450	147.020000
232.969162	146.500000
233.061874	146.040000
233.154587	145.880000
233.247314	145.960000
233.340027	145.280000
233.432739	145.740000
233.525467	145.540000
233.618179	145.820000
233.710907	145.640000
233.803635	146.260000
233.896347	146.000000
233.989090	146.800000
234.081818	146.580000
234.174545	147.140000
234.267258	146.840000
234.359985	146.880000
234.452713	146.580000
234.545441	146.420000
234.638168	145.940000
234.730896	145.800000
234.823639	145.360000
234.916367	145.620000
235.009094	145.700000
235.101822	145.760000
235.194580	145.700000
235.287308	145.920000
235.380051	145.300000
235.472778	145.700000
235.565521	145.940000
235.658249	146.020000
235.750992	145.880000
235.843719	146.260000
235.936462	146.200000
236.029205	145.620000
236.121948	145.340000
236.214691	146.060000
236.307449	146.440000
236.400192	146.220000
236.492935	146.340000
236.585678	146.360000
236.678421	146.120000
236.771164	145.780000
236.863907	146.180000
236.956665	146.520000
237.049408	148.240000
237.142151	147.540000
237.234909	148.020000
237.327652	147.860000
237.420410	147.580000
237.513153	146.320000
237.605927	146.440000
237.698669	146.040000
237.791428	145.440000
237.884186	145.880000
237.976944	145.420000
238.069702	145.740000
238.162445	145.300000
238.255203	145.760000
238.347961	145.940000
238.440720	146.260000
238.533478	145.900000
238.626266	145.500000
238.719025	145.460000
238.811783	144.980000
238.904541	144.800000
238.997314	144.760000
239.090073	145.060000
239.182831	145.420000
239.275604	146.400000
239.368362	146.420000
239.461136	146.940000
239.553909	147.160000
239.646667	146.640000
239.739441	145.620000
239.832214	145.820000
239.925003	145.500000
240.017761	146.020000
240.110535	146.520000
240.203308	146.300000
240.296082	146.440000
240.388855	146.300000
240.481628	146.020000
240.574417	145.940000
240.667191	146.500000
240.759964	146.060000
240.852737	146.240000
240.945526	145.960000
241.038315	145.880000
241.131088	146.000000
241.223877	146.440000
241.316650	146.000000
241.409439	146.560000
241.502228	146.120000
241.595001	146.260000
241.687790	146.140000
241.780579	146.640000
241.873367	146.520000
241.966141	146.880000
242.058929	146.420000
242.151718	146.420000
242.244507	146.720000
242.337311	145.820000
242.430099	145.980000
242.522903	146.020000
242.615692	145.520000
242.708481	145.200000
242.801270	145.880000
242.894073	145.800000
242.986862	145.920000
243.079651	146.460000
243.172455	146.280000
243.265244	146.400000
243.358063	145.740000
243.450867	146.000000
243.543655	145.980000
243.636459	146.100000
243.729263	146.340000
243.822067	147.120000
243.914856	147.400000
244.007660	147.620000
244.100464	147.660000
244.193268	147.380000
244.286072	146.860000
244.378876	145.980000
244.471680	145.440000
244.564499	145.540000
244.657318	145.900000
244.750122	146.140000
244.842926	145.700000
244.935745	146.080000
245.028549	145.680000
245.121368	145.480000
245.214172	145.400000
245.306992	146.280000
245.399796	146.000000
245.492615	146.400000
245.585434	145.780000
245.678253	145.920000
245.771072	145.580000
245.863892	146.060000
245.956711	146.260000
246.049530	146.260000
246.142349	146.040000
246.235168	146.500000
246.327988	146.580000
246.420807	146.220000
246.513626	146.300000
246.606445	146.120000
246.699280	145.920000
246.792099	145.620000
246.884918	145.100000
246.977753	144.960000
247.070587	145.160000
247.163422	144.880000
247.256241	145.120000
247.349075	146.080000
247.441895	146.240000
247.534729	146.180000
247.627563	146.300000
247.720383	146.340000
247.813217	146.080000
247.906052	145.980000
247.998886	146.060000
248.091736	146.140000
248.184570	145.900000
248.277405	145.940000
248.370239	146.840000
248.463074	147.580000
248.555908	147.580000
248.648743	147.400000
248.741592	147.260000
248.834427	146.420000
248.927261	145.480000
249.020111	145.840000
249.112946	146.400000
249.205795	146.180000
249.298630	146.560000
249.391495	146.680000
249.484344	146.440000
249.577179	146.320000
249.670029	146.600000
249.762878	146.980000
249.855728	147.280000
249.948563	147.100000
250.041412	146.340000
250.134262	146.600000
250.227112	146.360000
250.319962	146.300000
250.412827	146.340000
250.505692	146.340000
250.598541	146.060000
250.691391	145.700000
250.784241	145.540000
250.877106	145.820000
250.969955	145.760000
251.062805	146.120000
251.155670	146.800000
251.248520	146.640000
251.341385	146.680000
251.434235	146.640000
251.527100	146.340000
251.619965	145.740000
251.712814	146.700000
251.805695	146.420000
251.898560	146.660000
251.991425	147.020000
252.084290	147.500000
252.177155	146.440000
252.270020	146.120000
252.362885	146.220000
252.455750	146.060000
252.548615	145.460000
252.641479	145.400000
252.734360	145.420000
252.827240	145.380000
252.920105	145.000000
253.012970	145.100000
253.105850	145.440000
253.198715	145.420000
253.291595	145.540000
253.384460	145.400000
253.477341	145.300000
253.570221	145.480000
253.663086	145.280000
253.755966	145.920000
253.848846	146.040000
253.941727	146.500000
254.034592	146.220000
254.127472	146.000000
254.220367	145.580000
254.313248	145.480000
254.406128	144.860000
254.499008	145.360000
254.591904	146.300000
254.684784	146.720000
254.777664	147.020000
254.870544	146.780000
254.963440	146.320000
255.056335	146.240000
255.149216	145.640000
255.242111	146.000000
255.334991	146.460000
255.427887	146.540000
255.520767	146.540000
255.613663	146.820000
255.706558	146.140000
255.799438	146.160000
255.892334	146.280000
255.985229	146.000000
256.078125	145.420000
256.171021	145.860000
256.263916	145.940000
256.356812	145.800000
256.449707	146.160000
256.542603	146.300000
256.635498	146.500000
256.728394	146.260000
256.821289	145.940000
256.914215	145.920000
257.007080	146.160000
257.100006	146.040000
257.192932	146.460000
257.285828	146.860000
257.378723	146.420000
257.471619	146.380000
257.564545	145.900000
257.657440	145.980000
257.750336	146.480000
257.843262	146.260000
257.936157	147.060000
258.029053	147.380000
258.121979	147.180000
258.214874	146.800000
258.307800	146.780000
258.400696	145.860000
258.493622	145.880000
258.586517	145.420000
258.679443	145.540000
258.772339	145.700000
258.865265	145.720000
258.958160	145.200000
259.051086	146.120000
259.144012	146.020000
259.236938	146.400000
259.329834	146.380000
259.422791	146.360000
259.515717	145.840000
259.608612	145.800000
259.701538	146.000000
259.794464	145.920000
259.887390	146.300000
259.980316	146.160000
260.073212	145.840000
260.166138	145.080000
260.259064	145.640000
260.351990	146.040000
260.444916	145.840000
260.537842	146.460000
260.630768	147.180000
260.723694	147.080000
260.816620	146.780000
260.909546	147.000000
261.002472	146.300000
261.095398	145.520000
261.188354	145.420000
261.281281	144.920000
261.374207	144.780000
261.467133	145.620000
261.560089	146.140000
261.653015	145.720000
261.745972	146.620000
261.838867	147.340000
261.931824	147.160000
262.024780	146.480000
262.117706	146.720000
262.210663	146.520000
262.303589	145.960000
262.396515	145.920000
262.489471	147.160000
262.582397	147.200000
262.675354	146.620000
262.768280	146.660000
262.861237	146.800000
262.954163	146.200000
263.047119	145.880000
263.140045	145.880000
263.233002	145.820000
263.325958	145.480000
263.418884	145.280000
263.511841	145.740000
263.604797	145.960000
263.697723	146.040000
263.790680	145.860000
263.883636	146.100000
263.976593	145.840000
264.069550	145.780000
264.162476	145.460000
264.255463	145.840000
264.348419	145.560000
264.441376	145.860000
264.534332	145.680000
264.627289	145.920000
264.720245	146.120000
264.813202	146.040000
264.906158	146.140000
264.999115	146.480000
265.092072	146.460000
265.185028	146.760000
265.277985	146.920000
265.370941	146.420000
265.463898	146.140000
265.556854	145.920000
265.649811	145.120000
265.742798	145.320000
265.835754	145.500000
265.928711	145.920000
266.021667	145.980000
266.114655	145.980000
266.207611	146.380000
266.300568	145.820000
266.393585	145.500000
266.486511	146.120000
266.579498	145.400000
266.672485	145.080000
266.765442	145.080000
266.858429	145.280000
266.951385	144.680000
267.044342	145.300000
267.137329	145.200000
267.230316	145.800000
267.323273	145.720000
267.416260	146.260000
267.509216	146.160000
267.602203	145.960000
267.695160	146.360000
267.788147	146.240000
267.881134	145.720000
267.974091	145.940000
268.067078	145.940000
268.160065	145.600000
268.253052	145.640000
268.346008	145.620000
268.438995	145.580000
268.531982	145.840000
268.624969	145.520000
268.717987	145.740000
268.810944	145.980000
268.903961	145.960000
268.996948	145.580000
269.089905	145.940000
269.182892	145.940000
269.275879	146.420000
269.368866	145.880000
269.461853	146.260000
269.554871	146.140000
269.647858	146.120000
269.740845	145.980000
269.833832	146.720000
269.926819	146.320000
270.019806	146.480000
270.112793	146.200000
270.205811	146.080000
270.298798	145.700000
270.391785	146.460000
270.484772	146.300000
270.577789	146.560000
270.670776	146.280000
270.763763	146.240000
270.856750	145.860000
270.949768	145.640000
271.042786	145.600000
271.135773	145.760000
271.228790	146.120000
271.321808	145.820000
271.414795	145.620000
271.507782	145.460000
271.600800	144.920000
271.693817	144.800000
271.786804	145.380000
271.879822	146.060000
271.972809	146.200000
272.065826	147.040000
272.158844	146.800000
272.251831	147.020000
272.344849	146.700000
272.437866	146.400000
272.530853	146.280000
272.623871	146.840000
272.716888	146.000000
272.809906	146.300000
272.902893	146.440000
272.995911	145.900000
273.088928	145.480000
273.181946	145.760000
273.274963	145.280000
273.367981	145.020000
273.460999	145.240000
273.554047	145.640000
273.647003	145.940000
273.740051	146.320000
273.833069	146.680000
273.926086	146.920000
274.019135	146.560000
274.112152	146.420000
274.205170	146.280000
274.298187	146.700000
274.391205	146.000000
274.484222	146.200000
274.577240	146.120000
274.670258	146.000000
274.763306	145.660000
274.856323	146.620000
274.949341	146.480000
275.042358	146.520000
275.135406	146.440000
275.228424	146.540000
275.321442	146.120000
275.414490	146.000000
275.507507	146.540000
275.600525	146.980000
275.693573	146.660000
275.786591	146.160000
275.879669	146.400000
275.972656	145.940000
276.065735	145.620000
276.158752	146.200000
276.251801	147.160000
276.344818	146.960000
276.437866	146.720000
276.530884	146.960000
276.623932	146.060000
276.716980	146.140000
276.809998	146.540000
276.903046	146.620000
276.996094	147.220000
277.089111	148.060000
277.182159	148.000000
277.275208	147.460000
277.368256	147.820000
277.461304	147.280000
277.554321	146.420000
277.647369	146.240000
277.740417	146.320000
277.833466	145.840000
277.926514	145.660000
278.019562	146.580000
278.112610	146.100000
278.205688	146.220000
278.298706	146.480000
278.391785	146.220000
278.484833	145.660000
278.577881	145.720000
278.670929	145.940000
278.763977	146.000000
278.857025	146.620000
278.950073	146.640000
279.043121	146.280000
279.136169	146.160000
279.229248	145.760000
279.322296	145.540000
279.415344	145.200000
279.508392	145.260000
279.601440	145.160000
279.694519	145.060000
279.787567	144.720000
279.880615	145.000000
279.973694	145.120000
280.066742	145.040000
280.159790	145.360000
280.252869	145.120000
280.345917	145.340000
280.438995	145.560000
280.532074	145.540000
280.625122	145.900000
280.718201	146.880000
280.811279	146.980000
280.904327	146.980000
280.997406	147.100000
281.090454	146.980000
281.183533	146.360000
281.276581	145.840000
281.369659	145.440000
281.462738	145.920000
281.555786	145.660000
281.648865	145.460000
281.741943	145.420000
281.835022	146.140000
281.928070	145.580000
282.021149	145.400000
282.114227	145.560000
282.207306	146.100000
282.300385	146.160000
282.393433	146.560000
282.486511	146.560000
282.579590	147.060000
282.672668	147.180000
282.765747	146.620000
282.858856	145.880000
282.951904	146.340000
283.045013	146.440000
283.138062	146.220000
283.231171	146.200000
283.324249	146.880000
283.417328	146.740000
283.510406	146.100000
283.603485	146.040000
283.696564	146.080000
283.789642	146.100000
283.882751	145.820000
283.975830	146.240000
284.068909	146.100000
284.161987	146.900000
284.255066	146.260000
284.348175	146.480000
284.441254	146.200000
284.534332	146.500000
284.627441	145.960000
284.720520	145.920000
284.813599	145.880000
284.906708	145.940000
284.999786	145.360000
285.092896	145.200000
285.185974	146.260000
285.279053	146.020000
285.372192	146.060000
285.465240	147.040000
285.558380	146.980000
285.651459	146.440000
285.744568	147.300000
285.837677	147.140000
285.930756	146.460000
286.023865	146.640000
286.116943	146.260000
286.210052	145.820000
286.303162	145.740000
286.396240	145.880000
286.489349	145.440000
286.582458	145.480000
286.675568	145.280000
286.768646	145.500000
286.861755	146.020000
286.954865	147.040000
287.047974	146.920000
287.141083	146.900000
287.234161	146.500000
287.327271	145.980000
287.420380	145.900000
287.513519	145.880000
287.606598	145.720000
287.699738	146.040000
287.792816	145.800000
287.885956	145.640000
287.979034	145.980000
288.072174	146.240000
288.165283	146.160000
288.258392	146.560000
288.351501	145.740000
288.444611	145.800000
288.537720	146.320000
288.630859	146.240000
288.723969	145.800000
288.817078	146.600000
288.910187	146.400000
289.003296	145.580000
289.096436	145.460000
289.189545	145.620000
289.282654	144.820000
289.375763	145.280000
289.468903	145.800000
289.562012	146.200000
289.655121	146.440000
289.748260	146.800000
289.841400	146.920000
289.934509	146.840000
290.027649	146.820000
290.120728	146.280000
290.213898	146.540000
290.306976	146.120000
290.400146	145.960000
290.493256	145.580000
290.586395	146.140000
290.679535	146.080000
290.772644	145.720000
290.865784	144.960000
290.958893	144.940000
291.052032	144.480000
291.145172	144.340000
291.238281	144.360000
291.331421	144.860000
291.424561	145.420000
291.517670	145.580000
291.610809	145.940000
291.703949	145.940000
291.797089	146.380000
291.890228	145.920000
291.983337	145.720000
292.076477	145.580000
292.169617	145.980000
292.262756	146.000000
292.355927	145.880000
292.449036	146.040000
292.542206	145.760000
292.635315	145.880000
292.728485	145.720000
292.821625	145.600000
292.914764	146.520000
293.007904	146.820000
293.101044	146.620000
293.194183	146.340000
293.287323	146.880000
293.380463	146.220000
293.473602	145.980000
293.566742	146.280000
293.659882	147.020000
293.753021	146.940000
293.846191	146.980000
293.939331	146.580000
294.032471	146.100000
294.125610	145.340000
294.218781	145.820000
294.311920	146.020000
294.405060	146.320000
294.498230	146.360000
294.591370	146.480000
294.684540	145.520000
294.777679	144.700000
294.870850	145.020000
294.963959	144.980000
295.057159	144.880000
295.150299	145.260000
295.243469	145.660000
295.336609	145.120000
295.429779	145.500000
295.522919	146.120000
295.616089	146.320000
295.709229	147.180000
295.802399	147.540000
295.895569	146.840000
295.988708	146.240000
296.081879	146.200000
296.175018	144.920000
296.268188	144.860000
296.361359	145.680000
296.454529	146.080000
296.547668	145.980000
296.640839	146.520000
296.734009	146.240000
296.827179	146.120000
296.920319	146.180000
297.013519	145.920000
297.106659	146.200000
297.199860	146.400000
297.292999	146.580000
297.386200	146.100000
297.479309	146.220000
297.572510	145.920000
297.665680	145.400000
297.758850	145.520000
297.852020	145.600000
297.945190	145.220000
298.038361	145.140000
298.131531	146.520000
298.224701	146.080000
298.317871	146.240000
298.411072	146.060000
298.504242	145.840000
298.597412	145.220000
298.690582	145.440000
298.783752	145.400000
298.876923	146.080000
298.970093	146.460000
299.063293	146.560000
299.156464	146.460000
299.249634	146.600000
299.342834	146.640000
299.436005	146.920000
299.529205	146.740000
299.622345	146.700000
299.715576	146.160000
299.808716	146.180000
299.901917	145.820000
299.995117	146.280000
300.088287	146.560000
300.181488	146.320000
300.274658	145.960000
300.367828	146.060000
300.461029	145.720000
300.554199	145.980000
300.647400	146.500000
300.740601	147.360000
300.833771	147.360000
300.926971	147.360000
301.020142	146.600000
301.113342	146.320000
301.206512	145.940000
301.299713	145.940000
301.392914	145.820000
301.486084	146.280000
301.579285	146.680000
301.672516	147.020000
301.765686	146.680000
301.858887	146.860000
301.952057	146.760000
302.045288	146.600000
302.138458	146.020000
302.231659	146.180000
302.324860	146.040000
302.418060	145.460000
302.511261	145.700000
302.604462	145.820000
302.697662	145.600000
302.790863	145.700000
302.884064	145.740000
302.977264	145.580000
303.070465	145.860000
303.163666	146.460000
303.256866	146.480000
303.350067	146.640000
303.443268	146.640000
303.536469	146.560000
303.629669	146.100000
303.722870	146.120000
303.816071	146.080000
303.909271	146.100000
304.002472	145.460000
304.095673	145.720000
304.188934	145.020000
304.282104	145.880000
304.375336	145.780000
304.468506	145.960000
304.561768	145.540000
304.654968	146.440000
304.748169	145.840000
304.841370	145.680000
304.934601	146.060000
305.027802	145.980000
305.121002	145.420000
305.214233	145.340000
305.307434	145.720000
305.400665	146.340000
305.493866	146.220000
