Model Number: SPM-002-B   
Serial Number: 70087108
Firmware Version: 004.15.4
Exposure Time: 100000.000000us
Data Taken on: 11-12-2020 18:50:21.189
Wavelength	Amplitude
221.570786	0.000000
221.663406	0.000000
221.756027	0.000000
221.848648	0.000000
221.941269	0.000000
222.033905	0.000000
222.126526	0.000000
222.219162	0.000000
222.311798	0.000000
222.404419	0.000000
222.497055	0.000000
222.589676	0.000000
222.682312	0.000000
222.774933	0.000000
222.867569	0.000000
222.960205	0.000000
223.052841	0.000000
223.145462	0.000000
223.238098	0.000000
223.330734	0.000000
223.423386	0.000000
223.516022	0.000000
223.608658	0.000000
223.701309	0.000000
223.793945	0.000000
223.886581	0.000000
223.979218	0.000000
224.071869	0.000000
224.164505	0.000000
224.257156	0.000000
224.349792	0.000000
224.442444	0.000000
224.535095	0.000000
224.627747	0.000000
224.720398	0.000000
224.813034	0.000000
224.905685	0.000000
224.998337	145.880000
225.090988	145.460000
225.183640	145.420000
225.276291	145.200000
225.368942	145.940000
225.461594	146.560000
225.554245	146.940000
225.646912	147.120000
225.739578	147.780000
225.832230	147.860000
225.924896	146.960000
226.017548	147.140000
226.110199	147.420000
226.202866	146.700000
226.295532	146.200000
226.388184	146.440000
226.480850	146.040000
226.573517	145.620000
226.666168	146.040000
226.758835	146.680000
226.851501	146.940000
226.944183	146.880000
227.036850	146.480000
227.129517	146.260000
227.222183	146.320000
227.314850	146.400000
227.407516	147.000000
227.500198	147.800000
227.592865	147.320000
227.685532	146.660000
227.778214	146.180000
227.870880	146.360000
227.963562	146.620000
228.056229	147.180000
228.148926	147.000000
228.241592	148.000000
228.334274	147.360000
228.426956	146.820000
228.519638	146.620000
228.612305	146.440000
228.704987	146.160000
228.797668	146.540000
228.890350	146.500000
228.983032	146.160000
229.075714	147.180000
229.168396	146.800000
229.261108	146.440000
229.353790	146.260000
229.446472	146.580000
229.539169	146.180000
229.631851	145.860000
229.724533	145.920000
229.817230	146.320000
229.909912	147.220000
230.002609	147.180000
230.095306	147.440000
230.187988	147.520000
230.280685	147.260000
230.373383	146.100000
230.466095	145.880000
230.558792	146.000000
230.651474	146.040000
230.744171	145.880000
230.836868	145.740000
230.929581	146.340000
231.022278	146.320000
231.114975	146.420000
231.207672	146.540000
231.300369	147.080000
231.393082	146.860000
231.485779	146.780000
231.578506	146.340000
231.671204	146.220000
231.763916	146.440000
231.856613	146.180000
231.949326	146.340000
232.042023	146.680000
232.134735	146.880000
232.227448	146.220000
232.320160	146.420000
232.412872	146.440000
232.505585	146.900000
232.598297	147.380000
232.691010	147.480000
232.783722	147.360000
232.876450	147.840000
232.969162	147.220000
233.061874	146.380000
233.154587	146.240000
233.247314	146.240000
233.340027	145.460000
233.432739	146.000000
233.525467	146.080000
233.618179	146.600000
233.710907	146.360000
233.803635	146.960000
233.896347	146.640000
233.989090	147.480000
234.081818	147.420000
234.174545	147.820000
234.267258	147.300000
234.359985	147.260000
234.452713	146.600000
234.545441	146.380000
234.638168	145.940000
234.730896	146.360000
234.823639	146.300000
234.916367	146.800000
235.009094	146.900000
235.101822	147.000000
235.194580	146.800000
235.287308	146.760000
235.380051	146.020000
235.472778	146.180000
235.565521	146.580000
235.658249	146.360000
235.750992	146.340000
235.843719	146.560000
235.936462	146.600000
236.029205	145.960000
236.121948	145.760000
236.214691	146.080000
236.307449	146.760000
236.400192	146.420000
236.492935	146.520000
236.585678	146.700000
236.678421	146.760000
236.771164	146.700000
236.863907	147.240000
236.956665	147.660000
237.049408	149.420000
237.142151	148.860000
237.234909	149.120000
237.327652	148.860000
237.420410	148.360000
237.513153	147.120000
237.605927	146.880000
237.698669	145.900000
237.791428	145.460000
237.884186	146.320000
237.976944	145.720000
238.069702	146.280000
238.162445	146.260000
238.255203	146.580000
238.347961	146.480000
238.440720	146.600000
238.533478	146.240000
238.626266	146.200000
238.719025	146.540000
238.811783	146.240000
238.904541	145.960000
238.997314	146.020000
239.090073	145.700000
239.182831	145.640000
239.275604	146.160000
239.368362	146.100000
239.461136	146.060000
239.553909	146.120000
239.646667	145.760000
239.739441	145.220000
239.832214	145.760000
239.925003	146.060000
240.017761	146.960000
240.110535	147.560000
240.203308	147.160000
240.296082	147.180000
240.388855	147.240000
240.481628	147.100000
240.574417	146.920000
240.667191	147.260000
240.759964	147.000000
240.852737	146.820000
240.945526	146.520000
241.038315	146.180000
241.131088	146.180000
241.223877	146.540000
241.316650	146.300000
241.409439	146.580000
241.502228	146.240000
241.595001	146.840000
241.687790	146.720000
241.780579	146.960000
241.873367	147.120000
241.966141	147.660000
242.058929	146.720000
242.151718	146.960000
242.244507	147.260000
242.337311	146.360000
242.430099	146.800000
242.522903	147.540000
242.615692	147.060000
242.708481	147.080000
242.801270	147.580000
242.894073	147.260000
242.986862	147.060000
243.079651	147.760000
243.172455	147.320000
243.265244	147.580000
243.358063	146.840000
243.450867	147.120000
243.543655	146.580000
243.636459	146.840000
243.729263	146.860000
243.822067	147.460000
243.914856	147.700000
244.007660	147.840000
244.100464	147.560000
244.193268	147.100000
244.286072	146.940000
244.378876	146.280000
244.471680	145.700000
244.564499	146.000000
244.657318	146.700000
244.750122	147.040000
244.842926	146.540000
244.935745	147.020000
245.028549	146.600000
245.121368	146.240000
245.214172	146.000000
245.306992	146.780000
245.399796	146.700000
245.492615	147.100000
245.585434	146.820000
245.678253	146.720000
245.771072	146.540000
245.863892	147.040000
245.956711	147.120000
246.049530	147.020000
246.142349	147.040000
246.235168	146.940000
246.327988	146.980000
246.420807	146.740000
246.513626	146.860000
246.606445	146.760000
246.699280	146.780000
246.792099	146.260000
246.884918	146.140000
246.977753	146.000000
247.070587	146.440000
247.163422	146.560000
247.256241	146.660000
247.349075	147.320000
247.441895	147.500000
247.534729	147.080000
247.627563	146.900000
247.720383	147.300000
247.813217	146.660000
247.906052	146.440000
247.998886	146.400000
248.091736	146.200000
248.184570	146.020000
248.277405	146.100000
248.370239	147.280000
248.463074	148.380000
248.555908	149.060000
248.648743	148.820000
248.741592	148.780000
248.834427	147.740000
248.927261	146.560000
249.020111	146.380000
249.112946	146.920000
249.205795	146.660000
249.298630	146.680000
249.391495	146.620000
249.484344	146.440000
249.577179	146.100000
249.670029	146.360000
249.762878	146.920000
249.855728	147.220000
249.948563	146.860000
250.041412	146.160000
250.134262	146.400000
250.227112	146.420000
250.319962	146.120000
250.412827	146.460000
250.505692	146.320000
250.598541	146.120000
250.691391	145.400000
250.784241	145.820000
250.877106	145.860000
250.969955	146.000000
251.062805	146.800000
251.155670	147.340000
251.248520	147.040000
251.341385	147.120000
251.434235	147.180000
251.527100	146.320000
251.619965	145.900000
251.712814	146.800000
251.805695	146.700000
251.898560	146.920000
251.991425	147.180000
252.084290	147.560000
252.177155	146.640000
252.270020	146.420000
252.362885	146.500000
252.455750	146.480000
252.548615	145.960000
252.641479	145.740000
252.734360	145.680000
252.827240	145.480000
252.920105	145.700000
253.012970	145.740000
253.105850	145.960000
253.198715	145.820000
253.291595	145.880000
253.384460	145.460000
253.477341	145.520000
253.570221	145.920000
253.663086	146.020000
253.755966	146.680000
253.848846	146.680000
253.941727	147.220000
254.034592	147.000000
254.127472	146.520000
254.220367	146.180000
254.313248	146.380000
254.406128	145.920000
254.499008	146.100000
254.591904	147.120000
254.684784	147.500000
254.777664	147.500000
254.870544	147.100000
254.963440	146.900000
255.056335	146.640000
255.149216	146.360000
255.242111	146.700000
255.334991	147.240000
255.427887	147.560000
255.520767	147.660000
255.613663	147.760000
255.706558	147.300000
255.799438	147.000000
255.892334	146.480000
255.985229	146.340000
256.078125	145.980000
256.171021	146.040000
256.263916	146.780000
256.356812	147.060000
256.449707	147.000000
256.542603	147.080000
256.635498	147.340000
256.728394	146.660000
256.821289	146.360000
256.914215	146.700000
257.007080	147.060000
257.100006	147.080000
257.192932	147.960000
257.285828	148.300000
257.378723	147.880000
257.471619	147.200000
257.564545	146.660000
257.657440	146.360000
257.750336	147.060000
257.843262	146.880000
257.936157	148.360000
258.029053	148.680000
258.121979	148.460000
258.214874	147.420000
258.307800	147.360000
258.400696	146.060000
258.493622	146.080000
258.586517	145.520000
258.679443	146.080000
258.772339	145.980000
258.865265	145.820000
258.958160	145.220000
259.051086	146.300000
259.144012	145.840000
259.236938	146.740000
259.329834	147.200000
259.422791	147.400000
259.515717	146.440000
259.608612	146.360000
259.701538	146.120000
259.794464	145.860000
259.887390	145.880000
259.980316	145.840000
260.073212	145.560000
260.166138	144.680000
260.259064	145.140000
260.351990	145.740000
260.444916	145.940000
260.537842	146.480000
260.630768	147.540000
260.723694	147.160000
260.816620	147.040000
260.909546	146.760000
261.002472	146.460000
261.095398	145.660000
261.188354	145.680000
261.281281	145.080000
261.374207	145.440000
261.467133	146.140000
261.560089	146.380000
261.653015	146.060000
261.745972	146.900000
261.838867	147.180000
261.931824	146.980000
262.024780	146.500000
262.117706	147.040000
262.210663	146.700000
262.303589	146.500000
262.396515	146.540000
262.489471	147.680000
262.582397	147.340000
262.675354	147.000000
262.768280	147.120000
262.861237	147.040000
262.954163	146.780000
263.047119	146.920000
263.140045	146.980000
263.233002	146.760000
263.325958	146.500000
263.418884	146.060000
263.511841	146.040000
263.604797	146.040000
263.697723	146.240000
263.790680	146.340000
263.883636	146.800000
263.976593	146.600000
264.069550	146.680000
264.162476	146.200000
264.255463	146.260000
264.348419	146.140000
264.441376	146.660000
264.534332	146.380000
264.627289	146.820000
264.720245	147.280000
264.813202	146.760000
264.906158	147.020000
264.999115	147.640000
265.092072	147.480000
265.185028	147.680000
265.277985	147.940000
265.370941	147.300000
265.463898	146.920000
265.556854	146.980000
265.649811	145.760000
265.742798	145.940000
265.835754	146.040000
265.928711	146.740000
266.021667	146.540000
266.114655	147.040000
266.207611	147.120000
266.300568	146.740000
266.393585	146.040000
266.486511	146.500000
266.579498	146.100000
266.672485	145.940000
266.765442	146.020000
266.858429	146.640000
266.951385	146.160000
267.044342	146.440000
267.137329	146.480000
267.230316	146.560000
267.323273	145.880000
267.416260	146.520000
267.509216	146.220000
267.602203	146.080000
267.695160	146.680000
267.788147	146.820000
267.881134	146.140000
267.974091	146.600000
268.067078	146.460000
268.160065	146.000000
268.253052	145.940000
268.346008	146.140000
268.438995	146.240000
268.531982	146.640000
268.624969	146.540000
268.717987	146.780000
268.810944	146.780000
268.903961	146.680000
268.996948	146.200000
269.089905	146.740000
269.182892	146.600000
269.275879	146.860000
269.368866	146.580000
269.461853	146.800000
269.554871	146.580000
269.647858	146.780000
269.740845	147.040000
269.833832	147.300000
269.926819	147.180000
270.019806	147.140000
270.112793	146.540000
270.205811	146.580000
270.298798	146.220000
270.391785	146.860000
270.484772	146.540000
270.577789	146.900000
270.670776	146.200000
270.763763	146.300000
270.856750	146.020000
270.949768	145.980000
271.042786	145.880000
271.135773	145.940000
271.228790	146.220000
271.321808	145.640000
271.414795	145.140000
271.507782	145.240000
271.600800	145.240000
271.693817	145.100000
271.786804	145.700000
271.879822	146.340000
271.972809	146.140000
272.065826	146.420000
272.158844	146.220000
272.251831	146.780000
272.344849	146.640000
272.437866	146.420000
272.530853	146.240000
272.623871	146.560000
272.716888	145.240000
272.809906	145.580000
272.902893	145.820000
272.995911	145.520000
273.088928	145.440000
273.181946	146.020000
273.274963	145.820000
273.367981	145.700000
273.460999	145.900000
273.554047	146.340000
273.647003	147.080000
273.740051	147.020000
273.833069	147.580000
273.926086	147.760000
274.019135	147.380000
274.112152	146.800000
274.205170	146.880000
274.298187	146.840000
274.391205	146.520000
274.484222	146.620000
274.577240	146.380000
274.670258	146.360000
274.763306	146.060000
274.856323	146.700000
274.949341	146.660000
275.042358	147.160000
275.135406	147.020000
275.228424	147.140000
275.321442	146.840000
275.414490	146.640000
275.507507	146.960000
275.600525	147.420000
275.693573	147.320000
275.786591	147.080000
275.879669	147.180000
275.972656	146.420000
276.065735	146.240000
276.158752	146.500000
276.251801	147.460000
276.344818	147.500000
276.437866	147.580000
276.530884	147.520000
276.623932	146.820000
276.716980	146.380000
276.809998	146.480000
276.903046	146.600000
276.996094	147.240000
277.089111	147.980000
277.182159	148.540000
277.275208	148.240000
277.368256	148.240000
277.461304	147.900000
277.554321	147.180000
277.647369	146.340000
277.740417	146.480000
277.833466	146.040000
277.926514	145.520000
278.019562	146.420000
278.112610	145.800000
278.205688	145.800000
278.298706	146.100000
278.391785	145.960000
278.484833	145.220000
278.577881	145.700000
278.670929	145.700000
278.763977	146.040000
278.857025	146.640000
278.950073	146.960000
279.043121	147.140000
279.136169	147.160000
279.229248	146.640000
279.322296	146.520000
279.415344	146.320000
279.508392	146.020000
279.601440	145.960000
279.694519	146.260000
279.787567	145.960000
279.880615	146.060000
279.973694	146.180000
280.066742	146.360000
280.159790	146.140000
280.252869	145.900000
280.345917	145.700000
280.438995	145.740000
280.532074	145.520000
280.625122	145.960000
280.718201	147.200000
280.811279	147.480000
280.904327	147.260000
280.997406	147.540000
281.090454	147.380000
281.183533	146.320000
281.276581	146.380000
281.369659	146.420000
281.462738	146.300000
281.555786	146.520000
281.648865	146.600000
281.741943	146.420000
281.835022	146.860000
281.928070	146.720000
282.021149	146.200000
282.114227	146.040000
282.207306	146.060000
282.300385	146.020000
282.393433	146.020000
282.486511	146.220000
282.579590	146.660000
282.672668	146.920000
282.765747	146.240000
282.858856	145.960000
282.951904	146.120000
283.045013	146.340000
283.138062	146.560000
283.231171	146.940000
283.324249	147.820000
283.417328	147.960000
283.510406	147.440000
283.603485	147.120000
283.696564	147.160000
283.789642	146.860000
283.882751	146.400000
283.975830	146.900000
284.068909	146.480000
284.161987	147.160000
284.255066	146.380000
284.348175	146.500000
284.441254	146.360000
284.534332	146.840000
284.627441	145.940000
284.720520	145.760000
284.813599	145.780000
284.906708	145.900000
284.999786	145.140000
285.092896	145.120000
285.185974	146.520000
285.279053	145.940000
285.372192	145.700000
285.465240	146.940000
285.558380	147.140000
285.651459	146.600000
285.744568	147.760000
285.837677	147.440000
285.930756	146.840000
286.023865	147.200000
286.116943	146.800000
286.210052	146.520000
286.303162	146.740000
286.396240	146.660000
286.489349	146.080000
286.582458	146.500000
286.675568	146.080000
286.768646	145.660000
286.861755	146.000000
286.954865	146.880000
287.047974	146.320000
287.141083	146.380000
287.234161	146.460000
287.327271	146.100000
287.420380	146.500000
287.513519	146.700000
287.606598	146.720000
287.699738	147.240000
287.792816	147.280000
287.885956	146.620000
287.979034	146.600000
288.072174	146.600000
288.165283	146.440000
288.258392	146.640000
288.351501	145.940000
288.444611	146.000000
288.537720	146.220000
288.630859	146.460000
288.723969	146.500000
288.817078	146.860000
288.910187	146.800000
289.003296	146.360000
289.096436	145.820000
289.189545	145.760000
289.282654	145.380000
289.375763	145.720000
289.468903	146.340000
289.562012	146.960000
289.655121	147.120000
289.748260	147.360000
289.841400	147.720000
289.934509	147.520000
290.027649	147.340000
290.120728	146.880000
290.213898	147.000000
290.306976	146.640000
290.400146	146.660000
290.493256	146.080000
290.586395	146.260000
290.679535	146.460000
290.772644	146.320000
290.865784	145.720000
290.958893	146.100000
291.052032	146.160000
291.145172	146.140000
291.238281	145.920000
291.331421	146.200000
291.424561	146.640000
291.517670	146.340000
291.610809	146.480000
291.703949	146.500000
291.797089	146.640000
291.890228	146.040000
291.983337	146.500000
292.076477	146.000000
292.169617	146.480000
292.262756	146.600000
292.355927	146.640000
292.449036	146.180000
292.542206	146.660000
292.635315	146.560000
292.728485	146.540000
292.821625	146.180000
292.914764	146.920000
293.007904	146.780000
293.101044	146.700000
293.194183	146.540000
293.287323	146.860000
293.380463	146.100000
293.473602	145.680000
293.566742	145.940000
293.659882	146.780000
293.753021	146.980000
293.846191	147.080000
293.939331	146.860000
294.032471	146.500000
294.125610	145.580000
294.218781	145.840000
294.311920	146.320000
294.405060	146.880000
294.498230	147.180000
294.591370	147.500000
294.684540	146.720000
294.777679	146.120000
294.870850	146.280000
294.963959	145.860000
295.057159	145.240000
295.150299	145.700000
295.243469	145.740000
295.336609	145.360000
295.429779	145.160000
295.522919	145.980000
295.616089	145.920000
295.709229	146.420000
295.802399	146.720000
295.895569	146.560000
295.988708	146.280000
296.081879	146.540000
296.175018	146.240000
296.268188	146.100000
296.361359	146.860000
296.454529	146.900000
296.547668	146.440000
296.640839	146.680000
296.734009	146.360000
296.827179	146.380000
296.920319	146.400000
297.013519	146.520000
297.106659	146.540000
297.199860	146.840000
297.292999	146.440000
297.386200	146.340000
297.479309	146.260000
297.572510	146.300000
297.665680	145.940000
297.758850	145.880000
297.852020	145.720000
297.945190	145.860000
298.038361	145.220000
298.131531	146.220000
298.224701	146.200000
298.317871	145.960000
298.411072	145.640000
298.504242	145.620000
298.597412	145.040000
298.690582	145.420000
298.783752	145.780000
298.876923	146.220000
298.970093	146.420000
299.063293	146.800000
299.156464	147.020000
299.249634	147.000000
299.342834	147.320000
299.436005	147.880000
299.529205	147.400000
299.622345	147.180000
299.715576	146.800000
299.808716	146.520000
299.901917	146.300000
299.995117	146.600000
300.088287	146.960000
300.181488	147.080000
300.274658	146.900000
300.367828	146.600000
300.461029	146.500000
300.554199	146.340000
300.647400	146.300000
300.740601	146.540000
300.833771	146.680000
300.926971	146.840000
301.020142	146.160000
301.113342	146.360000
301.206512	146.640000
301.299713	147.100000
301.392914	146.880000
301.486084	147.680000
301.579285	147.500000
301.672516	147.460000
301.765686	147.200000
301.858887	147.180000
301.952057	147.140000
302.045288	147.480000
302.138458	147.200000
302.231659	146.660000
302.324860	146.600000
302.418060	146.000000
302.511261	145.600000
302.604462	145.960000
302.697662	146.140000
302.790863	146.200000
302.884064	146.060000
302.977264	146.180000
303.070465	146.020000
303.163666	146.660000
303.256866	146.840000
303.350067	146.860000
303.443268	146.940000
303.536469	146.940000
303.629669	146.200000
303.722870	146.440000
303.816071	146.620000
303.909271	146.840000
304.002472	146.280000
304.095673	146.260000
304.188934	145.460000
304.282104	146.180000
304.375336	145.780000
304.468506	145.920000
304.561768	145.900000
304.654968	146.320000
304.748169	145.580000
304.841370	145.480000
304.934601	145.800000
305.027802	145.760000
305.121002	145.960000
305.214233	146.280000
305.307434	146.600000
305.400665	147.240000
305.493866	147.420000
