Model Number: SPM-002-B   
Serial Number: 70087108
Firmware Version: 004.15.4
Exposure Time: 100000.000000us
Data Taken on: 11-12-2020 18:50:32.034
Wavelength	Amplitude
221.570786	0.000000
221.663406	0.000000
221.756027	0.000000
221.848648	0.000000
221.941269	0.000000
222.033905	0.000000
222.126526	0.000000
222.219162	0.000000
222.311798	0.000000
222.404419	0.000000
222.497055	0.000000
222.589676	0.000000
222.682312	0.000000
222.774933	0.000000
222.867569	0.000000
222.960205	0.000000
223.052841	0.000000
223.145462	0.000000
223.238098	0.000000
223.330734	0.000000
223.423386	0.000000
223.516022	0.000000
223.608658	0.000000
223.701309	0.000000
223.793945	0.000000
223.886581	0.000000
223.979218	0.000000
224.071869	0.000000
224.164505	0.000000
224.257156	0.000000
224.349792	0.000000
224.442444	0.000000
224.535095	0.000000
224.627747	0.000000
224.720398	0.000000
224.813034	0.000000
224.905685	0.000000
224.998337	145.860000
225.090988	145.420000
225.183640	145.420000
225.276291	145.880000
225.368942	146.340000
225.461594	146.900000
225.554245	147.520000
225.646912	147.100000
225.739578	147.240000
225.832230	147.360000
225.924896	146.140000
226.017548	146.380000
226.110199	147.220000
226.202866	146.640000
226.295532	146.520000
226.388184	147.020000
226.480850	146.140000
226.573517	145.760000
226.666168	146.260000
226.758835	146.420000
226.851501	146.460000
226.944183	146.920000
227.036850	146.640000
227.129517	146.500000
227.222183	146.940000
227.314850	147.320000
227.407516	147.580000
227.500198	148.600000
227.592865	148.020000
227.685532	146.980000
227.778214	146.560000
227.870880	146.740000
227.963562	146.640000
228.056229	147.100000
228.148926	147.360000
228.241592	148.280000
228.334274	148.020000
228.426956	147.480000
228.519638	147.760000
228.612305	147.480000
228.704987	147.120000
228.797668	147.120000
228.890350	146.940000
228.983032	146.300000
229.075714	147.240000
229.168396	147.000000
229.261108	146.500000
229.353790	146.540000
229.446472	146.920000
229.539169	146.260000
229.631851	146.000000
229.724533	146.360000
229.817230	146.680000
229.909912	147.340000
230.002609	147.580000
230.095306	147.220000
230.187988	147.200000
230.280685	147.000000
230.373383	146.100000
230.466095	145.720000
230.558792	146.100000
230.651474	146.000000
230.744171	145.740000
230.836868	145.820000
230.929581	146.100000
231.022278	146.240000
231.114975	146.040000
231.207672	146.040000
231.300369	146.240000
231.393082	146.340000
231.485779	145.900000
231.578506	146.060000
231.671204	146.500000
231.763916	146.460000
231.856613	146.400000
231.949326	146.780000
232.042023	146.980000
232.134735	146.620000
232.227448	146.660000
232.320160	146.900000
232.412872	147.000000
232.505585	147.580000
232.598297	148.020000
232.691010	147.720000
232.783722	147.520000
232.876450	147.860000
232.969162	147.260000
233.061874	146.740000
233.154587	146.500000
233.247314	146.820000
233.340027	146.100000
233.432739	146.760000
233.525467	146.560000
233.618179	147.080000
233.710907	146.360000
233.803635	147.160000
233.896347	146.560000
233.989090	147.340000
234.081818	147.140000
234.174545	147.780000
234.267258	146.820000
234.359985	146.800000
234.452713	146.460000
234.545441	146.220000
234.638168	146.000000
234.730896	146.880000
234.823639	146.680000
234.916367	147.020000
235.009094	147.420000
235.101822	147.260000
235.194580	146.920000
235.287308	147.120000
235.380051	146.680000
235.472778	146.860000
235.565521	147.200000
235.658249	146.940000
235.750992	147.120000
235.843719	147.220000
235.936462	147.020000
236.029205	146.540000
236.121948	146.180000
236.214691	146.540000
236.307449	147.040000
236.400192	146.620000
236.492935	146.660000
236.585678	147.100000
236.678421	147.040000
236.771164	146.900000
236.863907	147.860000
236.956665	148.160000
237.049408	149.540000
237.142151	148.820000
237.234909	149.180000
237.327652	148.740000
237.420410	148.300000
237.513153	147.520000
237.605927	147.460000
237.698669	146.560000
237.791428	145.980000
237.884186	146.620000
237.976944	145.820000
238.069702	146.340000
238.162445	146.180000
238.255203	146.580000
238.347961	146.960000
238.440720	146.840000
238.533478	146.780000
238.626266	146.700000
238.719025	146.920000
238.811783	146.440000
238.904541	146.700000
238.997314	146.280000
239.090073	146.480000
239.182831	146.420000
239.275604	146.900000
239.368362	146.680000
239.461136	147.120000
239.553909	146.940000
239.646667	147.100000
239.739441	146.720000
239.832214	147.120000
239.925003	147.360000
240.017761	148.220000
240.110535	148.660000
240.203308	148.460000
240.296082	148.640000
240.388855	148.000000
240.481628	148.020000
240.574417	147.860000
240.667191	147.840000
240.759964	147.540000
240.852737	147.640000
240.945526	146.840000
241.038315	146.680000
241.131088	146.740000
241.223877	147.120000
241.316650	147.200000
241.409439	147.640000
241.502228	146.960000
241.595001	147.440000
241.687790	146.840000
241.780579	146.680000
241.873367	146.680000
241.966141	147.280000
242.058929	146.340000
242.151718	146.700000
242.244507	147.120000
242.337311	146.300000
242.430099	146.680000
242.522903	147.360000
242.615692	146.800000
242.708481	146.960000
242.801270	147.980000
242.894073	147.380000
242.986862	147.200000
243.079651	148.200000
243.172455	147.520000
243.265244	147.360000
243.358063	147.080000
243.450867	147.240000
243.543655	146.760000
243.636459	147.040000
243.729263	147.240000
243.822067	147.580000
243.914856	147.920000
244.007660	147.880000
244.100464	147.960000
244.193268	147.660000
244.286072	147.540000
244.378876	146.800000
244.471680	146.520000
244.564499	146.640000
244.657318	147.360000
244.750122	147.440000
244.842926	147.160000
244.935745	148.000000
245.028549	147.500000
245.121368	146.500000
245.214172	146.640000
245.306992	147.180000
245.399796	146.440000
245.492615	146.980000
245.585434	147.240000
245.678253	147.120000
245.771072	147.020000
245.863892	147.480000
245.956711	147.320000
246.049530	147.280000
246.142349	147.080000
246.235168	146.940000
246.327988	147.300000
246.420807	147.220000
246.513626	147.180000
246.606445	146.980000
246.699280	147.100000
246.792099	146.500000
246.884918	146.040000
246.977753	145.960000
247.070587	146.200000
247.163422	146.080000
247.256241	145.700000
247.349075	146.080000
247.441895	146.060000
247.534729	146.020000
247.627563	145.920000
247.720383	146.860000
247.813217	146.720000
247.906052	146.420000
247.998886	146.360000
248.091736	146.460000
248.184570	145.720000
248.277405	145.780000
248.370239	146.660000
248.463074	147.520000
248.555908	147.680000
248.648743	147.820000
248.741592	147.980000
248.834427	147.340000
248.927261	146.300000
249.020111	146.580000
249.112946	147.280000
249.205795	146.820000
249.298630	146.940000
249.391495	147.300000
249.484344	146.880000
249.577179	146.460000
249.670029	146.900000
249.762878	147.460000
249.855728	147.340000
249.948563	147.380000
250.041412	146.720000
250.134262	147.040000
250.227112	147.020000
250.319962	147.220000
250.412827	147.380000
250.505692	147.500000
250.598541	147.100000
250.691391	146.780000
250.784241	147.040000
250.877106	147.000000
250.969955	146.680000
251.062805	147.600000
251.155670	148.000000
251.248520	147.180000
251.341385	147.640000
251.434235	148.220000
251.527100	147.700000
251.619965	147.180000
251.712814	148.340000
251.805695	147.860000
251.898560	147.740000
251.991425	147.780000
252.084290	147.940000
252.177155	147.160000
252.270020	147.020000
252.362885	147.060000
252.455750	146.620000
252.548615	146.380000
252.641479	146.600000
252.734360	146.580000
252.827240	146.320000
252.920105	146.580000
253.012970	146.640000
253.105850	146.360000
253.198715	145.940000
253.291595	146.400000
253.384460	146.240000
253.477341	145.760000
253.570221	145.860000
253.663086	146.000000
253.755966	146.160000
253.848846	145.980000
253.941727	146.720000
254.034592	146.740000
254.127472	146.300000
254.220367	146.180000
254.313248	146.340000
254.406128	145.900000
254.499008	146.120000
254.591904	147.360000
254.684784	147.880000
254.777664	147.760000
254.870544	147.420000
254.963440	147.420000
255.056335	147.200000
255.149216	146.540000
255.242111	147.040000
255.334991	147.840000
255.427887	147.780000
255.520767	147.780000
255.613663	148.020000
255.706558	147.440000
255.799438	146.820000
255.892334	146.300000
255.985229	146.040000
256.078125	145.780000
256.171021	145.960000
256.263916	146.600000
256.356812	147.440000
256.449707	147.660000
256.542603	147.640000
256.635498	148.220000
256.728394	147.900000
256.821289	147.360000
256.914215	147.520000
257.007080	147.820000
257.100006	147.380000
257.192932	147.680000
257.285828	147.900000
257.378723	147.760000
257.471619	147.720000
257.564545	147.460000
257.657440	147.600000
257.750336	147.960000
257.843262	147.560000
257.936157	148.200000
258.029053	148.440000
258.121979	148.240000
258.214874	147.700000
258.307800	147.840000
258.400696	146.960000
258.493622	147.140000
258.586517	146.520000
258.679443	146.960000
258.772339	146.420000
258.865265	146.460000
258.958160	145.840000
259.051086	146.780000
259.144012	146.440000
259.236938	147.360000
259.329834	147.300000
259.422791	147.520000
259.515717	146.580000
259.608612	146.180000
259.701538	146.020000
259.794464	145.960000
259.887390	145.980000
259.980316	145.960000
260.073212	145.940000
260.166138	145.080000
260.259064	145.460000
260.351990	145.560000
260.444916	145.780000
260.537842	146.400000
260.630768	147.180000
260.723694	146.940000
260.816620	147.080000
260.909546	146.920000
261.002472	146.280000
261.095398	145.840000
261.188354	145.820000
261.281281	145.360000
261.374207	145.780000
261.467133	147.000000
261.560089	146.980000
261.653015	146.560000
261.745972	147.240000
261.838867	147.620000
261.931824	147.260000
262.024780	147.180000
262.117706	147.600000
262.210663	147.620000
262.303589	146.960000
262.396515	146.860000
262.489471	147.700000
262.582397	147.560000
262.675354	146.780000
262.768280	146.960000
262.861237	146.860000
262.954163	146.640000
263.047119	146.880000
263.140045	146.880000
263.233002	146.920000
263.325958	146.600000
263.418884	145.900000
263.511841	145.720000
263.604797	145.780000
263.697723	145.700000
263.790680	145.660000
263.883636	146.520000
263.976593	146.200000
264.069550	146.580000
264.162476	146.320000
264.255463	146.820000
264.348419	146.420000
264.441376	147.120000
264.534332	146.680000
264.627289	146.860000
264.720245	147.020000
264.813202	146.660000
264.906158	146.720000
264.999115	147.580000
265.092072	147.640000
265.185028	147.560000
265.277985	147.840000
265.370941	147.560000
265.463898	146.860000
265.556854	146.700000
265.649811	146.000000
265.742798	146.040000
265.835754	146.200000
265.928711	146.760000
266.021667	146.760000
266.114655	146.840000
266.207611	146.960000
266.300568	146.180000
266.393585	145.540000
266.486511	145.960000
266.579498	145.420000
266.672485	145.620000
266.765442	145.860000
266.858429	146.500000
266.951385	146.080000
267.044342	146.500000
267.137329	145.920000
267.230316	146.340000
267.323273	145.820000
267.416260	146.420000
267.509216	146.420000
267.602203	146.720000
267.695160	146.980000
267.788147	147.260000
267.881134	146.300000
267.974091	146.720000
268.067078	146.540000
268.160065	146.360000
268.253052	145.900000
268.346008	146.460000
268.438995	146.040000
268.531982	146.060000
268.624969	145.680000
268.717987	146.460000
268.810944	146.280000
268.903961	146.420000
268.996948	146.220000
269.089905	146.560000
269.182892	146.180000
269.275879	146.360000
269.368866	145.940000
269.461853	146.280000
269.554871	146.040000
269.647858	146.160000
269.740845	146.300000
269.833832	147.060000
269.926819	146.600000
270.019806	146.960000
270.112793	146.660000
270.205811	146.940000
270.298798	146.540000
270.391785	147.280000
270.484772	146.760000
270.577789	146.760000
270.670776	146.120000
270.763763	145.920000
270.856750	145.680000
270.949768	145.640000
271.042786	145.640000
271.135773	145.760000
271.228790	146.100000
271.321808	145.900000
271.414795	145.820000
271.507782	145.680000
271.600800	145.400000
271.693817	145.460000
271.786804	145.900000
271.879822	145.960000
271.972809	145.920000
272.065826	146.600000
272.158844	146.180000
272.251831	146.520000
272.344849	146.620000
272.437866	146.340000
272.530853	146.020000
272.623871	146.500000
272.716888	145.340000
272.809906	145.700000
272.902893	146.180000
272.995911	145.820000
273.088928	145.900000
273.181946	146.200000
273.274963	145.860000
273.367981	145.920000
273.460999	146.320000
273.554047	146.400000
273.647003	147.240000
273.740051	147.540000
273.833069	147.640000
273.926086	147.840000
274.019135	147.520000
274.112152	147.120000
274.205170	147.000000
274.298187	147.080000
274.391205	146.460000
274.484222	146.520000
274.577240	146.300000
274.670258	145.900000
274.763306	145.760000
274.856323	146.540000
274.949341	146.660000
275.042358	147.060000
275.135406	147.140000
275.228424	147.040000
275.321442	146.620000
275.414490	146.120000
275.507507	146.180000
275.600525	146.760000
275.693573	146.700000
275.786591	146.440000
275.879669	146.840000
275.972656	146.240000
276.065735	145.600000
276.158752	145.940000
276.251801	146.720000
276.344818	146.720000
276.437866	147.000000
276.530884	147.100000
276.623932	146.200000
276.716980	146.200000
276.809998	146.160000
276.903046	146.220000
276.996094	146.960000
277.089111	148.020000
277.182159	148.220000
277.275208	148.280000
277.368256	148.080000
277.461304	147.620000
277.554321	146.680000
277.647369	146.240000
277.740417	146.100000
277.833466	146.220000
277.926514	145.940000
278.019562	146.920000
278.112610	146.540000
278.205688	146.720000
278.298706	146.860000
278.391785	146.880000
278.484833	146.180000
278.577881	146.080000
278.670929	146.140000
278.763977	146.020000
278.857025	146.600000
278.950073	146.960000
279.043121	146.820000
279.136169	146.680000
279.229248	146.380000
279.322296	146.140000
279.415344	145.700000
279.508392	145.900000
279.601440	145.880000
279.694519	145.660000
279.787567	145.220000
279.880615	145.280000
279.973694	145.140000
280.066742	145.140000
280.159790	145.660000
280.252869	145.740000
280.345917	146.040000
280.438995	146.180000
280.532074	146.100000
280.625122	146.280000
280.718201	147.200000
280.811279	147.240000
280.904327	147.360000
280.997406	147.800000
281.090454	147.800000
281.183533	147.300000
281.276581	147.080000
281.369659	146.820000
281.462738	146.920000
281.555786	147.100000
281.648865	146.720000
281.741943	146.620000
281.835022	147.240000
281.928070	146.600000
282.021149	146.080000
282.114227	146.080000
282.207306	146.560000
282.300385	146.940000
282.393433	147.200000
282.486511	147.260000
282.579590	147.780000
282.672668	147.940000
282.765747	146.880000
282.858856	146.700000
282.951904	146.740000
283.045013	146.480000
283.138062	146.220000
283.231171	146.860000
283.324249	147.420000
283.417328	147.400000
283.510406	147.220000
283.603485	147.080000
283.696564	146.680000
283.789642	146.640000
283.882751	146.480000
283.975830	147.300000
284.068909	146.960000
284.161987	147.540000
284.255066	146.920000
284.348175	147.220000
284.441254	146.740000
284.534332	147.200000
284.627441	146.820000
284.720520	146.560000
284.813599	146.600000
284.906708	146.540000
284.999786	146.000000
285.092896	145.800000
285.185974	147.040000
285.279053	146.520000
285.372192	146.700000
285.465240	147.640000
285.558380	147.460000
285.651459	146.740000
285.744568	147.720000
285.837677	147.280000
285.930756	147.000000
286.023865	147.420000
286.116943	147.480000
286.210052	147.560000
286.303162	147.780000
286.396240	147.560000
286.489349	147.340000
286.582458	147.720000
286.675568	147.140000
286.768646	147.160000
286.861755	147.460000
286.954865	148.060000
287.047974	147.380000
287.141083	147.340000
287.234161	147.180000
287.327271	147.220000
287.420380	147.360000
287.513519	147.300000
287.606598	147.320000
287.699738	147.580000
287.792816	147.380000
287.885956	146.940000
287.979034	147.100000
288.072174	146.880000
288.165283	146.680000
288.258392	146.720000
288.351501	146.140000
288.444611	146.140000
288.537720	146.980000
288.630859	146.840000
288.723969	146.800000
288.817078	147.460000
288.910187	147.340000
289.003296	146.620000
289.096436	146.740000
289.189545	146.500000
289.282654	145.860000
289.375763	146.520000
289.468903	146.920000
289.562012	146.940000
289.655121	146.840000
289.748260	147.200000
289.841400	147.500000
289.934509	147.100000
290.027649	146.960000
290.120728	147.220000
290.213898	147.180000
290.306976	146.380000
290.400146	146.680000
290.493256	146.460000
290.586395	146.400000
290.679535	146.880000
290.772644	146.860000
290.865784	146.020000
290.958893	146.160000
291.052032	145.900000
291.145172	145.320000
291.238281	145.240000
291.331421	145.640000
291.424561	146.000000
291.517670	145.840000
291.610809	146.300000
291.703949	146.180000
291.797089	146.660000
291.890228	146.620000
291.983337	146.980000
292.076477	146.420000
292.169617	146.780000
292.262756	146.620000
292.355927	146.480000
292.449036	146.260000
292.542206	146.540000
292.635315	146.680000
292.728485	146.860000
292.821625	146.500000
292.914764	147.520000
293.007904	147.860000
293.101044	147.600000
293.194183	147.400000
293.287323	147.560000
293.380463	146.880000
293.473602	146.520000
293.566742	146.700000
293.659882	147.260000
293.753021	147.760000
293.846191	147.540000
293.939331	147.260000
294.032471	147.000000
294.125610	146.340000
294.218781	146.360000
294.311920	147.100000
294.405060	147.320000
294.498230	147.460000
294.591370	147.600000
294.684540	147.280000
294.777679	146.480000
294.870850	146.780000
294.963959	146.580000
295.057159	146.200000
295.150299	146.360000
295.243469	146.620000
295.336609	146.020000
295.429779	146.360000
295.522919	147.220000
295.616089	147.100000
295.709229	147.440000
295.802399	147.880000
295.895569	147.220000
295.988708	146.840000
296.081879	147.040000
296.175018	146.500000
296.268188	146.420000
296.361359	147.260000
296.454529	147.100000
296.547668	146.820000
296.640839	147.560000
296.734009	147.320000
296.827179	146.920000
296.920319	147.000000
297.013519	146.660000
297.106659	146.160000
297.199860	146.260000
297.292999	146.160000
297.386200	145.980000
297.479309	146.100000
297.572510	146.300000
297.665680	145.880000
297.758850	146.080000
297.852020	145.900000
297.945190	145.820000
298.038361	145.020000
298.131531	146.380000
298.224701	146.400000
298.317871	146.300000
298.411072	145.780000
298.504242	146.020000
298.597412	145.320000
298.690582	145.320000
298.783752	145.260000
298.876923	146.400000
298.970093	146.400000
299.063293	146.580000
299.156464	146.860000
299.249634	147.320000
299.342834	147.160000
299.436005	147.900000
299.529205	147.460000
299.622345	147.440000
299.715576	147.080000
299.808716	146.760000
299.901917	146.520000
299.995117	147.200000
300.088287	146.860000
300.181488	146.880000
300.274658	146.760000
300.367828	146.680000
300.461029	146.240000
300.554199	146.780000
300.647400	146.820000
300.740601	147.560000
300.833771	147.540000
300.926971	147.580000
301.020142	146.860000
301.113342	146.880000
301.206512	146.360000
301.299713	146.620000
301.392914	146.760000
301.486084	147.160000
301.579285	147.060000
301.672516	147.960000
301.765686	147.580000
301.858887	147.440000
301.952057	147.460000
302.045288	147.620000
302.138458	146.860000
302.231659	146.520000
302.324860	146.140000
302.418060	145.840000
302.511261	145.700000
302.604462	146.080000
302.697662	146.400000
302.790863	146.840000
302.884064	146.640000
302.977264	146.820000
303.070465	146.800000
303.163666	147.080000
303.256866	147.160000
303.350067	147.380000
303.443268	147.380000
303.536469	147.300000
303.629669	146.780000
303.722870	146.760000
303.816071	146.640000
303.909271	146.740000
304.002472	145.940000
304.095673	146.240000
304.188934	145.780000
304.282104	146.720000
304.375336	146.480000
304.468506	146.760000
304.561768	146.460000
304.654968	147.020000
304.748169	146.380000
304.841370	145.980000
304.934601	146.100000
305.027802	146.060000
305.121002	145.640000
305.214233	145.720000
305.307434	146.380000
305.400665	147.220000
305.493866	146.980000
