Model Number: SPM-002-B   
Serial Number: 70087108
Firmware Version: 004.15.4
Exposure Time: 100000.000000us
Data Taken on: 11-12-2020 18:51:03.479
Wavelength	Amplitude
221.570786	0.000000
221.663406	0.000000
221.756027	0.000000
221.848648	0.000000
221.941269	0.000000
222.033905	0.000000
222.126526	0.000000
222.219162	0.000000
222.311798	0.000000
222.404419	0.000000
222.497055	0.000000
222.589676	0.000000
222.682312	0.000000
222.774933	0.000000
222.867569	0.000000
222.960205	0.000000
223.052841	0.000000
223.145462	0.000000
223.238098	0.000000
223.330734	0.000000
223.423386	0.000000
223.516022	0.000000
223.608658	0.000000
223.701309	0.000000
223.793945	0.000000
223.886581	0.000000
223.979218	0.000000
224.071869	0.000000
224.164505	0.000000
224.257156	0.000000
224.349792	0.000000
224.442444	0.000000
224.535095	0.000000
224.627747	0.000000
224.720398	0.000000
224.813034	0.000000
224.905685	0.000000
224.998337	144.680000
225.090988	144.620000
225.183640	144.680000
225.276291	144.520000
225.368942	144.920000
225.461594	145.320000
225.554245	145.500000
225.646912	145.660000
225.739578	145.980000
225.832230	146.400000
225.924896	145.380000
226.017548	145.800000
226.110199	146.000000
226.202866	145.220000
226.295532	144.900000
226.388184	145.200000
226.480850	144.680000
226.573517	144.060000
226.666168	144.700000
226.758835	145.040000
226.851501	145.720000
226.944183	145.980000
227.036850	145.720000
227.129517	145.640000
227.222183	145.580000
227.314850	145.280000
227.407516	145.420000
227.500198	146.160000
227.592865	145.880000
227.685532	145.440000
227.778214	145.060000
227.870880	145.400000
227.963562	145.700000
228.056229	146.160000
228.148926	146.420000
228.241592	147.220000
228.334274	146.540000
228.426956	146.060000
228.519638	145.860000
228.612305	145.600000
228.704987	145.300000
228.797668	145.320000
228.890350	145.300000
228.983032	144.640000
229.075714	145.220000
229.168396	144.840000
229.261108	144.660000
229.353790	144.620000
229.446472	145.120000
229.539169	144.880000
229.631851	144.600000
229.724533	144.800000
229.817230	145.100000
229.909912	146.240000
230.002609	146.180000
230.095306	146.580000
230.187988	146.520000
230.280685	146.440000
230.373383	145.420000
230.466095	145.480000
230.558792	145.980000
230.651474	146.380000
230.744171	146.100000
230.836868	146.040000
230.929581	146.020000
231.022278	145.640000
231.114975	145.380000
231.207672	145.140000
231.300369	145.260000
231.393082	145.520000
231.485779	145.300000
231.578506	145.240000
231.671204	145.780000
231.763916	145.660000
231.856613	145.200000
231.949326	145.520000
232.042023	145.320000
232.134735	144.920000
232.227448	144.640000
232.320160	144.700000
232.412872	144.640000
232.505585	145.660000
232.598297	145.920000
232.691010	145.860000
232.783722	145.960000
232.876450	146.380000
232.969162	145.540000
233.061874	145.360000
233.154587	145.200000
233.247314	145.180000
233.340027	144.580000
233.432739	144.900000
233.525467	144.580000
233.618179	145.000000
233.710907	144.480000
233.803635	145.020000
233.896347	144.840000
233.989090	145.840000
234.081818	145.880000
234.174545	146.360000
234.267258	145.680000
234.359985	145.960000
234.452713	145.560000
234.545441	145.400000
234.638168	145.320000
234.730896	145.760000
234.823639	145.280000
234.916367	145.780000
235.009094	145.740000
235.101822	145.860000
235.194580	145.640000
235.287308	145.840000
235.380051	144.800000
235.472778	145.280000
235.565521	145.280000
235.658249	144.680000
235.750992	144.640000
235.843719	145.000000
235.936462	144.980000
236.029205	144.760000
236.121948	145.020000
236.214691	145.360000
236.307449	145.760000
236.400192	145.200000
236.492935	145.140000
236.585678	145.360000
236.678421	145.300000
236.771164	145.300000
236.863907	145.900000
236.956665	146.100000
237.049408	147.660000
237.142151	147.140000
237.234909	147.560000
237.327652	147.440000
237.420410	147.340000
237.513153	146.360000
237.605927	146.440000
237.698669	145.680000
237.791428	145.100000
237.884186	145.640000
237.976944	145.020000
238.069702	145.540000
238.162445	145.000000
238.255203	145.320000
238.347961	145.260000
238.440720	145.600000
238.533478	145.400000
238.626266	145.480000
238.719025	145.700000
238.811783	145.560000
238.904541	144.840000
238.997314	144.700000
239.090073	144.760000
239.182831	144.880000
239.275604	145.480000
239.368362	145.500000
239.461136	145.500000
239.553909	145.500000
239.646667	145.200000
239.739441	144.680000
239.832214	145.260000
239.925003	145.520000
240.017761	146.420000
240.110535	146.860000
240.203308	146.580000
240.296082	146.940000
240.388855	146.660000
240.481628	146.360000
240.574417	146.720000
240.667191	146.780000
240.759964	146.300000
240.852737	146.300000
240.945526	145.960000
241.038315	145.120000
241.131088	145.020000
241.223877	145.040000
241.316650	144.660000
241.409439	145.000000
241.502228	144.920000
241.595001	145.460000
241.687790	145.420000
241.780579	145.520000
241.873367	145.460000
241.966141	145.900000
242.058929	145.240000
242.151718	145.380000
242.244507	145.960000
242.337311	145.260000
242.430099	145.380000
242.522903	146.000000
242.615692	145.660000
242.708481	145.560000
242.801270	146.380000
242.894073	146.360000
242.986862	146.260000
243.079651	147.040000
243.172455	146.740000
243.265244	146.800000
243.358063	146.220000
243.450867	146.280000
243.543655	145.900000
243.636459	145.940000
243.729263	145.800000
243.822067	146.300000
243.914856	146.560000
244.007660	146.580000
244.100464	146.700000
244.193268	146.240000
244.286072	145.780000
244.378876	145.240000
244.471680	144.840000
244.564499	145.140000
244.657318	145.920000
244.750122	146.560000
244.842926	146.140000
244.935745	146.620000
245.028549	146.060000
245.121368	145.460000
245.214172	145.040000
245.306992	145.540000
245.399796	145.160000
245.492615	145.720000
245.585434	145.840000
245.678253	145.900000
245.771072	145.640000
245.863892	145.920000
245.956711	145.700000
246.049530	145.540000
246.142349	145.160000
246.235168	145.220000
246.327988	145.660000
246.420807	145.420000
246.513626	145.340000
246.606445	145.400000
246.699280	145.600000
246.792099	145.240000
246.884918	145.260000
246.977753	145.100000
247.070587	145.160000
247.163422	144.920000
247.256241	144.860000
247.349075	145.040000
247.441895	145.180000
247.534729	145.180000
247.627563	145.180000
247.720383	145.720000
247.813217	145.700000
247.906052	145.920000
247.998886	145.980000
248.091736	146.060000
248.184570	145.500000
248.277405	145.500000
248.370239	146.140000
248.463074	147.200000
248.555908	147.260000
248.648743	147.120000
248.741592	147.080000
248.834427	146.380000
248.927261	145.000000
249.020111	145.140000
249.112946	145.800000
249.205795	145.440000
249.298630	145.380000
249.391495	145.640000
249.484344	145.280000
249.577179	144.900000
249.670029	145.420000
249.762878	145.900000
249.855728	146.000000
249.948563	146.140000
250.041412	145.620000
250.134262	145.520000
250.227112	145.620000
250.319962	145.620000
250.412827	145.640000
250.505692	145.460000
250.598541	145.440000
250.691391	144.860000
250.784241	144.920000
250.877106	145.060000
250.969955	145.180000
251.062805	145.520000
251.155670	146.380000
251.248520	145.980000
251.341385	146.120000
251.434235	145.980000
251.527100	145.680000
251.619965	144.840000
251.712814	145.720000
251.805695	145.520000
251.898560	145.880000
251.991425	146.000000
252.084290	146.220000
252.177155	145.400000
252.270020	145.120000
252.362885	144.760000
252.455750	144.760000
252.548615	144.420000
252.641479	144.560000
252.734360	144.560000
252.827240	144.580000
252.920105	144.280000
253.012970	144.540000
253.105850	144.660000
253.198715	144.440000
253.291595	144.860000
253.384460	144.720000
253.477341	144.360000
253.570221	144.720000
253.663086	145.100000
253.755966	145.620000
253.848846	145.720000
253.941727	145.960000
254.034592	145.860000
254.127472	145.120000
254.220367	144.760000
254.313248	145.060000
254.406128	144.820000
254.499008	145.140000
254.591904	146.400000
254.684784	146.940000
254.777664	146.740000
254.870544	146.840000
254.963440	146.420000
255.056335	146.140000
255.149216	145.580000
255.242111	146.000000
255.334991	146.380000
255.427887	146.440000
255.520767	146.420000
255.613663	146.460000
255.706558	145.780000
255.799438	145.420000
255.892334	145.240000
255.985229	145.100000
256.078125	145.040000
256.171021	145.600000
256.263916	146.100000
256.356812	146.160000
256.449707	146.260000
256.542603	146.140000
256.635498	146.560000
256.728394	146.480000
256.821289	146.400000
256.914215	146.640000
257.007080	146.920000
257.100006	146.480000
257.192932	146.600000
257.285828	146.740000
257.378723	146.280000
257.471619	146.080000
257.564545	145.860000
257.657440	145.600000
257.750336	146.320000
257.843262	146.080000
257.936157	146.900000
258.029053	146.800000
258.121979	146.800000
258.214874	145.900000
258.307800	145.480000
258.400696	144.540000
258.493622	144.640000
258.586517	144.300000
258.679443	144.900000
258.772339	145.160000
258.865265	145.180000
258.958160	144.880000
259.051086	145.580000
259.144012	145.200000
259.236938	146.040000
259.329834	146.100000
259.422791	146.140000
259.515717	145.520000
259.608612	144.940000
259.701538	144.820000
259.794464	144.820000
259.887390	144.940000
259.980316	144.940000
260.073212	145.660000
260.166138	144.760000
260.259064	145.160000
260.351990	145.620000
260.444916	145.640000
260.537842	145.500000
260.630768	146.500000
260.723694	146.100000
260.816620	145.720000
260.909546	145.920000
261.002472	145.780000
261.095398	145.120000
261.188354	145.460000
261.281281	145.420000
261.374207	145.440000
261.467133	145.920000
261.560089	146.300000
261.653015	145.680000
261.745972	146.200000
261.838867	146.460000
261.931824	146.500000
262.024780	146.100000
262.117706	146.600000
262.210663	146.400000
262.303589	146.160000
262.396515	146.100000
262.489471	146.920000
262.582397	146.540000
262.675354	146.260000
262.768280	146.320000
262.861237	146.300000
262.954163	145.820000
263.047119	146.120000
263.140045	146.000000
263.233002	145.980000
263.325958	145.540000
263.418884	145.180000
263.511841	145.260000
263.604797	145.480000
263.697723	145.440000
263.790680	145.680000
263.883636	146.220000
263.976593	145.820000
264.069550	145.880000
264.162476	145.320000
264.255463	145.280000
264.348419	144.920000
264.441376	145.500000
264.534332	145.240000
264.627289	145.920000
264.720245	146.360000
264.813202	146.000000
264.906158	145.720000
264.999115	146.080000
265.092072	145.940000
265.185028	146.020000
265.277985	146.420000
265.370941	146.280000
265.463898	146.080000
265.556854	145.900000
265.649811	144.880000
265.742798	145.120000
265.835754	145.300000
265.928711	145.780000
266.021667	145.720000
266.114655	146.260000
266.207611	146.140000
266.300568	145.600000
266.393585	144.960000
266.486511	145.620000
266.579498	144.760000
266.672485	144.520000
266.765442	144.580000
266.858429	145.200000
266.951385	144.340000
267.044342	144.560000
267.137329	144.660000
267.230316	145.120000
267.323273	144.380000
267.416260	145.180000
267.509216	145.500000
267.602203	145.640000
267.695160	145.860000
267.788147	145.860000
267.881134	145.280000
267.974091	145.120000
268.067078	145.000000
268.160065	144.740000
268.253052	144.820000
268.346008	145.020000
268.438995	145.120000
268.531982	145.120000
268.624969	144.780000
268.717987	145.220000
268.810944	145.000000
268.903961	145.140000
268.996948	144.920000
269.089905	145.560000
269.182892	145.660000
269.275879	146.040000
269.368866	145.460000
269.461853	145.660000
269.554871	145.300000
269.647858	145.000000
269.740845	145.200000
269.833832	146.120000
269.926819	145.820000
270.019806	145.780000
270.112793	145.480000
270.205811	145.340000
270.298798	145.080000
270.391785	146.140000
270.484772	145.900000
270.577789	146.120000
270.670776	145.800000
270.763763	145.620000
270.856750	144.920000
270.949768	145.040000
271.042786	145.020000
271.135773	145.140000
271.228790	145.440000
271.321808	145.240000
271.414795	145.060000
271.507782	144.760000
271.600800	144.360000
271.693817	144.400000
271.786804	145.040000
271.879822	145.360000
271.972809	145.580000
272.065826	146.260000
272.158844	145.660000
272.251831	145.980000
272.344849	145.940000
272.437866	145.900000
272.530853	145.720000
272.623871	146.340000
272.716888	145.160000
272.809906	145.240000
272.902893	145.060000
272.995911	144.760000
273.088928	144.620000
273.181946	144.820000
273.274963	144.680000
273.367981	144.800000
273.460999	145.040000
273.554047	145.440000
273.647003	146.340000
273.740051	146.260000
273.833069	146.740000
273.926086	146.860000
274.019135	146.260000
274.112152	145.600000
274.205170	145.560000
274.298187	145.580000
274.391205	145.160000
274.484222	145.420000
274.577240	145.560000
274.670258	146.020000
274.763306	145.440000
274.856323	145.980000
274.949341	145.980000
275.042358	146.220000
275.135406	145.600000
275.228424	145.820000
275.321442	145.560000
275.414490	144.960000
275.507507	145.320000
275.600525	145.880000
275.693573	145.740000
275.786591	145.220000
275.879669	145.720000
275.972656	145.140000
276.065735	145.120000
276.158752	145.660000
276.251801	146.700000
276.344818	146.980000
276.437866	147.200000
276.530884	146.980000
276.623932	146.220000
276.716980	146.200000
276.809998	145.840000
276.903046	145.660000
276.996094	146.240000
277.089111	147.080000
277.182159	147.280000
277.275208	147.040000
277.368256	147.120000
277.461304	146.780000
277.554321	145.940000
277.647369	145.600000
277.740417	145.820000
277.833466	145.640000
277.926514	145.400000
278.019562	146.400000
278.112610	146.020000
278.205688	146.380000
278.298706	146.400000
278.391785	146.520000
278.484833	145.700000
278.577881	145.540000
278.670929	145.700000
278.763977	145.820000
278.857025	146.180000
278.950073	146.300000
279.043121	146.140000
279.136169	145.720000
279.229248	145.600000
279.322296	145.380000
279.415344	145.140000
279.508392	145.180000
279.601440	145.180000
279.694519	145.200000
279.787567	144.880000
279.880615	144.900000
279.973694	144.840000
280.066742	145.160000
280.159790	145.380000
280.252869	145.160000
280.345917	145.180000
280.438995	145.260000
280.532074	144.740000
280.625122	144.920000
280.718201	145.980000
280.811279	146.180000
280.904327	146.280000
280.997406	146.700000
281.090454	146.500000
281.183533	145.940000
281.276581	146.180000
281.369659	145.920000
281.462738	146.060000
281.555786	145.940000
281.648865	146.060000
281.741943	145.900000
281.835022	146.520000
281.928070	146.000000
282.021149	145.800000
282.114227	145.520000
282.207306	145.260000
282.300385	145.360000
282.393433	145.580000
282.486511	145.860000
282.579590	146.220000
282.672668	146.680000
282.765747	146.200000
282.858856	146.280000
282.951904	146.380000
283.045013	146.720000
283.138062	146.600000
283.231171	146.920000
283.324249	147.100000
283.417328	146.880000
283.510406	146.060000
283.603485	145.940000
283.696564	145.860000
283.789642	145.920000
283.882751	145.880000
283.975830	146.700000
284.068909	146.680000
284.161987	147.220000
284.255066	146.600000
284.348175	146.600000
284.441254	146.200000
284.534332	146.760000
284.627441	146.160000
284.720520	145.860000
284.813599	145.840000
284.906708	145.880000
284.999786	144.940000
285.092896	144.820000
285.185974	146.280000
285.279053	145.780000
285.372192	145.660000
285.465240	146.480000
285.558380	146.300000
285.651459	145.600000
285.744568	146.860000
285.837677	146.320000
285.930756	146.220000
286.023865	146.420000
286.116943	145.800000
286.210052	145.280000
286.303162	145.600000
286.396240	145.280000
286.489349	145.060000
286.582458	145.600000
286.675568	145.380000
286.768646	145.500000
286.861755	145.740000
286.954865	146.540000
287.047974	146.000000
287.141083	145.960000
287.234161	145.680000
287.327271	145.600000
287.420380	145.660000
287.513519	145.720000
287.606598	145.940000
287.699738	146.340000
287.792816	146.340000
287.885956	146.200000
287.979034	146.400000
288.072174	146.300000
288.165283	146.160000
288.258392	146.200000
288.351501	145.340000
288.444611	145.720000
288.537720	146.020000
288.630859	146.000000
288.723969	146.020000
288.817078	146.640000
288.910187	146.360000
289.003296	145.920000
289.096436	145.720000
289.189545	145.540000
289.282654	144.980000
289.375763	145.360000
289.468903	145.480000
289.562012	145.720000
289.655121	145.760000
289.748260	146.160000
289.841400	146.240000
289.934509	146.340000
290.027649	146.460000
290.120728	146.480000
290.213898	146.460000
290.306976	146.220000
290.400146	146.380000
290.493256	145.920000
290.586395	146.040000
290.679535	146.320000
290.772644	146.100000
290.865784	145.360000
290.958893	145.260000
291.052032	144.800000
291.145172	144.440000
291.238281	144.440000
291.331421	144.520000
291.424561	145.300000
291.517670	145.480000
291.610809	145.900000
291.703949	145.700000
291.797089	146.120000
291.890228	145.480000
291.983337	145.480000
292.076477	145.260000
292.169617	145.480000
292.262756	145.680000
292.355927	145.540000
292.449036	145.480000
292.542206	145.380000
292.635315	145.480000
292.728485	145.320000
292.821625	145.040000
292.914764	146.180000
293.007904	146.320000
293.101044	146.240000
293.194183	146.240000
293.287323	146.700000
293.380463	145.800000
293.473602	145.500000
293.566742	145.740000
293.659882	146.100000
293.753021	146.380000
293.846191	146.260000
293.939331	145.800000
294.032471	145.660000
294.125610	145.300000
294.218781	145.500000
294.311920	145.980000
294.405060	146.780000
294.498230	146.660000
294.591370	146.660000
294.684540	146.120000
294.777679	145.480000
294.870850	145.700000
294.963959	145.520000
295.057159	145.540000
295.150299	145.960000
295.243469	146.240000
295.336609	145.340000
295.429779	145.640000
295.522919	145.800000
295.616089	145.700000
295.709229	146.220000
295.802399	146.700000
295.895569	146.300000
295.988708	145.740000
296.081879	145.660000
296.175018	144.860000
296.268188	144.520000
296.361359	145.060000
296.454529	145.440000
296.547668	145.340000
296.640839	145.760000
296.734009	145.620000
296.827179	145.560000
296.920319	145.640000
297.013519	145.340000
297.106659	145.320000
297.199860	145.800000
297.292999	145.620000
297.386200	145.200000
297.479309	145.400000
297.572510	145.300000
297.665680	145.300000
297.758850	145.420000
297.852020	145.740000
297.945190	145.440000
298.038361	145.020000
298.131531	145.640000
298.224701	145.360000
298.317871	145.080000
298.411072	144.940000
298.504242	145.080000
298.597412	144.220000
298.690582	144.400000
298.783752	144.500000
298.876923	145.240000
298.970093	145.340000
299.063293	145.580000
299.156464	145.640000
299.249634	145.840000
299.342834	145.900000
299.436005	146.300000
299.529205	146.160000
299.622345	146.300000
299.715576	145.820000
299.808716	145.500000
299.901917	145.220000
299.995117	145.580000
300.088287	145.620000
300.181488	145.560000
300.274658	145.420000
300.367828	145.600000
300.461029	145.140000
300.554199	145.240000
300.647400	145.340000
300.740601	145.940000
300.833771	145.460000
300.926971	146.060000
301.020142	145.520000
301.113342	145.680000
301.206512	145.240000
301.299713	145.600000
301.392914	145.260000
301.486084	145.600000
301.579285	145.520000
301.672516	146.120000
301.765686	145.900000
301.858887	145.680000
301.952057	145.920000
302.045288	145.780000
302.138458	145.320000
302.231659	145.260000
302.324860	145.380000
302.418060	144.820000
302.511261	145.000000
302.604462	145.000000
302.697662	145.220000
302.790863	145.380000
302.884064	145.320000
302.977264	145.460000
303.070465	145.540000
303.163666	145.940000
303.256866	145.840000
303.350067	145.960000
303.443268	145.860000
303.536469	146.100000
303.629669	145.580000
303.722870	145.740000
303.816071	145.380000
303.909271	145.460000
304.002472	144.740000
304.095673	144.720000
304.188934	144.180000
304.282104	145.460000
304.375336	145.440000
304.468506	145.800000
304.561768	145.500000
304.654968	146.100000
304.748169	145.460000
304.841370	145.200000
304.934601	145.560000
305.027802	145.300000
305.121002	145.140000
305.214233	145.180000
305.307434	145.560000
305.400665	145.960000
305.493866	146.160000
