Model Number: SPM-002-B   
Serial Number: 70087108
Firmware Version: 004.15.4
Exposure Time: 100000.000000us
Data Taken on: 11-12-2020 18:51:09.603
Wavelength	Amplitude
221.570786	0.000000
221.663406	0.000000
221.756027	0.000000
221.848648	0.000000
221.941269	0.000000
222.033905	0.000000
222.126526	0.000000
222.219162	0.000000
222.311798	0.000000
222.404419	0.000000
222.497055	0.000000
222.589676	0.000000
222.682312	0.000000
222.774933	0.000000
222.867569	0.000000
222.960205	0.000000
223.052841	0.000000
223.145462	0.000000
223.238098	0.000000
223.330734	0.000000
223.423386	0.000000
223.516022	0.000000
223.608658	0.000000
223.701309	0.000000
223.793945	0.000000
223.886581	0.000000
223.979218	0.000000
224.071869	0.000000
224.164505	0.000000
224.257156	0.000000
224.349792	0.000000
224.442444	0.000000
224.535095	0.000000
224.627747	0.000000
224.720398	0.000000
224.813034	0.000000
224.905685	0.000000
224.998337	145.460000
225.090988	145.340000
225.183640	145.180000
225.276291	145.040000
225.368942	145.700000
225.461594	146.180000
225.554245	146.580000
225.646912	146.820000
225.739578	147.200000
225.832230	147.420000
225.924896	146.560000
226.017548	146.760000
226.110199	147.080000
226.202866	146.680000
226.295532	146.340000
226.388184	146.600000
226.480850	146.160000
226.573517	145.540000
226.666168	145.840000
226.758835	146.460000
226.851501	146.760000
226.944183	146.980000
227.036850	147.080000
227.129517	146.720000
227.222183	146.360000
227.314850	146.600000
227.407516	146.740000
227.500198	147.340000
227.592865	147.120000
227.685532	146.460000
227.778214	145.680000
227.870880	146.140000
227.963562	146.460000
228.056229	147.120000
228.148926	147.420000
228.241592	148.540000
228.334274	147.960000
228.426956	147.280000
228.519638	147.240000
228.612305	147.000000
228.704987	146.720000
228.797668	146.520000
228.890350	146.660000
228.983032	145.740000
229.075714	146.280000
229.168396	145.740000
229.261108	145.560000
229.353790	145.320000
229.446472	145.880000
229.539169	145.760000
229.631851	145.580000
229.724533	145.460000
229.817230	145.680000
229.909912	146.760000
230.002609	146.740000
230.095306	146.820000
230.187988	147.320000
230.280685	147.240000
230.373383	145.840000
230.466095	145.520000
230.558792	145.840000
230.651474	145.520000
230.744171	145.260000
230.836868	145.220000
230.929581	145.660000
231.022278	145.500000
231.114975	145.740000
231.207672	145.680000
231.300369	146.080000
231.393082	146.140000
231.485779	145.840000
231.578506	145.740000
231.671204	145.980000
231.763916	146.200000
231.856613	146.200000
231.949326	146.580000
232.042023	146.740000
232.134735	146.480000
232.227448	146.000000
232.320160	146.140000
232.412872	145.900000
232.505585	146.360000
232.598297	146.820000
232.691010	146.760000
232.783722	146.220000
232.876450	146.880000
232.969162	146.200000
233.061874	146.000000
233.154587	146.140000
233.247314	146.400000
233.340027	145.820000
233.432739	146.500000
233.525467	146.040000
233.618179	146.180000
233.710907	146.180000
233.803635	146.620000
233.896347	146.020000
233.989090	147.120000
234.081818	147.160000
234.174545	147.180000
234.267258	146.600000
234.359985	147.000000
234.452713	146.700000
234.545441	146.240000
234.638168	146.080000
234.730896	146.720000
234.823639	146.340000
234.916367	146.520000
235.009094	146.840000
235.101822	146.840000
235.194580	146.560000
235.287308	146.620000
235.380051	146.000000
235.472778	146.280000
235.565521	146.760000
235.658249	146.380000
235.750992	146.440000
235.843719	146.480000
235.936462	146.560000
236.029205	145.800000
236.121948	145.400000
236.214691	145.820000
236.307449	146.360000
236.400192	145.760000
236.492935	145.740000
236.585678	146.420000
236.678421	146.220000
236.771164	145.740000
236.863907	146.320000
236.956665	146.820000
237.049408	148.140000
237.142151	147.500000
237.234909	148.180000
237.327652	148.240000
237.420410	147.780000
237.513153	146.840000
237.605927	146.780000
237.698669	146.060000
237.791428	145.360000
237.884186	146.000000
237.976944	145.200000
238.069702	145.820000
238.162445	145.460000
238.255203	145.800000
238.347961	146.020000
238.440720	146.320000
238.533478	146.060000
238.626266	145.960000
238.719025	146.340000
238.811783	145.800000
238.904541	145.600000
238.997314	145.660000
239.090073	145.800000
239.182831	145.640000
239.275604	146.520000
239.368362	146.500000
239.461136	146.460000
239.553909	146.900000
239.646667	146.720000
239.739441	145.860000
239.832214	146.080000
239.925003	146.400000
240.017761	146.720000
240.110535	147.120000
240.203308	146.820000
240.296082	147.340000
240.388855	146.940000
240.481628	146.660000
240.574417	146.520000
240.667191	146.800000
240.759964	146.140000
240.852737	146.240000
240.945526	145.980000
241.038315	145.720000
241.131088	145.780000
241.223877	146.220000
241.316650	145.940000
241.409439	146.160000
241.502228	145.880000
241.595001	146.120000
241.687790	145.920000
241.780579	146.100000
241.873367	146.320000
241.966141	146.700000
242.058929	146.160000
242.151718	146.140000
242.244507	146.840000
242.337311	146.000000
242.430099	146.140000
242.522903	146.460000
242.615692	146.220000
242.708481	145.480000
242.801270	146.260000
242.894073	146.200000
242.986862	146.180000
243.079651	147.120000
243.172455	147.240000
243.265244	147.100000
243.358063	146.760000
243.450867	147.200000
243.543655	146.660000
243.636459	146.820000
243.729263	147.060000
243.822067	147.200000
243.914856	147.000000
244.007660	146.980000
244.100464	146.940000
244.193268	146.100000
244.286072	145.980000
244.378876	145.520000
244.471680	145.240000
244.564499	145.600000
244.657318	146.800000
244.750122	147.180000
244.842926	146.940000
244.935745	147.380000
245.028549	146.660000
245.121368	146.060000
245.214172	145.920000
245.306992	146.640000
245.399796	146.140000
245.492615	146.580000
245.585434	146.460000
245.678253	146.380000
245.771072	146.060000
245.863892	146.560000
245.956711	146.600000
246.049530	146.360000
246.142349	146.160000
246.235168	146.240000
246.327988	146.620000
246.420807	146.200000
246.513626	146.480000
246.606445	146.300000
246.699280	146.320000
246.792099	145.780000
246.884918	145.560000
246.977753	145.180000
247.070587	145.720000
247.163422	145.540000
247.256241	145.360000
247.349075	145.720000
247.441895	145.760000
247.534729	145.540000
247.627563	145.520000
247.720383	146.040000
247.813217	146.080000
247.906052	145.980000
247.998886	146.040000
248.091736	145.840000
248.184570	145.440000
248.277405	145.460000
248.370239	146.580000
248.463074	147.360000
248.555908	147.820000
248.648743	147.900000
248.741592	147.780000
248.834427	147.140000
248.927261	145.860000
249.020111	146.280000
249.112946	146.560000
249.205795	146.380000
249.298630	146.360000
249.391495	146.800000
249.484344	146.200000
249.577179	146.120000
249.670029	146.420000
249.762878	146.880000
249.855728	147.000000
249.948563	147.000000
250.041412	146.260000
250.134262	146.420000
250.227112	146.180000
250.319962	146.040000
250.412827	146.020000
250.505692	146.340000
250.598541	146.280000
250.691391	146.040000
250.784241	146.080000
250.877106	146.420000
250.969955	145.960000
251.062805	146.420000
251.155670	146.700000
251.248520	146.620000
251.341385	146.520000
251.434235	146.620000
251.527100	146.180000
251.619965	145.820000
251.712814	146.780000
251.805695	146.640000
251.898560	147.200000
251.991425	147.320000
252.084290	147.700000
252.177155	146.440000
252.270020	146.200000
252.362885	146.220000
252.455750	146.240000
252.548615	145.640000
252.641479	145.820000
252.734360	145.680000
252.827240	145.340000
252.920105	145.240000
253.012970	145.120000
253.105850	145.220000
253.198715	145.540000
253.291595	145.680000
253.384460	145.400000
253.477341	145.720000
253.570221	145.960000
253.663086	145.700000
253.755966	146.320000
253.848846	146.440000
253.941727	146.660000
254.034592	146.340000
254.127472	145.880000
254.220367	145.580000
254.313248	145.840000
254.406128	145.160000
254.499008	145.640000
254.591904	146.600000
254.684784	146.980000
254.777664	146.600000
254.870544	146.540000
254.963440	146.100000
255.056335	145.940000
255.149216	145.400000
255.242111	146.000000
255.334991	146.560000
255.427887	146.940000
255.520767	146.980000
255.613663	147.300000
255.706558	146.360000
255.799438	146.160000
255.892334	145.820000
255.985229	145.500000
256.078125	145.120000
256.171021	145.400000
256.263916	145.960000
256.356812	146.180000
256.449707	146.320000
256.542603	146.260000
256.635498	146.600000
256.728394	146.360000
256.821289	145.940000
256.914215	146.440000
257.007080	146.720000
257.100006	146.700000
257.192932	146.840000
257.285828	147.300000
257.378723	146.560000
257.471619	146.080000
257.564545	145.920000
257.657440	145.880000
257.750336	146.200000
257.843262	146.560000
257.936157	147.800000
258.029053	147.880000
258.121979	147.840000
258.214874	147.380000
258.307800	147.000000
258.400696	146.040000
258.493622	146.140000
258.586517	145.520000
258.679443	146.040000
258.772339	145.720000
258.865265	145.580000
258.958160	145.100000
259.051086	146.120000
259.144012	145.540000
259.236938	146.640000
259.329834	146.620000
259.422791	146.700000
259.515717	145.800000
259.608612	145.560000
259.701538	145.480000
259.794464	145.360000
259.887390	145.460000
259.980316	145.460000
260.073212	145.440000
260.166138	144.360000
260.259064	144.880000
260.351990	145.280000
260.444916	145.420000
260.537842	146.000000
260.630768	146.840000
260.723694	146.600000
260.816620	146.520000
260.909546	146.360000
261.002472	145.780000
261.095398	145.160000
261.188354	145.180000
261.281281	144.840000
261.374207	145.040000
261.467133	145.640000
261.560089	146.180000
261.653015	146.020000
261.745972	146.300000
261.838867	146.680000
261.931824	146.780000
262.024780	146.280000
262.117706	146.620000
262.210663	146.760000
262.303589	146.320000
262.396515	146.040000
262.489471	146.880000
262.582397	146.460000
262.675354	146.060000
262.768280	146.320000
262.861237	146.340000
262.954163	146.280000
263.047119	146.540000
263.140045	146.380000
263.233002	146.320000
263.325958	146.360000
263.418884	145.700000
263.511841	145.640000
263.604797	145.760000
263.697723	145.700000
263.790680	145.460000
263.883636	145.880000
263.976593	145.860000
264.069550	146.240000
264.162476	145.880000
264.255463	146.040000
264.348419	145.520000
264.441376	145.760000
264.534332	145.280000
264.627289	145.780000
264.720245	146.180000
264.813202	146.220000
264.906158	146.280000
264.999115	146.900000
265.092072	146.880000
265.185028	147.040000
265.277985	147.460000
265.370941	147.060000
265.463898	146.820000
265.556854	146.740000
265.649811	145.700000
265.742798	145.640000
265.835754	145.900000
265.928711	146.240000
266.021667	145.940000
266.114655	146.400000
266.207611	146.500000
266.300568	145.660000
266.393585	145.140000
266.486511	145.580000
266.579498	145.260000
266.672485	145.140000
266.765442	145.620000
266.858429	146.140000
266.951385	145.920000
267.044342	146.160000
267.137329	146.160000
267.230316	146.620000
267.323273	145.960000
267.416260	146.580000
267.509216	146.180000
267.602203	146.360000
267.695160	146.360000
267.788147	146.560000
267.881134	145.560000
267.974091	146.000000
268.067078	145.640000
268.160065	145.520000
268.253052	145.540000
268.346008	145.880000
268.438995	145.660000
268.531982	145.800000
268.624969	145.400000
268.717987	145.640000
268.810944	145.720000
268.903961	146.020000
268.996948	145.780000
269.089905	146.140000
269.182892	145.800000
269.275879	146.120000
269.368866	145.460000
269.461853	145.800000
269.554871	145.480000
269.647858	145.960000
269.740845	146.160000
269.833832	146.620000
269.926819	146.420000
270.019806	146.840000
270.112793	146.320000
270.205811	146.180000
270.298798	146.240000
270.391785	146.600000
270.484772	146.340000
270.577789	146.680000
270.670776	146.360000
270.763763	146.140000
270.856750	145.880000
270.949768	145.500000
271.042786	145.500000
271.135773	145.560000
271.228790	145.960000
271.321808	145.580000
271.414795	145.700000
271.507782	145.320000
271.600800	145.080000
271.693817	144.980000
271.786804	145.720000
271.879822	145.940000
271.972809	145.860000
272.065826	146.160000
272.158844	145.900000
272.251831	146.320000
272.344849	146.560000
272.437866	146.440000
272.530853	146.200000
272.623871	146.500000
272.716888	145.280000
272.809906	145.120000
272.902893	145.300000
272.995911	145.180000
273.088928	145.200000
273.181946	145.600000
273.274963	145.520000
273.367981	145.540000
273.460999	145.800000
273.554047	146.040000
273.647003	146.600000
273.740051	146.640000
273.833069	147.040000
273.926086	147.040000
274.019135	146.600000
274.112152	146.080000
274.205170	145.780000
274.298187	145.840000
274.391205	145.620000
274.484222	145.540000
274.577240	145.840000
274.670258	146.080000
274.763306	145.900000
274.856323	146.360000
274.949341	146.600000
275.042358	146.580000
275.135406	146.500000
275.228424	146.400000
275.321442	146.180000
275.414490	145.620000
275.507507	145.920000
275.600525	146.440000
275.693573	146.120000
275.786591	145.480000
275.879669	146.100000
275.972656	145.460000
276.065735	145.140000
276.158752	145.840000
276.251801	146.940000
276.344818	147.020000
276.437866	147.300000
276.530884	147.300000
276.623932	146.580000
276.716980	146.580000
276.809998	146.660000
276.903046	146.900000
276.996094	147.340000
277.089111	148.160000
277.182159	148.240000
277.275208	147.700000
277.368256	147.380000
277.461304	146.880000
277.554321	145.960000
277.647369	145.600000
277.740417	145.620000
277.833466	145.340000
277.926514	145.460000
278.019562	146.280000
278.112610	145.740000
278.205688	145.880000
278.298706	146.200000
278.391785	145.980000
278.484833	145.260000
278.577881	145.400000
278.670929	145.780000
278.763977	145.800000
278.857025	146.400000
278.950073	146.440000
279.043121	146.500000
279.136169	146.420000
279.229248	146.260000
279.322296	146.080000
279.415344	145.940000
279.508392	145.840000
279.601440	145.540000
279.694519	145.600000
279.787567	145.080000
279.880615	145.240000
279.973694	145.220000
280.066742	145.400000
280.159790	145.400000
280.252869	145.380000
280.345917	145.420000
280.438995	145.520000
280.532074	145.200000
280.625122	145.480000
280.718201	146.460000
280.811279	146.680000
280.904327	146.740000
280.997406	147.120000
281.090454	147.020000
281.183533	146.220000
281.276581	146.060000
281.369659	145.840000
281.462738	145.740000
281.555786	145.700000
281.648865	146.000000
281.741943	145.700000
281.835022	146.280000
281.928070	146.020000
282.021149	145.640000
282.114227	145.300000
282.207306	145.480000
282.300385	145.500000
282.393433	145.580000
282.486511	145.680000
282.579590	146.140000
282.672668	146.500000
282.765747	145.740000
282.858856	145.680000
282.951904	145.940000
283.045013	145.780000
283.138062	145.900000
283.231171	146.560000
283.324249	146.860000
283.417328	146.900000
283.510406	146.660000
283.603485	146.620000
283.696564	146.360000
283.789642	146.540000
283.882751	146.160000
283.975830	146.860000
284.068909	146.460000
284.161987	146.820000
284.255066	145.860000
284.348175	146.360000
284.441254	145.920000
284.534332	146.260000
284.627441	145.760000
284.720520	145.920000
284.813599	145.740000
284.906708	145.680000
284.999786	145.260000
285.092896	145.260000
285.185974	146.680000
285.279053	146.240000
285.372192	146.260000
285.465240	146.960000
285.558380	146.780000
285.651459	146.200000
285.744568	147.220000
285.837677	146.920000
285.930756	146.300000
286.023865	146.700000
286.116943	146.380000
286.210052	146.200000
286.303162	146.300000
286.396240	146.560000
286.489349	146.420000
286.582458	146.500000
286.675568	146.160000
286.768646	146.080000
286.861755	146.400000
286.954865	147.200000
287.047974	146.680000
287.141083	146.460000
287.234161	146.620000
287.327271	146.020000
287.420380	146.060000
287.513519	146.320000
287.606598	146.480000
287.699738	146.740000
287.792816	147.020000
287.885956	146.560000
287.979034	146.380000
288.072174	146.380000
288.165283	146.020000
288.258392	146.160000
288.351501	145.520000
288.444611	145.820000
288.537720	146.060000
288.630859	146.180000
288.723969	146.120000
288.817078	146.800000
288.910187	146.940000
289.003296	146.440000
289.096436	145.900000
289.189545	145.480000
289.282654	145.020000
289.375763	145.200000
289.468903	145.780000
289.562012	146.220000
289.655121	146.560000
289.748260	146.760000
289.841400	146.840000
289.934509	146.540000
290.027649	146.880000
290.120728	146.720000
290.213898	146.580000
290.306976	146.420000
290.400146	146.300000
290.493256	145.940000
290.586395	146.080000
290.679535	146.460000
290.772644	145.920000
290.865784	145.480000
290.958893	145.060000
291.052032	144.760000
291.145172	144.400000
291.238281	144.440000
291.331421	144.580000
291.424561	145.520000
291.517670	145.240000
291.610809	145.480000
291.703949	145.440000
291.797089	145.640000
291.890228	145.040000
291.983337	145.340000
292.076477	144.900000
292.169617	145.240000
292.262756	145.020000
292.355927	144.780000
292.449036	144.840000
292.542206	145.220000
292.635315	145.180000
292.728485	145.680000
292.821625	145.740000
292.914764	146.620000
293.007904	146.800000
293.101044	146.840000
293.194183	146.820000
293.287323	146.920000
293.380463	146.080000
293.473602	145.660000
293.566742	146.040000
293.659882	146.400000
293.753021	146.780000
293.846191	147.040000
293.939331	146.700000
294.032471	146.100000
294.125610	145.820000
294.218781	146.020000
294.311920	146.120000
294.405060	146.380000
294.498230	146.600000
294.591370	146.500000
294.684540	145.600000
294.777679	145.200000
294.870850	145.800000
294.963959	145.580000
295.057159	145.400000
295.150299	146.080000
295.243469	146.160000
295.336609	145.580000
295.429779	145.820000
295.522919	146.020000
295.616089	145.960000
295.709229	146.580000
295.802399	146.560000
295.895569	146.420000
295.988708	146.220000
296.081879	146.440000
296.175018	145.780000
296.268188	145.740000
296.361359	146.040000
296.454529	146.360000
296.547668	145.860000
296.640839	146.120000
296.734009	146.080000
296.827179	146.300000
296.920319	146.200000
297.013519	146.180000
297.106659	146.360000
297.199860	146.440000
297.292999	146.180000
297.386200	146.060000
297.479309	145.860000
297.572510	145.560000
297.665680	145.480000
297.758850	145.200000
297.852020	145.160000
297.945190	145.340000
298.038361	145.240000
298.131531	146.140000
298.224701	146.220000
298.317871	145.720000
298.411072	145.520000
298.504242	145.360000
298.597412	144.560000
298.690582	144.860000
298.783752	145.280000
298.876923	145.820000
298.970093	146.160000
299.063293	146.620000
299.156464	146.740000
299.249634	146.960000
299.342834	146.980000
299.436005	147.400000
299.529205	147.320000
299.622345	147.100000
299.715576	146.520000
299.808716	146.360000
299.901917	145.780000
299.995117	145.780000
300.088287	145.740000
300.181488	145.800000
300.274658	145.600000
300.367828	145.940000
300.461029	145.960000
300.554199	146.220000
300.647400	146.680000
300.740601	147.240000
300.833771	147.080000
300.926971	147.260000
301.020142	146.800000
301.113342	146.580000
301.206512	146.360000
301.299713	146.500000
301.392914	146.460000
301.486084	147.080000
301.579285	147.080000
301.672516	147.320000
301.765686	147.120000
301.858887	147.040000
301.952057	146.740000
302.045288	146.800000
302.138458	146.340000
302.231659	146.020000
302.324860	145.540000
302.418060	145.100000
302.511261	144.880000
302.604462	145.160000
302.697662	145.120000
302.790863	144.980000
302.884064	144.960000
302.977264	145.320000
303.070465	145.620000
303.163666	146.440000
303.256866	147.100000
303.350067	147.300000
303.443268	147.160000
303.536469	146.800000
303.629669	146.440000
303.722870	146.620000
303.816071	146.520000
303.909271	146.580000
304.002472	146.080000
304.095673	145.600000
304.188934	144.780000
304.282104	145.780000
304.375336	145.660000
304.468506	146.040000
304.561768	146.440000
304.654968	147.040000
304.748169	146.180000
304.841370	146.040000
304.934601	146.200000
305.027802	145.720000
305.121002	145.600000
305.214233	145.580000
305.307434	145.700000
305.400665	145.880000
305.493866	145.700000
