Model Number: SPM-002-B   
Serial Number: 70087108
Firmware Version: 004.15.4
Exposure Time: 100000.000000us
Data Taken on: 11-12-2020 18:51:20.016
Wavelength	Amplitude
221.570786	0.000000
221.663406	0.000000
221.756027	0.000000
221.848648	0.000000
221.941269	0.000000
222.033905	0.000000
222.126526	0.000000
222.219162	0.000000
222.311798	0.000000
222.404419	0.000000
222.497055	0.000000
222.589676	0.000000
222.682312	0.000000
222.774933	0.000000
222.867569	0.000000
222.960205	0.000000
223.052841	0.000000
223.145462	0.000000
223.238098	0.000000
223.330734	0.000000
223.423386	0.000000
223.516022	0.000000
223.608658	0.000000
223.701309	0.000000
223.793945	0.000000
223.886581	0.000000
223.979218	0.000000
224.071869	0.000000
224.164505	0.000000
224.257156	0.000000
224.349792	0.000000
224.442444	0.000000
224.535095	0.000000
224.627747	0.000000
224.720398	0.000000
224.813034	0.000000
224.905685	0.000000
224.998337	144.760000
225.090988	144.640000
225.183640	144.640000
225.276291	144.480000
225.368942	144.620000
225.461594	145.340000
225.554245	145.560000
225.646912	145.740000
225.739578	145.980000
225.832230	146.400000
225.924896	145.580000
226.017548	146.000000
226.110199	146.460000
226.202866	146.180000
226.295532	145.860000
226.388184	145.760000
226.480850	145.140000
226.573517	144.640000
226.666168	144.920000
226.758835	145.500000
226.851501	146.140000
226.944183	146.200000
227.036850	145.740000
227.129517	145.600000
227.222183	145.560000
227.314850	145.520000
227.407516	145.900000
227.500198	146.920000
227.592865	146.680000
227.685532	146.200000
227.778214	146.000000
227.870880	146.200000
227.963562	146.380000
228.056229	147.100000
228.148926	147.100000
228.241592	147.980000
228.334274	147.380000
228.426956	146.940000
228.519638	146.560000
228.612305	146.320000
228.704987	145.880000
228.797668	146.260000
228.890350	146.000000
228.983032	145.740000
229.075714	146.480000
229.168396	146.100000
229.261108	145.760000
229.353790	146.040000
229.446472	146.140000
229.539169	145.900000
229.631851	145.760000
229.724533	145.660000
229.817230	145.960000
229.909912	146.940000
230.002609	146.760000
230.095306	146.980000
230.187988	147.560000
230.280685	146.940000
230.373383	145.800000
230.466095	145.640000
230.558792	145.880000
230.651474	145.460000
230.744171	145.820000
230.836868	145.600000
230.929581	145.920000
231.022278	145.820000
231.114975	146.020000
231.207672	145.780000
231.300369	146.560000
231.393082	146.660000
231.485779	146.480000
231.578506	146.500000
231.671204	146.520000
231.763916	146.180000
231.856613	146.060000
231.949326	146.400000
232.042023	145.880000
232.134735	145.660000
232.227448	145.480000
232.320160	145.560000
232.412872	145.240000
232.505585	146.280000
232.598297	147.000000
232.691010	147.020000
232.783722	146.880000
232.876450	147.580000
232.969162	147.180000
233.061874	146.480000
233.154587	146.100000
233.247314	146.240000
233.340027	145.620000
233.432739	145.760000
233.525467	145.740000
233.618179	146.240000
233.710907	145.860000
233.803635	146.320000
233.896347	145.900000
233.989090	146.680000
234.081818	147.000000
234.174545	147.220000
234.267258	146.500000
234.359985	146.720000
234.452713	146.300000
234.545441	145.820000
234.638168	145.820000
234.730896	146.040000
234.823639	146.080000
234.916367	146.240000
235.009094	146.400000
235.101822	146.420000
235.194580	146.380000
235.287308	146.140000
235.380051	145.800000
235.472778	146.320000
235.565521	146.440000
235.658249	146.120000
235.750992	146.300000
235.843719	146.340000
235.936462	146.160000
236.029205	145.920000
236.121948	145.960000
236.214691	146.200000
236.307449	146.900000
236.400192	146.440000
236.492935	146.060000
236.585678	146.380000
236.678421	146.080000
236.771164	145.840000
236.863907	146.400000
236.956665	147.020000
237.049408	148.340000
237.142151	147.940000
237.234909	148.180000
237.327652	148.000000
237.420410	147.520000
237.513153	146.640000
237.605927	146.720000
237.698669	146.280000
237.791428	145.860000
237.884186	146.620000
237.976944	146.220000
238.069702	146.680000
238.162445	146.300000
238.255203	146.200000
238.347961	146.180000
238.440720	146.080000
238.533478	145.780000
238.626266	145.500000
238.719025	146.100000
238.811783	145.820000
238.904541	145.600000
238.997314	145.460000
239.090073	145.460000
239.182831	145.440000
239.275604	145.920000
239.368362	145.900000
239.461136	146.160000
239.553909	146.260000
239.646667	145.900000
239.739441	145.360000
239.832214	145.560000
239.925003	145.640000
240.017761	146.320000
240.110535	146.960000
240.203308	147.000000
240.296082	147.280000
240.388855	147.340000
240.481628	147.080000
240.574417	146.880000
240.667191	147.200000
240.759964	146.780000
240.852737	146.480000
240.945526	146.220000
241.038315	145.940000
241.131088	145.640000
241.223877	145.880000
241.316650	145.640000
241.409439	146.300000
241.502228	146.000000
241.595001	146.460000
241.687790	146.220000
241.780579	146.140000
241.873367	145.900000
241.966141	146.200000
242.058929	145.620000
242.151718	145.820000
242.244507	146.420000
242.337311	145.760000
242.430099	146.220000
242.522903	146.420000
242.615692	146.100000
242.708481	145.960000
242.801270	146.480000
242.894073	146.380000
242.986862	146.560000
243.079651	147.040000
243.172455	146.800000
243.265244	146.880000
243.358063	146.100000
243.450867	146.160000
243.543655	146.120000
243.636459	146.500000
243.729263	146.840000
243.822067	147.440000
243.914856	147.540000
244.007660	147.740000
244.100464	147.540000
244.193268	146.820000
244.286072	146.380000
244.378876	145.760000
244.471680	145.280000
244.564499	145.900000
244.657318	146.780000
244.750122	147.140000
244.842926	146.820000
244.935745	147.180000
245.028549	146.580000
245.121368	145.960000
245.214172	145.900000
245.306992	146.640000
245.399796	146.320000
245.492615	146.140000
245.585434	145.800000
245.678253	145.720000
245.771072	145.340000
245.863892	145.720000
245.956711	146.420000
246.049530	146.340000
246.142349	145.980000
246.235168	146.220000
246.327988	146.380000
246.420807	145.840000
246.513626	146.160000
246.606445	146.020000
246.699280	146.080000
246.792099	145.800000
246.884918	145.820000
246.977753	145.680000
247.070587	146.360000
247.163422	146.460000
247.256241	146.480000
247.349075	146.540000
247.441895	146.580000
247.534729	146.280000
247.627563	145.920000
247.720383	146.520000
247.813217	146.460000
247.906052	146.340000
247.998886	146.460000
248.091736	146.500000
248.184570	145.980000
248.277405	145.760000
248.370239	146.640000
248.463074	147.380000
248.555908	147.620000
248.648743	147.460000
248.741592	147.780000
248.834427	147.060000
248.927261	145.980000
249.020111	146.320000
249.112946	146.920000
249.205795	146.540000
249.298630	146.560000
249.391495	146.920000
249.484344	146.460000
249.577179	146.240000
249.670029	146.820000
249.762878	147.500000
249.855728	147.680000
249.948563	147.580000
250.041412	146.780000
250.134262	146.620000
250.227112	146.360000
250.319962	146.300000
250.412827	146.580000
250.505692	146.580000
250.598541	146.520000
250.691391	146.060000
250.784241	145.940000
250.877106	145.580000
250.969955	145.660000
251.062805	145.900000
251.155670	146.580000
251.248520	146.340000
251.341385	146.740000
251.434235	146.720000
251.527100	146.420000
251.619965	145.700000
251.712814	146.600000
251.805695	146.460000
251.898560	146.700000
251.991425	147.080000
252.084290	147.660000
252.177155	146.520000
252.270020	146.300000
252.362885	146.500000
252.455750	146.140000
252.548615	145.520000
252.641479	145.840000
252.734360	145.680000
252.827240	145.120000
252.920105	145.320000
253.012970	145.320000
253.105850	145.280000
253.198715	145.260000
253.291595	145.760000
253.384460	145.240000
253.477341	145.380000
253.570221	145.840000
253.663086	145.540000
253.755966	146.240000
253.848846	146.500000
253.941727	146.860000
254.034592	146.480000
254.127472	146.500000
254.220367	145.960000
254.313248	146.120000
254.406128	145.720000
254.499008	146.080000
254.591904	146.860000
254.684784	147.140000
254.777664	147.180000
254.870544	146.840000
254.963440	146.500000
255.056335	146.440000
255.149216	146.080000
255.242111	146.540000
255.334991	146.840000
255.427887	147.140000
255.520767	147.000000
255.613663	147.100000
255.706558	146.560000
255.799438	146.540000
255.892334	146.200000
255.985229	145.980000
256.078125	145.840000
256.171021	145.680000
256.263916	146.040000
256.356812	146.240000
256.449707	146.420000
256.542603	146.060000
256.635498	146.660000
256.728394	146.600000
256.821289	146.300000
256.914215	146.720000
257.007080	147.100000
257.100006	147.020000
257.192932	147.220000
257.285828	147.700000
257.378723	147.320000
257.471619	147.160000
257.564545	146.860000
257.657440	146.800000
257.750336	147.040000
257.843262	146.780000
257.936157	147.740000
258.029053	147.980000
258.121979	147.800000
258.214874	147.220000
258.307800	147.200000
258.400696	146.000000
258.493622	145.840000
258.586517	145.040000
258.679443	145.360000
258.772339	145.100000
258.865265	145.360000
258.958160	144.820000
259.051086	146.160000
259.144012	145.920000
259.236938	146.900000
259.329834	146.980000
259.422791	147.100000
259.515717	146.140000
259.608612	145.920000
259.701538	145.760000
259.794464	145.440000
259.887390	145.620000
259.980316	145.700000
260.073212	145.360000
260.166138	144.420000
260.259064	144.740000
260.351990	145.300000
260.444916	145.320000
260.537842	146.080000
260.630768	147.020000
260.723694	147.220000
260.816620	146.800000
260.909546	146.740000
261.002472	146.120000
261.095398	145.380000
261.188354	145.180000
261.281281	144.880000
261.374207	145.100000
261.467133	146.120000
261.560089	146.580000
261.653015	146.340000
261.745972	146.960000
261.838867	147.380000
261.931824	147.080000
262.024780	146.580000
262.117706	146.880000
262.210663	146.780000
262.303589	146.400000
262.396515	146.340000
262.489471	147.280000
262.582397	147.100000
262.675354	146.620000
262.768280	146.700000
262.861237	146.560000
262.954163	146.340000
263.047119	146.480000
263.140045	146.460000
263.233002	146.580000
263.325958	146.500000
263.418884	145.920000
263.511841	146.040000
263.604797	145.820000
263.697723	145.740000
263.790680	145.700000
263.883636	146.380000
263.976593	145.980000
264.069550	146.680000
264.162476	146.280000
264.255463	146.420000
264.348419	146.020000
264.441376	146.560000
264.534332	145.880000
264.627289	146.200000
264.720245	146.700000
264.813202	146.300000
264.906158	146.360000
264.999115	147.000000
265.092072	146.780000
265.185028	146.860000
265.277985	147.060000
265.370941	146.560000
265.463898	146.100000
265.556854	146.260000
265.649811	145.220000
265.742798	145.380000
265.835754	145.360000
265.928711	145.960000
266.021667	145.880000
266.114655	146.220000
266.207611	146.580000
266.300568	146.180000
266.393585	145.820000
266.486511	146.200000
266.579498	145.660000
266.672485	145.360000
266.765442	145.560000
266.858429	145.740000
266.951385	145.280000
267.044342	145.360000
267.137329	145.300000
267.230316	145.860000
267.323273	145.580000
267.416260	146.300000
267.509216	146.600000
267.602203	146.420000
267.695160	146.480000
267.788147	146.500000
267.881134	145.620000
267.974091	146.100000
268.067078	146.120000
268.160065	145.840000
268.253052	145.720000
268.346008	145.840000
268.438995	145.180000
268.531982	145.320000
268.624969	144.900000
268.717987	145.240000
268.810944	145.440000
268.903961	145.800000
268.996948	145.380000
269.089905	146.220000
269.182892	146.300000
269.275879	146.280000
269.368866	145.760000
269.461853	146.180000
269.554871	145.820000
269.647858	145.840000
269.740845	146.280000
269.833832	146.700000
269.926819	146.400000
270.019806	146.460000
270.112793	145.880000
270.205811	145.840000
270.298798	145.860000
270.391785	146.660000
270.484772	146.460000
270.577789	146.560000
270.670776	146.180000
270.763763	146.160000
270.856750	145.720000
270.949768	145.440000
271.042786	145.660000
271.135773	145.600000
271.228790	145.560000
271.321808	145.260000
271.414795	145.320000
271.507782	144.940000
271.600800	144.540000
271.693817	144.700000
271.786804	144.780000
271.879822	144.880000
271.972809	144.780000
272.065826	145.500000
272.158844	145.140000
272.251831	145.820000
272.344849	145.780000
272.437866	145.680000
272.530853	145.680000
272.623871	146.100000
272.716888	145.200000
272.809906	145.420000
272.902893	145.760000
272.995911	145.140000
273.088928	144.820000
273.181946	145.380000
273.274963	145.040000
273.367981	144.900000
273.460999	145.220000
273.554047	145.740000
273.647003	146.060000
273.740051	146.280000
273.833069	146.820000
273.926086	147.240000
274.019135	146.900000
274.112152	146.580000
274.205170	146.740000
274.298187	146.940000
274.391205	146.160000
274.484222	146.360000
274.577240	146.260000
274.670258	146.460000
274.763306	146.160000
274.856323	146.860000
274.949341	146.780000
275.042358	147.220000
275.135406	146.780000
275.228424	146.720000
275.321442	146.540000
275.414490	146.260000
275.507507	146.200000
275.600525	146.400000
275.693573	145.960000
275.786591	145.460000
275.879669	145.740000
275.972656	145.060000
276.065735	144.980000
276.158752	145.960000
276.251801	146.880000
276.344818	146.620000
276.437866	146.960000
276.530884	146.760000
276.623932	145.840000
276.716980	145.660000
276.809998	145.860000
276.903046	146.060000
276.996094	146.800000
277.089111	147.480000
277.182159	147.920000
277.275208	148.020000
277.368256	147.860000
277.461304	147.320000
277.554321	146.360000
277.647369	145.680000
277.740417	145.380000
277.833466	144.820000
277.926514	144.840000
278.019562	145.880000
278.112610	145.520000
278.205688	145.780000
278.298706	146.320000
278.391785	145.980000
278.484833	145.260000
278.577881	145.420000
278.670929	145.380000
278.763977	145.280000
278.857025	146.020000
278.950073	145.940000
279.043121	145.840000
279.136169	146.000000
279.229248	145.620000
279.322296	145.300000
279.415344	145.460000
279.508392	145.280000
279.601440	145.220000
279.694519	145.420000
279.787567	145.300000
279.880615	144.940000
279.973694	145.160000
280.066742	145.320000
280.159790	145.420000
280.252869	145.200000
280.345917	145.760000
280.438995	145.740000
280.532074	145.400000
280.625122	145.900000
280.718201	146.860000
280.811279	146.700000
280.904327	146.620000
280.997406	146.920000
281.090454	146.940000
281.183533	145.880000
281.276581	145.900000
281.369659	145.900000
281.462738	145.680000
281.555786	145.460000
281.648865	146.040000
281.741943	146.120000
281.835022	146.460000
281.928070	146.420000
282.021149	146.100000
282.114227	146.220000
282.207306	145.960000
282.300385	146.100000
282.393433	146.140000
282.486511	146.520000
282.579590	146.360000
282.672668	146.660000
282.765747	146.260000
282.858856	145.740000
282.951904	145.580000
283.045013	146.160000
283.138062	146.320000
283.231171	146.760000
283.324249	147.360000
283.417328	147.680000
283.510406	146.920000
283.603485	147.000000
283.696564	146.640000
283.789642	146.580000
283.882751	146.280000
283.975830	146.900000
284.068909	146.200000
284.161987	146.720000
284.255066	146.520000
284.348175	146.420000
284.441254	146.120000
284.534332	146.500000
284.627441	146.200000
284.720520	145.880000
284.813599	146.060000
284.906708	145.920000
284.999786	145.660000
285.092896	145.420000
285.185974	146.700000
285.279053	146.240000
285.372192	146.480000
285.465240	147.340000
285.558380	147.440000
285.651459	146.480000
285.744568	147.220000
285.837677	146.520000
285.930756	146.200000
286.023865	146.180000
286.116943	146.040000
286.210052	145.960000
286.303162	146.160000
286.396240	146.160000
286.489349	146.020000
286.582458	146.480000
286.675568	146.300000
286.768646	146.360000
286.861755	146.520000
286.954865	147.240000
287.047974	146.580000
287.141083	146.420000
287.234161	146.340000
287.327271	145.920000
287.420380	145.640000
287.513519	145.860000
287.606598	145.920000
287.699738	146.040000
287.792816	146.100000
287.885956	146.100000
287.979034	146.320000
288.072174	146.480000
288.165283	146.500000
288.258392	146.540000
288.351501	145.920000
288.444611	146.040000
288.537720	146.140000
288.630859	145.940000
288.723969	146.500000
288.817078	146.720000
288.910187	146.720000
289.003296	146.440000
289.096436	146.120000
289.189545	145.560000
289.282654	145.300000
289.375763	145.340000
289.468903	145.720000
289.562012	146.560000
289.655121	146.460000
289.748260	146.860000
289.841400	147.360000
289.934509	147.180000
290.027649	147.060000
290.120728	146.980000
290.213898	146.900000
290.306976	146.460000
290.400146	146.500000
290.493256	146.020000
290.586395	146.300000
290.679535	146.900000
290.772644	146.600000
290.865784	145.720000
290.958893	145.780000
291.052032	145.540000
291.145172	145.340000
291.238281	145.180000
291.331421	145.680000
291.424561	146.320000
291.517670	146.100000
291.610809	146.160000
291.703949	146.040000
291.797089	146.060000
291.890228	145.560000
291.983337	145.640000
292.076477	144.900000
292.169617	145.500000
292.262756	145.480000
292.355927	145.200000
292.449036	145.060000
292.542206	145.640000
292.635315	145.480000
292.728485	145.740000
292.821625	145.780000
292.914764	147.060000
293.007904	146.740000
293.101044	146.620000
293.194183	146.260000
293.287323	146.480000
293.380463	145.420000
293.473602	145.340000
293.566742	145.600000
293.659882	146.220000
293.753021	146.360000
293.846191	146.460000
293.939331	146.380000
294.032471	146.040000
294.125610	145.420000
294.218781	145.940000
294.311920	146.300000
294.405060	146.240000
294.498230	146.240000
294.591370	146.580000
294.684540	145.820000
294.777679	145.400000
294.870850	146.380000
294.963959	146.260000
295.057159	146.160000
295.150299	146.600000
295.243469	146.340000
295.336609	145.260000
295.429779	145.280000
295.522919	145.440000
295.616089	145.400000
295.709229	146.040000
295.802399	146.320000
295.895569	146.360000
295.988708	146.440000
296.081879	146.300000
296.175018	146.000000
296.268188	146.280000
296.361359	146.560000
296.454529	146.340000
296.547668	146.300000
296.640839	146.480000
296.734009	145.940000
296.827179	146.220000
296.920319	146.560000
297.013519	146.380000
297.106659	146.360000
297.199860	146.680000
297.292999	146.420000
297.386200	145.780000
297.479309	145.820000
297.572510	145.580000
297.665680	145.320000
297.758850	145.340000
297.852020	145.300000
297.945190	145.040000
298.038361	144.820000
298.131531	145.720000
298.224701	145.480000
298.317871	145.240000
298.411072	144.780000
298.504242	144.920000
298.597412	144.180000
298.690582	144.300000
298.783752	144.720000
298.876923	145.600000
298.970093	145.740000
299.063293	146.400000
299.156464	146.720000
299.249634	146.980000
299.342834	147.120000
299.436005	147.340000
299.529205	146.700000
299.622345	146.660000
299.715576	146.060000
299.808716	145.740000
299.901917	145.840000
299.995117	146.300000
300.088287	146.360000
300.181488	146.480000
300.274658	146.200000
300.367828	145.820000
300.461029	145.660000
300.554199	145.840000
300.647400	145.860000
300.740601	146.480000
300.833771	146.400000
300.926971	146.500000
301.020142	146.000000
301.113342	145.900000
301.206512	145.760000
301.299713	146.280000
301.392914	146.180000
301.486084	146.440000
301.579285	146.640000
301.672516	147.240000
301.765686	146.940000
301.858887	146.780000
301.952057	146.580000
302.045288	146.720000
302.138458	146.180000
302.231659	146.180000
302.324860	146.280000
302.418060	145.940000
302.511261	145.900000
302.604462	146.080000
302.697662	145.740000
302.790863	145.440000
302.884064	145.360000
302.977264	145.420000
303.070465	145.420000
303.163666	146.260000
303.256866	146.860000
303.350067	147.240000
303.443268	146.940000
303.536469	147.000000
303.629669	146.280000
303.722870	146.060000
303.816071	145.700000
303.909271	146.020000
304.002472	145.220000
304.095673	145.080000
304.188934	144.160000
304.282104	145.040000
304.375336	145.060000
304.468506	145.240000
304.561768	145.180000
304.654968	145.940000
304.748169	145.480000
304.841370	145.080000
304.934601	145.440000
305.027802	145.380000
305.121002	145.340000
305.214233	145.300000
305.307434	145.520000
305.400665	146.060000
305.493866	146.080000
