Model Number: SPM-002-B   
Serial Number: 70087108
Firmware Version: 004.15.4
Exposure Time: 100000.000000us
Data Taken on: 11-12-2020 18:51:37.869
Wavelength	Amplitude
221.570786	0.000000
221.663406	0.000000
221.756027	0.000000
221.848648	0.000000
221.941269	0.000000
222.033905	0.000000
222.126526	0.000000
222.219162	0.000000
222.311798	0.000000
222.404419	0.000000
222.497055	0.000000
222.589676	0.000000
222.682312	0.000000
222.774933	0.000000
222.867569	0.000000
222.960205	0.000000
223.052841	0.000000
223.145462	0.000000
223.238098	0.000000
223.330734	0.000000
223.423386	0.000000
223.516022	0.000000
223.608658	0.000000
223.701309	0.000000
223.793945	0.000000
223.886581	0.000000
223.979218	0.000000
224.071869	0.000000
224.164505	0.000000
224.257156	0.000000
224.349792	0.000000
224.442444	0.000000
224.535095	0.000000
224.627747	0.000000
224.720398	0.000000
224.813034	0.000000
224.905685	0.000000
224.998337	144.860000
225.090988	144.420000
225.183640	144.280000
225.276291	144.020000
225.368942	144.840000
225.461594	145.600000
225.554245	145.940000
225.646912	145.960000
225.739578	146.760000
225.832230	146.940000
225.924896	146.080000
226.017548	146.340000
226.110199	146.660000
226.202866	146.000000
226.295532	145.540000
226.388184	145.620000
226.480850	145.400000
226.573517	145.060000
226.666168	145.300000
226.758835	145.760000
226.851501	146.180000
226.944183	146.200000
227.036850	145.960000
227.129517	145.760000
227.222183	145.560000
227.314850	145.700000
227.407516	145.860000
227.500198	146.500000
227.592865	146.180000
227.685532	145.960000
227.778214	145.660000
227.870880	146.180000
227.963562	146.480000
228.056229	147.200000
228.148926	147.120000
228.241592	147.660000
228.334274	147.160000
228.426956	146.600000
228.519638	146.340000
228.612305	146.060000
228.704987	146.100000
228.797668	146.140000
228.890350	145.900000
228.983032	145.260000
229.075714	145.880000
229.168396	145.360000
229.261108	144.860000
229.353790	145.080000
229.446472	145.620000
229.539169	145.280000
229.631851	144.800000
229.724533	145.260000
229.817230	145.540000
229.909912	146.540000
230.002609	146.520000
230.095306	146.980000
230.187988	146.680000
230.280685	146.260000
230.373383	144.960000
230.466095	145.040000
230.558792	145.160000
230.651474	145.160000
230.744171	145.060000
230.836868	144.860000
230.929581	144.820000
231.022278	144.840000
231.114975	145.120000
231.207672	145.140000
231.300369	145.760000
231.393082	146.180000
231.485779	145.780000
231.578506	145.360000
231.671204	145.420000
231.763916	145.420000
231.856613	145.240000
231.949326	145.580000
232.042023	145.680000
232.134735	145.600000
232.227448	145.060000
232.320160	145.040000
232.412872	144.780000
232.505585	145.540000
232.598297	146.140000
232.691010	146.200000
232.783722	145.980000
232.876450	146.820000
232.969162	146.440000
233.061874	145.900000
233.154587	145.880000
233.247314	146.220000
233.340027	145.340000
233.432739	145.580000
233.525467	145.520000
233.618179	145.900000
233.710907	145.600000
233.803635	146.200000
233.896347	145.960000
233.989090	146.600000
234.081818	146.540000
234.174545	147.020000
234.267258	146.280000
234.359985	146.500000
234.452713	146.060000
234.545441	145.940000
234.638168	145.400000
234.730896	146.020000
234.823639	145.800000
234.916367	146.320000
235.009094	146.460000
235.101822	146.640000
235.194580	146.640000
235.287308	146.600000
235.380051	145.840000
235.472778	146.120000
235.565521	146.160000
235.658249	145.680000
235.750992	145.440000
235.843719	145.460000
235.936462	145.500000
236.029205	145.220000
236.121948	145.240000
236.214691	145.960000
236.307449	146.560000
236.400192	146.180000
236.492935	146.340000
236.585678	146.520000
236.678421	146.060000
236.771164	145.640000
236.863907	145.920000
236.956665	146.180000
237.049408	147.760000
237.142151	147.280000
237.234909	148.240000
237.327652	148.360000
237.420410	147.920000
237.513153	146.740000
237.605927	147.040000
237.698669	146.220000
237.791428	145.660000
237.884186	146.260000
237.976944	145.760000
238.069702	146.080000
238.162445	145.640000
238.255203	145.620000
238.347961	145.620000
238.440720	145.740000
238.533478	145.320000
238.626266	145.400000
238.719025	145.920000
238.811783	145.640000
238.904541	145.360000
238.997314	145.080000
239.090073	145.100000
239.182831	145.140000
239.275604	145.940000
239.368362	145.760000
239.461136	146.000000
239.553909	145.980000
239.646667	145.720000
239.739441	145.120000
239.832214	145.640000
239.925003	146.060000
240.017761	146.720000
240.110535	147.120000
240.203308	146.820000
240.296082	146.780000
240.388855	146.460000
240.481628	146.380000
240.574417	146.360000
240.667191	146.600000
240.759964	146.160000
240.852737	146.700000
240.945526	146.260000
241.038315	146.080000
241.131088	145.900000
241.223877	146.700000
241.316650	146.120000
241.409439	146.160000
241.502228	145.620000
241.595001	146.020000
241.687790	145.580000
241.780579	145.640000
241.873367	145.940000
241.966141	146.400000
242.058929	145.660000
242.151718	145.980000
242.244507	146.420000
242.337311	145.680000
242.430099	145.980000
242.522903	146.560000
242.615692	145.780000
242.708481	145.580000
242.801270	146.320000
242.894073	146.020000
242.986862	146.000000
243.079651	147.080000
243.172455	146.920000
243.265244	146.880000
243.358063	146.280000
243.450867	146.480000
243.543655	146.180000
243.636459	146.520000
243.729263	146.540000
243.822067	147.040000
243.914856	146.960000
244.007660	146.700000
244.100464	146.260000
244.193268	146.120000
244.286072	146.200000
244.378876	145.820000
244.471680	145.680000
244.564499	145.840000
244.657318	146.280000
244.750122	146.340000
244.842926	145.720000
244.935745	146.340000
245.028549	146.220000
245.121368	145.720000
245.214172	145.640000
245.306992	146.700000
245.399796	146.160000
245.492615	146.400000
245.585434	146.360000
245.678253	146.220000
245.771072	145.780000
245.863892	146.080000
245.956711	145.840000
246.049530	145.660000
246.142349	145.380000
246.235168	145.660000
246.327988	146.140000
246.420807	146.220000
246.513626	146.480000
246.606445	146.800000
246.699280	146.680000
246.792099	146.460000
246.884918	146.120000
246.977753	145.900000
247.070587	145.840000
247.163422	145.640000
247.256241	145.480000
247.349075	145.900000
247.441895	146.160000
247.534729	146.280000
247.627563	146.320000
247.720383	146.420000
247.813217	146.180000
247.906052	146.100000
247.998886	145.860000
248.091736	146.020000
248.184570	145.860000
248.277405	146.520000
248.370239	147.440000
248.463074	148.600000
248.555908	148.780000
248.648743	148.820000
248.741592	148.320000
248.834427	147.600000
248.927261	146.320000
249.020111	146.620000
249.112946	147.000000
249.205795	146.980000
249.298630	146.960000
249.391495	147.020000
249.484344	146.340000
249.577179	145.960000
249.670029	146.060000
249.762878	146.380000
249.855728	146.660000
249.948563	146.860000
250.041412	146.480000
250.134262	146.380000
250.227112	146.440000
250.319962	146.500000
250.412827	146.720000
250.505692	146.420000
250.598541	146.420000
250.691391	145.880000
250.784241	146.040000
250.877106	146.200000
250.969955	146.440000
251.062805	146.980000
251.155670	147.680000
251.248520	147.420000
251.341385	147.420000
251.434235	147.540000
251.527100	147.140000
251.619965	146.320000
251.712814	147.160000
251.805695	146.740000
251.898560	146.620000
251.991425	147.000000
252.084290	147.600000
252.177155	146.620000
252.270020	146.280000
252.362885	146.520000
252.455750	146.000000
252.548615	145.580000
252.641479	145.840000
252.734360	145.940000
252.827240	145.580000
252.920105	145.960000
253.012970	145.800000
253.105850	145.620000
253.198715	145.580000
253.291595	145.760000
253.384460	145.260000
253.477341	145.580000
253.570221	145.940000
253.663086	146.000000
253.755966	146.640000
253.848846	146.780000
253.941727	146.740000
254.034592	146.620000
254.127472	146.480000
254.220367	146.340000
254.313248	146.620000
254.406128	146.100000
254.499008	146.060000
254.591904	146.740000
254.684784	147.140000
254.777664	147.000000
254.870544	147.020000
254.963440	147.000000
255.056335	146.940000
255.149216	146.140000
255.242111	146.360000
255.334991	146.940000
255.427887	146.840000
255.520767	146.840000
255.613663	147.000000
255.706558	146.480000
255.799438	145.980000
255.892334	145.600000
255.985229	145.240000
256.078125	145.240000
256.171021	145.460000
256.263916	146.060000
256.356812	146.580000
256.449707	146.820000
256.542603	146.560000
256.635498	147.120000
256.728394	146.760000
256.821289	146.500000
256.914215	146.580000
257.007080	147.000000
257.100006	146.680000
257.192932	147.200000
257.285828	147.620000
257.378723	147.160000
257.471619	146.660000
257.564545	146.400000
257.657440	146.380000
257.750336	146.340000
257.843262	146.200000
257.936157	147.460000
258.029053	147.740000
258.121979	147.340000
258.214874	146.860000
258.307800	147.120000
258.400696	145.940000
258.493622	145.940000
258.586517	145.200000
258.679443	145.620000
258.772339	145.340000
258.865265	145.340000
258.958160	144.640000
259.051086	145.740000
259.144012	145.780000
259.236938	146.760000
259.329834	147.020000
259.422791	147.100000
259.515717	146.400000
259.608612	145.780000
259.701538	145.520000
259.794464	145.400000
259.887390	145.620000
259.980316	145.780000
260.073212	145.920000
260.166138	145.080000
260.259064	145.480000
260.351990	145.900000
260.444916	145.860000
260.537842	146.180000
260.630768	146.980000
260.723694	146.520000
260.816620	146.220000
260.909546	146.220000
261.002472	146.100000
261.095398	145.580000
261.188354	145.520000
261.281281	145.340000
261.374207	145.420000
261.467133	145.880000
261.560089	146.280000
261.653015	146.420000
261.745972	147.000000
261.838867	147.340000
261.931824	147.480000
262.024780	146.780000
262.117706	147.140000
262.210663	147.080000
262.303589	146.880000
262.396515	146.580000
262.489471	147.780000
262.582397	147.400000
262.675354	146.900000
262.768280	147.000000
262.861237	146.960000
262.954163	146.460000
263.047119	146.600000
263.140045	146.380000
263.233002	146.240000
263.325958	146.260000
263.418884	145.780000
263.511841	145.680000
263.604797	146.040000
263.697723	146.520000
263.790680	146.580000
263.883636	147.460000
263.976593	147.420000
264.069550	147.460000
264.162476	146.620000
264.255463	146.520000
264.348419	145.700000
264.441376	146.020000
264.534332	145.720000
264.627289	146.320000
264.720245	146.740000
264.813202	146.440000
264.906158	146.260000
264.999115	147.020000
265.092072	146.500000
265.185028	146.580000
265.277985	147.060000
265.370941	147.060000
265.463898	146.540000
265.556854	146.460000
265.649811	145.680000
265.742798	145.560000
265.835754	145.180000
265.928711	145.660000
266.021667	145.880000
266.114655	146.420000
266.207611	146.800000
266.300568	146.540000
266.393585	145.900000
266.486511	146.060000
266.579498	145.260000
266.672485	144.940000
266.765442	145.180000
266.858429	145.820000
266.951385	145.460000
267.044342	145.560000
267.137329	145.980000
267.230316	146.460000
267.323273	145.740000
267.416260	146.620000
267.509216	146.700000
267.602203	146.060000
267.695160	146.260000
267.788147	146.600000
267.881134	146.020000
267.974091	146.240000
268.067078	146.340000
268.160065	145.860000
268.253052	145.900000
268.346008	146.100000
268.438995	145.840000
268.531982	146.260000
268.624969	146.260000
268.717987	146.460000
268.810944	146.180000
268.903961	146.440000
268.996948	145.900000
269.089905	146.360000
269.182892	146.140000
269.275879	146.400000
269.368866	145.880000
269.461853	146.060000
269.554871	145.540000
269.647858	145.720000
269.740845	146.140000
269.833832	146.740000
269.926819	146.620000
270.019806	146.780000
270.112793	146.240000
270.205811	145.760000
270.298798	145.360000
270.391785	145.820000
270.484772	145.620000
270.577789	145.780000
270.670776	145.500000
270.763763	145.520000
270.856750	145.620000
270.949768	145.740000
271.042786	145.940000
271.135773	146.040000
271.228790	146.440000
271.321808	146.000000
271.414795	145.820000
271.507782	145.540000
271.600800	145.540000
271.693817	145.660000
271.786804	146.160000
271.879822	146.520000
271.972809	146.620000
272.065826	147.100000
272.158844	146.440000
272.251831	146.600000
272.344849	146.100000
272.437866	145.860000
272.530853	145.600000
272.623871	146.100000
272.716888	145.180000
272.809906	145.600000
272.902893	145.360000
272.995911	144.800000
273.088928	144.600000
273.181946	144.860000
273.274963	144.620000
273.367981	145.000000
273.460999	145.480000
273.554047	146.080000
273.647003	146.560000
273.740051	146.880000
273.833069	146.760000
273.926086	146.820000
274.019135	146.320000
274.112152	145.860000
274.205170	145.840000
274.298187	146.520000
274.391205	146.040000
274.484222	146.040000
274.577240	146.260000
274.670258	146.000000
274.763306	145.740000
274.856323	146.000000
274.949341	146.120000
275.042358	146.500000
275.135406	146.580000
275.228424	146.560000
275.321442	146.580000
275.414490	146.060000
275.507507	146.060000
275.600525	146.660000
275.693573	146.360000
275.786591	146.340000
275.879669	146.780000
275.972656	146.180000
276.065735	145.540000
276.158752	146.100000
276.251801	146.660000
276.344818	146.760000
276.437866	147.160000
276.530884	147.120000
276.623932	146.240000
276.716980	145.880000
276.809998	146.120000
276.903046	145.920000
276.996094	146.760000
277.089111	147.680000
277.182159	148.240000
277.275208	147.640000
277.368256	147.520000
277.461304	146.780000
277.554321	145.880000
277.647369	145.560000
277.740417	145.580000
277.833466	145.460000
277.926514	145.520000
278.019562	146.300000
278.112610	145.740000
278.205688	146.120000
278.298706	146.500000
278.391785	146.100000
278.484833	145.620000
278.577881	145.420000
278.670929	145.220000
278.763977	144.980000
278.857025	145.520000
278.950073	145.820000
279.043121	145.900000
279.136169	145.880000
279.229248	145.640000
279.322296	145.520000
279.415344	145.040000
279.508392	145.020000
279.601440	144.820000
279.694519	144.940000
279.787567	144.840000
279.880615	144.800000
279.973694	144.840000
280.066742	145.120000
280.159790	145.200000
280.252869	144.920000
280.345917	145.260000
280.438995	145.120000
280.532074	145.220000
280.625122	145.400000
280.718201	146.580000
280.811279	146.840000
280.904327	146.720000
280.997406	146.600000
281.090454	146.580000
281.183533	145.640000
281.276581	145.320000
281.369659	145.400000
281.462738	145.440000
281.555786	145.640000
281.648865	145.660000
281.741943	145.580000
281.835022	146.540000
281.928070	146.600000
282.021149	146.160000
282.114227	146.220000
282.207306	146.040000
282.300385	146.020000
282.393433	145.960000
282.486511	146.060000
282.579590	146.420000
282.672668	147.020000
282.765747	146.440000
282.858856	146.400000
282.951904	146.640000
283.045013	146.600000
283.138062	146.700000
283.231171	147.140000
283.324249	147.320000
283.417328	147.140000
283.510406	146.700000
283.603485	146.280000
283.696564	145.660000
283.789642	145.560000
283.882751	145.700000
283.975830	146.300000
284.068909	146.120000
284.161987	147.080000
284.255066	146.800000
284.348175	146.720000
284.441254	146.340000
284.534332	146.820000
284.627441	146.180000
284.720520	145.940000
284.813599	145.880000
284.906708	145.840000
284.999786	145.220000
285.092896	144.980000
285.185974	146.120000
285.279053	145.480000
285.372192	145.580000
285.465240	146.260000
285.558380	146.240000
285.651459	145.640000
285.744568	146.740000
285.837677	146.580000
285.930756	146.380000
286.023865	146.300000
286.116943	145.820000
286.210052	145.700000
286.303162	145.820000
286.396240	145.800000
286.489349	146.020000
286.582458	146.780000
286.675568	146.460000
286.768646	146.580000
286.861755	147.160000
286.954865	147.840000
287.047974	147.140000
287.141083	147.200000
287.234161	146.880000
287.327271	145.980000
287.420380	146.020000
287.513519	146.060000
287.606598	146.060000
287.699738	146.400000
287.792816	146.440000
287.885956	145.960000
287.979034	145.980000
288.072174	145.860000
288.165283	145.760000
288.258392	145.980000
288.351501	145.620000
288.444611	145.960000
288.537720	146.500000
288.630859	146.460000
288.723969	146.540000
288.817078	147.040000
288.910187	146.800000
289.003296	145.920000
289.096436	145.400000
289.189545	145.300000
289.282654	144.800000
289.375763	145.300000
289.468903	146.160000
289.562012	146.580000
289.655121	146.680000
289.748260	146.780000
289.841400	146.940000
289.934509	146.660000
290.027649	146.600000
290.120728	146.240000
290.213898	146.300000
290.306976	145.620000
290.400146	145.560000
290.493256	145.240000
290.586395	145.400000
290.679535	146.020000
290.772644	145.840000
290.865784	145.180000
290.958893	145.420000
291.052032	145.300000
291.145172	144.940000
291.238281	144.900000
291.331421	145.540000
291.424561	145.840000
291.517670	145.780000
291.610809	146.000000
291.703949	146.260000
291.797089	146.140000
291.890228	145.760000
291.983337	145.760000
292.076477	145.220000
292.169617	145.560000
292.262756	145.440000
292.355927	145.520000
292.449036	145.400000
292.542206	145.760000
292.635315	145.820000
292.728485	146.260000
292.821625	146.060000
292.914764	147.100000
293.007904	146.940000
293.101044	146.820000
293.194183	146.640000
293.287323	146.940000
293.380463	146.500000
293.473602	146.420000
293.566742	146.320000
293.659882	146.480000
293.753021	146.480000
293.846191	146.300000
293.939331	146.100000
294.032471	145.740000
294.125610	145.500000
294.218781	145.880000
294.311920	146.300000
294.405060	146.440000
294.498230	146.860000
294.591370	146.940000
294.684540	146.280000
294.777679	145.620000
294.870850	145.940000
294.963959	145.680000
295.057159	145.540000
295.150299	146.300000
295.243469	146.360000
295.336609	145.660000
295.429779	145.820000
295.522919	146.100000
295.616089	145.960000
295.709229	146.500000
295.802399	146.900000
295.895569	146.800000
295.988708	146.580000
296.081879	146.280000
296.175018	145.620000
296.268188	145.620000
296.361359	146.100000
296.454529	146.460000
296.547668	146.440000
296.640839	146.980000
296.734009	146.600000
296.827179	146.560000
296.920319	146.500000
297.013519	146.420000
297.106659	146.280000
297.199860	146.360000
297.292999	146.040000
297.386200	145.500000
297.479309	145.400000
297.572510	145.280000
297.665680	145.240000
297.758850	145.360000
297.852020	145.380000
297.945190	145.240000
298.038361	144.600000
298.131531	145.540000
298.224701	145.200000
298.317871	145.180000
298.411072	144.800000
298.504242	145.240000
298.597412	144.640000
298.690582	144.940000
298.783752	145.040000
298.876923	145.920000
298.970093	146.060000
299.063293	146.500000
299.156464	146.820000
299.249634	147.120000
299.342834	147.300000
299.436005	147.680000
299.529205	147.480000
299.622345	147.260000
299.715576	146.440000
299.808716	145.960000
299.901917	145.720000
299.995117	145.700000
300.088287	146.060000
300.181488	146.140000
300.274658	145.860000
300.367828	145.760000
300.461029	145.500000
300.554199	145.340000
300.647400	145.720000
300.740601	146.480000
300.833771	146.300000
300.926971	146.720000
301.020142	146.000000
301.113342	145.740000
301.206512	145.520000
301.299713	145.840000
301.392914	145.580000
301.486084	146.200000
301.579285	146.420000
301.672516	146.740000
301.765686	146.620000
301.858887	146.600000
301.952057	146.600000
302.045288	146.580000
302.138458	146.300000
302.231659	146.180000
302.324860	146.220000
302.418060	145.980000
302.511261	146.260000
302.604462	146.380000
302.697662	146.320000
302.790863	146.160000
302.884064	145.600000
302.977264	145.280000
303.070465	145.400000
303.163666	146.000000
303.256866	146.240000
303.350067	146.640000
303.443268	146.920000
303.536469	147.040000
303.629669	146.680000
303.722870	146.740000
303.816071	146.600000
303.909271	146.580000
304.002472	145.400000
304.095673	145.120000
304.188934	144.420000
304.282104	145.160000
304.375336	145.040000
304.468506	145.700000
304.561768	145.680000
304.654968	146.320000
304.748169	145.900000
304.841370	145.880000
304.934601	146.020000
305.027802	145.920000
305.121002	145.680000
305.214233	145.540000
305.307434	145.420000
305.400665	145.920000
305.493866	145.860000
