Model Number: SPM-002-B   
Serial Number: 70087108
Firmware Version: 004.15.4
Exposure Time: 100000.000000us
Data Taken on: 11-12-2020 18:51:42.754
Wavelength	Amplitude
221.570786	0.000000
221.663406	0.000000
221.756027	0.000000
221.848648	0.000000
221.941269	0.000000
222.033905	0.000000
222.126526	0.000000
222.219162	0.000000
222.311798	0.000000
222.404419	0.000000
222.497055	0.000000
222.589676	0.000000
222.682312	0.000000
222.774933	0.000000
222.867569	0.000000
222.960205	0.000000
223.052841	0.000000
223.145462	0.000000
223.238098	0.000000
223.330734	0.000000
223.423386	0.000000
223.516022	0.000000
223.608658	0.000000
223.701309	0.000000
223.793945	0.000000
223.886581	0.000000
223.979218	0.000000
224.071869	0.000000
224.164505	0.000000
224.257156	0.000000
224.349792	0.000000
224.442444	0.000000
224.535095	0.000000
224.627747	0.000000
224.720398	0.000000
224.813034	0.000000
224.905685	0.000000
224.998337	145.340000
225.090988	145.180000
225.183640	144.960000
225.276291	144.920000
225.368942	145.320000
225.461594	145.760000
225.554245	145.600000
225.646912	145.860000
225.739578	146.140000
225.832230	146.300000
225.924896	145.600000
226.017548	146.060000
226.110199	146.360000
226.202866	145.740000
226.295532	145.600000
226.388184	145.780000
226.480850	145.100000
226.573517	144.560000
226.666168	144.760000
226.758835	145.000000
226.851501	145.540000
226.944183	146.000000
227.036850	145.780000
227.129517	145.980000
227.222183	145.980000
227.314850	145.740000
227.407516	146.020000
227.500198	147.240000
227.592865	146.900000
227.685532	146.620000
227.778214	146.540000
227.870880	146.860000
227.963562	146.620000
228.056229	147.120000
228.148926	146.880000
228.241592	147.340000
228.334274	146.540000
228.426956	146.100000
228.519638	145.860000
228.612305	145.380000
228.704987	145.240000
228.797668	145.280000
228.890350	145.040000
228.983032	144.440000
229.075714	145.700000
229.168396	145.240000
229.261108	145.080000
229.353790	145.040000
229.446472	145.720000
229.539169	145.060000
229.631851	144.960000
229.724533	145.180000
229.817230	145.620000
229.909912	146.200000
230.002609	146.280000
230.095306	146.520000
230.187988	146.680000
230.280685	146.280000
230.373383	144.900000
230.466095	144.680000
230.558792	144.880000
230.651474	145.020000
230.744171	145.260000
230.836868	145.640000
230.929581	146.160000
231.022278	146.240000
231.114975	146.100000
231.207672	145.740000
231.300369	146.100000
231.393082	145.980000
231.485779	145.540000
231.578506	145.400000
231.671204	145.820000
231.763916	146.040000
231.856613	145.880000
231.949326	146.140000
232.042023	146.140000
232.134735	145.980000
232.227448	145.280000
232.320160	145.500000
232.412872	145.340000
232.505585	145.860000
232.598297	146.500000
232.691010	146.700000
232.783722	146.200000
232.876450	146.960000
232.969162	146.520000
233.061874	145.720000
233.154587	145.420000
233.247314	146.120000
233.340027	145.260000
233.432739	145.840000
233.525467	145.740000
233.618179	146.180000
233.710907	145.460000
233.803635	145.820000
233.896347	145.260000
233.989090	146.340000
234.081818	146.240000
234.174545	146.840000
234.267258	146.320000
234.359985	146.660000
234.452713	146.260000
234.545441	146.160000
234.638168	145.660000
234.730896	146.360000
234.823639	145.840000
234.916367	145.740000
235.009094	145.980000
235.101822	145.960000
235.194580	145.540000
235.287308	145.780000
235.380051	145.440000
235.472778	145.420000
235.565521	145.660000
235.658249	145.440000
235.750992	145.380000
235.843719	145.180000
235.936462	145.480000
236.029205	145.120000
236.121948	144.940000
236.214691	145.380000
236.307449	146.120000
236.400192	145.700000
236.492935	146.020000
236.585678	146.260000
236.678421	146.060000
236.771164	145.700000
236.863907	145.940000
236.956665	146.080000
237.049408	147.500000
237.142151	146.980000
237.234909	147.820000
237.327652	147.940000
237.420410	147.480000
237.513153	146.420000
237.605927	146.340000
237.698669	145.460000
237.791428	144.940000
237.884186	145.600000
237.976944	145.340000
238.069702	145.960000
238.162445	145.440000
238.255203	145.500000
238.347961	145.660000
238.440720	145.840000
238.533478	145.520000
238.626266	145.460000
238.719025	145.960000
238.811783	145.260000
238.904541	144.940000
238.997314	145.020000
239.090073	145.060000
239.182831	145.100000
239.275604	146.160000
239.368362	146.260000
239.461136	146.080000
239.553909	146.280000
239.646667	146.120000
239.739441	145.340000
239.832214	145.520000
239.925003	145.900000
240.017761	146.460000
240.110535	146.700000
240.203308	146.440000
240.296082	146.520000
240.388855	146.440000
240.481628	146.300000
240.574417	146.120000
240.667191	146.200000
240.759964	145.820000
240.852737	145.680000
240.945526	145.060000
241.038315	144.800000
241.131088	144.980000
241.223877	145.380000
241.316650	145.100000
241.409439	145.820000
241.502228	145.800000
241.595001	145.980000
241.687790	145.860000
241.780579	145.780000
241.873367	145.560000
241.966141	145.660000
242.058929	145.180000
242.151718	145.080000
242.244507	145.540000
242.337311	145.100000
242.430099	145.380000
242.522903	146.020000
242.615692	145.760000
242.708481	145.600000
242.801270	146.340000
242.894073	146.080000
242.986862	145.800000
243.079651	146.440000
243.172455	146.260000
243.265244	146.060000
243.358063	145.700000
243.450867	145.780000
243.543655	145.720000
243.636459	145.820000
243.729263	146.080000
243.822067	146.560000
243.914856	146.700000
244.007660	146.720000
244.100464	146.760000
244.193268	146.040000
244.286072	145.920000
244.378876	145.500000
244.471680	145.420000
244.564499	145.600000
244.657318	146.500000
244.750122	146.440000
244.842926	146.120000
244.935745	146.200000
245.028549	145.860000
245.121368	145.360000
245.214172	145.600000
245.306992	146.420000
245.399796	145.880000
245.492615	146.220000
245.585434	146.000000
245.678253	145.820000
245.771072	145.260000
245.863892	145.940000
245.956711	146.240000
246.049530	146.100000
246.142349	145.680000
246.235168	145.840000
246.327988	146.320000
246.420807	146.080000
246.513626	146.420000
246.606445	146.380000
246.699280	146.520000
246.792099	145.620000
246.884918	145.040000
246.977753	144.480000
247.070587	145.020000
247.163422	145.000000
247.256241	145.140000
247.349075	145.700000
247.441895	146.300000
247.534729	146.140000
247.627563	145.880000
247.720383	146.360000
247.813217	146.100000
247.906052	145.480000
247.998886	145.640000
248.091736	145.500000
248.184570	144.800000
248.277405	144.900000
248.370239	146.180000
248.463074	146.720000
248.555908	147.100000
248.648743	147.440000
248.741592	147.280000
248.834427	146.340000
248.927261	145.180000
249.020111	145.260000
249.112946	145.760000
249.205795	145.740000
249.298630	146.020000
249.391495	146.200000
249.484344	145.960000
249.577179	145.420000
249.670029	145.720000
249.762878	146.080000
249.855728	146.280000
249.948563	146.380000
250.041412	145.920000
250.134262	145.980000
250.227112	145.740000
250.319962	146.020000
250.412827	146.280000
250.505692	146.220000
250.598541	146.260000
250.691391	146.160000
250.784241	146.060000
250.877106	146.060000
250.969955	146.140000
251.062805	146.380000
251.155670	146.700000
251.248520	146.440000
251.341385	146.280000
251.434235	146.320000
251.527100	145.560000
251.619965	145.060000
251.712814	145.700000
251.805695	145.480000
251.898560	145.520000
251.991425	146.180000
252.084290	146.380000
252.177155	145.800000
252.270020	145.800000
252.362885	146.140000
252.455750	146.020000
252.548615	145.980000
252.641479	145.960000
252.734360	146.040000
252.827240	145.700000
252.920105	145.920000
253.012970	145.400000
253.105850	145.420000
253.198715	145.120000
253.291595	145.260000
253.384460	144.620000
253.477341	145.080000
253.570221	145.120000
253.663086	145.040000
253.755966	145.820000
253.848846	146.140000
253.941727	146.120000
254.034592	146.140000
254.127472	145.820000
254.220367	145.260000
254.313248	145.160000
254.406128	144.740000
254.499008	144.940000
254.591904	145.960000
254.684784	146.580000
254.777664	146.700000
254.870544	146.700000
254.963440	146.520000
255.056335	146.260000
255.149216	145.560000
255.242111	145.820000
255.334991	146.020000
255.427887	146.080000
255.520767	146.040000
255.613663	146.140000
255.706558	145.700000
255.799438	145.740000
255.892334	145.520000
255.985229	145.520000
256.078125	145.460000
256.171021	145.660000
256.263916	146.140000
256.356812	146.440000
256.449707	146.380000
256.542603	146.240000
256.635498	146.720000
256.728394	146.480000
256.821289	146.220000
256.914215	146.340000
257.007080	146.720000
257.100006	146.660000
257.192932	146.880000
257.285828	147.480000
257.378723	147.320000
257.471619	146.860000
257.564545	145.900000
257.657440	146.220000
257.750336	145.880000
257.843262	145.760000
257.936157	146.900000
258.029053	147.540000
258.121979	146.900000
258.214874	146.840000
258.307800	146.660000
258.400696	145.440000
258.493622	145.180000
258.586517	144.480000
258.679443	144.800000
258.772339	145.040000
258.865265	145.040000
258.958160	144.740000
259.051086	145.880000
259.144012	145.680000
259.236938	146.360000
259.329834	146.500000
259.422791	146.560000
259.515717	145.820000
259.608612	145.640000
259.701538	145.440000
259.794464	145.480000
259.887390	145.420000
259.980316	145.500000
260.073212	145.460000
260.166138	144.300000
260.259064	144.680000
260.351990	145.420000
260.444916	145.480000
260.537842	145.620000
260.630768	146.760000
260.723694	146.580000
260.816620	146.260000
260.909546	146.420000
261.002472	145.980000
261.095398	145.420000
261.188354	145.200000
261.281281	144.720000
261.374207	144.560000
261.467133	145.480000
261.560089	145.560000
261.653015	145.300000
261.745972	146.260000
261.838867	146.740000
261.931824	146.840000
262.024780	146.640000
262.117706	146.940000
262.210663	146.880000
262.303589	146.600000
262.396515	146.260000
262.489471	147.300000
262.582397	147.360000
262.675354	146.620000
262.768280	146.580000
262.861237	146.500000
262.954163	145.960000
263.047119	146.220000
263.140045	146.300000
263.233002	146.560000
263.325958	146.280000
263.418884	145.740000
263.511841	145.480000
263.604797	145.500000
263.697723	145.300000
263.790680	145.340000
263.883636	145.940000
263.976593	145.740000
264.069550	146.060000
264.162476	145.720000
264.255463	145.560000
264.348419	145.380000
264.441376	145.720000
264.534332	145.000000
264.627289	145.180000
264.720245	145.860000
264.813202	145.580000
264.906158	145.480000
264.999115	146.320000
265.092072	146.520000
265.185028	146.740000
265.277985	146.940000
265.370941	146.940000
265.463898	146.560000
265.556854	146.340000
265.649811	145.400000
265.742798	145.360000
265.835754	145.480000
265.928711	145.620000
266.021667	145.660000
266.114655	145.860000
266.207611	146.300000
266.300568	145.360000
266.393585	144.880000
266.486511	145.040000
266.579498	144.660000
266.672485	144.160000
266.765442	144.700000
266.858429	145.500000
266.951385	145.120000
267.044342	145.300000
267.137329	145.280000
267.230316	145.360000
267.323273	144.600000
267.416260	145.620000
267.509216	145.500000
267.602203	145.640000
267.695160	146.060000
267.788147	146.240000
267.881134	145.220000
267.974091	145.560000
268.067078	145.360000
268.160065	145.040000
268.253052	144.920000
268.346008	145.020000
268.438995	144.920000
268.531982	145.280000
268.624969	145.200000
268.717987	145.940000
268.810944	146.220000
268.903961	146.520000
268.996948	145.860000
269.089905	146.220000
269.182892	146.160000
269.275879	146.200000
269.368866	145.620000
269.461853	146.060000
269.554871	145.820000
269.647858	145.340000
269.740845	145.540000
269.833832	146.100000
269.926819	145.820000
270.019806	146.200000
270.112793	146.320000
270.205811	146.260000
270.298798	145.900000
270.391785	146.660000
270.484772	146.440000
270.577789	146.240000
270.670776	146.040000
270.763763	146.100000
270.856750	145.760000
270.949768	145.360000
271.042786	145.640000
271.135773	145.620000
271.228790	145.880000
271.321808	145.400000
271.414795	145.260000
271.507782	144.960000
271.600800	144.740000
271.693817	144.640000
271.786804	145.040000
271.879822	145.760000
271.972809	145.900000
272.065826	146.480000
272.158844	146.100000
272.251831	146.980000
272.344849	146.740000
272.437866	146.280000
272.530853	146.100000
272.623871	146.440000
272.716888	145.220000
272.809906	145.360000
272.902893	145.660000
272.995911	145.060000
273.088928	145.100000
273.181946	145.500000
273.274963	144.860000
273.367981	144.920000
273.460999	145.240000
273.554047	145.680000
273.647003	146.240000
273.740051	146.700000
273.833069	146.960000
273.926086	147.280000
274.019135	146.620000
274.112152	146.080000
274.205170	145.980000
274.298187	146.000000
274.391205	145.520000
274.484222	145.680000
274.577240	145.560000
274.670258	145.320000
274.763306	145.240000
274.856323	145.780000
274.949341	145.760000
275.042358	146.100000
275.135406	145.960000
275.228424	145.960000
275.321442	145.700000
275.414490	145.400000
275.507507	145.640000
275.600525	146.500000
275.693573	146.240000
275.786591	145.800000
275.879669	146.140000
275.972656	145.620000
276.065735	145.120000
276.158752	145.600000
276.251801	146.620000
276.344818	146.620000
276.437866	146.560000
276.530884	146.500000
276.623932	145.720000
276.716980	145.180000
276.809998	145.140000
276.903046	145.280000
276.996094	145.940000
277.089111	146.920000
277.182159	147.620000
277.275208	147.660000
277.368256	147.600000
277.461304	147.120000
277.554321	145.980000
277.647369	145.540000
277.740417	145.300000
277.833466	145.360000
277.926514	145.120000
278.019562	146.180000
278.112610	145.600000
278.205688	145.820000
278.298706	145.820000
278.391785	145.640000
278.484833	144.980000
278.577881	145.160000
278.670929	145.500000
278.763977	145.300000
278.857025	146.020000
278.950073	145.920000
279.043121	145.760000
279.136169	145.680000
279.229248	145.680000
279.322296	145.420000
279.415344	145.640000
279.508392	145.800000
279.601440	145.700000
279.694519	145.680000
279.787567	145.620000
279.880615	145.680000
279.973694	145.480000
280.066742	145.560000
280.159790	145.840000
280.252869	145.520000
280.345917	145.520000
280.438995	145.400000
280.532074	145.060000
280.625122	145.180000
280.718201	146.140000
280.811279	146.360000
280.904327	146.620000
280.997406	146.980000
281.090454	147.000000
281.183533	146.400000
281.276581	146.120000
281.369659	146.020000
281.462738	145.980000
281.555786	146.160000
281.648865	146.000000
281.741943	145.780000
281.835022	146.540000
281.928070	146.240000
282.021149	145.680000
282.114227	145.620000
282.207306	145.740000
282.300385	145.480000
282.393433	145.760000
282.486511	145.800000
282.579590	146.500000
282.672668	147.000000
282.765747	146.480000
282.858856	146.280000
282.951904	146.720000
283.045013	146.520000
283.138062	146.700000
283.231171	146.880000
283.324249	147.160000
283.417328	146.780000
283.510406	146.260000
283.603485	145.940000
283.696564	145.840000
283.789642	145.540000
283.882751	145.300000
283.975830	146.000000
284.068909	145.720000
284.161987	146.360000
284.255066	146.300000
284.348175	146.560000
284.441254	146.360000
284.534332	146.980000
284.627441	146.280000
284.720520	146.060000
284.813599	146.280000
284.906708	146.120000
284.999786	144.980000
285.092896	144.800000
285.185974	145.780000
285.279053	145.240000
285.372192	145.400000
285.465240	146.480000
285.558380	146.680000
285.651459	146.040000
285.744568	146.980000
285.837677	146.540000
285.930756	146.460000
286.023865	146.640000
286.116943	146.400000
286.210052	146.160000
286.303162	146.320000
286.396240	145.980000
286.489349	145.760000
286.582458	146.320000
286.675568	146.000000
286.768646	145.900000
286.861755	146.340000
286.954865	147.020000
287.047974	146.320000
287.141083	146.280000
287.234161	145.980000
287.327271	145.440000
287.420380	145.360000
287.513519	145.480000
287.606598	145.600000
287.699738	145.920000
287.792816	145.980000
287.885956	145.920000
287.979034	145.960000
288.072174	145.840000
288.165283	145.720000
288.258392	145.940000
288.351501	145.300000
288.444611	145.460000
288.537720	145.840000
288.630859	145.640000
288.723969	145.440000
288.817078	145.800000
288.910187	145.580000
289.003296	145.020000
289.096436	145.280000
289.189545	145.180000
289.282654	145.120000
289.375763	145.760000
289.468903	146.280000
289.562012	146.540000
289.655121	146.780000
289.748260	146.640000
289.841400	146.600000
289.934509	146.260000
290.027649	146.240000
290.120728	146.160000
290.213898	146.320000
290.306976	145.960000
290.400146	146.420000
290.493256	145.920000
290.586395	145.980000
290.679535	146.420000
290.772644	146.180000
290.865784	144.820000
290.958893	145.000000
291.052032	144.620000
291.145172	144.420000
291.238281	144.400000
291.331421	145.180000
291.424561	145.740000
291.517670	145.880000
291.610809	145.960000
291.703949	146.120000
291.797089	146.320000
291.890228	145.600000
291.983337	145.420000
292.076477	144.980000
292.169617	145.120000
292.262756	145.000000
292.355927	145.360000
292.449036	145.340000
292.542206	145.280000
292.635315	145.560000
292.728485	145.900000
292.821625	145.460000
292.914764	146.680000
293.007904	147.260000
293.101044	146.680000
293.194183	146.500000
293.287323	146.520000
293.380463	145.440000
293.473602	144.940000
293.566742	145.660000
293.659882	146.040000
293.753021	146.440000
293.846191	146.600000
293.939331	146.400000
294.032471	145.980000
294.125610	145.520000
294.218781	145.820000
294.311920	146.340000
294.405060	146.660000
294.498230	146.580000
294.591370	146.540000
294.684540	145.720000
294.777679	145.120000
294.870850	145.260000
294.963959	144.980000
295.057159	144.600000
295.150299	145.000000
295.243469	145.000000
295.336609	144.320000
295.429779	144.600000
295.522919	145.160000
295.616089	145.020000
295.709229	145.680000
295.802399	146.180000
295.895569	145.700000
295.988708	145.680000
296.081879	146.220000
296.175018	145.380000
296.268188	145.500000
296.361359	146.580000
296.454529	146.660000
296.547668	146.200000
296.640839	146.560000
296.734009	146.280000
296.827179	145.820000
296.920319	145.920000
297.013519	145.780000
297.106659	145.860000
297.199860	145.720000
297.292999	145.700000
297.386200	145.220000
297.479309	145.220000
297.572510	145.220000
297.665680	145.060000
297.758850	144.980000
297.852020	144.820000
297.945190	144.920000
298.038361	144.340000
298.131531	145.540000
298.224701	145.420000
298.317871	145.320000
298.411072	145.160000
298.504242	145.320000
298.597412	144.340000
298.690582	144.760000
298.783752	145.240000
298.876923	145.760000
298.970093	145.840000
299.063293	146.500000
299.156464	146.560000
299.249634	146.480000
299.342834	146.360000
299.436005	146.780000
299.529205	146.540000
299.622345	146.620000
299.715576	146.200000
299.808716	145.760000
299.901917	145.560000
299.995117	145.700000
300.088287	145.480000
300.181488	145.500000
300.274658	145.600000
300.367828	145.900000
300.461029	145.760000
300.554199	146.060000
300.647400	146.540000
300.740601	147.060000
300.833771	146.580000
300.926971	146.920000
301.020142	146.540000
301.113342	146.360000
301.206512	146.140000
301.299713	146.380000
301.392914	146.200000
301.486084	146.320000
301.579285	146.240000
301.672516	146.700000
301.765686	146.500000
301.858887	146.200000
301.952057	145.980000
302.045288	146.140000
302.138458	145.440000
302.231659	145.280000
302.324860	145.420000
302.418060	145.100000
302.511261	144.920000
302.604462	145.280000
302.697662	145.240000
302.790863	144.840000
302.884064	144.740000
302.977264	144.700000
303.070465	144.760000
303.163666	145.240000
303.256866	145.700000
303.350067	146.160000
303.443268	145.820000
303.536469	145.800000
303.629669	145.700000
303.722870	145.560000
303.816071	145.340000
303.909271	145.620000
304.002472	144.860000
304.095673	144.440000
304.188934	143.680000
304.282104	144.480000
304.375336	144.660000
304.468506	145.020000
304.561768	145.100000
304.654968	146.060000
304.748169	145.280000
304.841370	144.860000
304.934601	145.400000
305.027802	145.320000
305.121002	144.980000
305.214233	145.020000
305.307434	145.360000
305.400665	145.840000
305.493866	145.780000
