Model Number: SPM-002-B   
Serial Number: 70087108
Firmware Version: 004.15.4
Exposure Time: 100000.000000us
Data Taken on: 11-12-2020 18:51:54.968
Wavelength	Amplitude
221.570786	0.000000
221.663406	0.000000
221.756027	0.000000
221.848648	0.000000
221.941269	0.000000
222.033905	0.000000
222.126526	0.000000
222.219162	0.000000
222.311798	0.000000
222.404419	0.000000
222.497055	0.000000
222.589676	0.000000
222.682312	0.000000
222.774933	0.000000
222.867569	0.000000
222.960205	0.000000
223.052841	0.000000
223.145462	0.000000
223.238098	0.000000
223.330734	0.000000
223.423386	0.000000
223.516022	0.000000
223.608658	0.000000
223.701309	0.000000
223.793945	0.000000
223.886581	0.000000
223.979218	0.000000
224.071869	0.000000
224.164505	0.000000
224.257156	0.000000
224.349792	0.000000
224.442444	0.000000
224.535095	0.000000
224.627747	0.000000
224.720398	0.000000
224.813034	0.000000
224.905685	0.000000
224.998337	144.440000
225.090988	144.400000
225.183640	144.420000
225.276291	144.380000
225.368942	144.920000
225.461594	145.580000
225.554245	145.940000
225.646912	146.060000
225.739578	146.800000
225.832230	147.020000
225.924896	146.380000
226.017548	146.480000
226.110199	147.080000
226.202866	145.980000
226.295532	145.560000
226.388184	145.360000
226.480850	144.900000
226.573517	144.400000
226.666168	145.080000
226.758835	145.520000
226.851501	146.160000
226.944183	146.360000
227.036850	145.740000
227.129517	145.740000
227.222183	145.880000
227.314850	145.580000
227.407516	145.900000
227.500198	146.960000
227.592865	146.560000
227.685532	145.820000
227.778214	145.900000
227.870880	145.780000
227.963562	145.920000
228.056229	146.180000
228.148926	146.440000
228.241592	147.220000
228.334274	147.200000
228.426956	146.780000
228.519638	147.140000
228.612305	146.700000
228.704987	146.220000
228.797668	146.260000
228.890350	145.960000
228.983032	145.060000
229.075714	145.840000
229.168396	145.560000
229.261108	144.880000
229.353790	145.220000
229.446472	145.680000
229.539169	145.600000
229.631851	145.320000
229.724533	145.600000
229.817230	145.600000
229.909912	146.440000
230.002609	146.100000
230.095306	146.320000
230.187988	146.600000
230.280685	146.360000
230.373383	145.440000
230.466095	145.320000
230.558792	145.440000
230.651474	145.500000
230.744171	145.560000
230.836868	145.420000
230.929581	145.840000
231.022278	145.760000
231.114975	145.700000
231.207672	145.460000
231.300369	145.940000
231.393082	145.780000
231.485779	145.440000
231.578506	145.280000
231.671204	145.520000
231.763916	145.180000
231.856613	145.220000
231.949326	145.860000
232.042023	145.740000
232.134735	145.780000
232.227448	145.660000
232.320160	145.880000
232.412872	145.580000
232.505585	146.340000
232.598297	146.500000
232.691010	146.400000
232.783722	145.640000
232.876450	146.240000
232.969162	145.620000
233.061874	145.320000
233.154587	145.080000
233.247314	145.840000
233.340027	145.160000
233.432739	145.560000
233.525467	145.480000
233.618179	146.280000
233.710907	145.700000
233.803635	146.120000
233.896347	146.000000
233.989090	146.840000
234.081818	146.500000
234.174545	146.840000
234.267258	146.240000
234.359985	146.220000
234.452713	145.900000
234.545441	145.860000
234.638168	145.720000
234.730896	146.260000
234.823639	146.060000
234.916367	146.340000
235.009094	146.240000
235.101822	146.420000
235.194580	146.160000
235.287308	146.160000
235.380051	145.220000
235.472778	145.680000
235.565521	145.600000
235.658249	145.360000
235.750992	145.600000
235.843719	145.960000
235.936462	146.200000
236.029205	146.100000
236.121948	145.920000
236.214691	146.120000
236.307449	146.600000
236.400192	145.920000
236.492935	145.620000
236.585678	146.000000
236.678421	145.600000
236.771164	145.340000
236.863907	146.000000
236.956665	146.680000
237.049408	147.900000
237.142151	147.540000
237.234909	148.160000
237.327652	147.800000
237.420410	147.360000
237.513153	146.560000
237.605927	146.680000
237.698669	145.880000
237.791428	145.300000
237.884186	145.780000
237.976944	145.360000
238.069702	145.740000
238.162445	145.340000
238.255203	145.600000
238.347961	145.860000
238.440720	145.700000
238.533478	145.460000
238.626266	145.520000
238.719025	146.000000
238.811783	145.460000
238.904541	145.400000
238.997314	145.300000
239.090073	145.180000
239.182831	145.020000
239.275604	145.680000
239.368362	145.660000
239.461136	145.940000
239.553909	146.140000
239.646667	146.180000
239.739441	145.740000
239.832214	145.980000
239.925003	146.080000
240.017761	146.420000
240.110535	146.720000
240.203308	146.000000
240.296082	145.960000
240.388855	145.760000
240.481628	145.700000
240.574417	145.820000
240.667191	146.160000
240.759964	145.980000
240.852737	145.960000
240.945526	145.680000
241.038315	145.380000
241.131088	145.340000
241.223877	145.920000
241.316650	145.540000
241.409439	145.940000
241.502228	145.440000
241.595001	146.020000
241.687790	145.680000
241.780579	145.980000
241.873367	146.080000
241.966141	146.640000
242.058929	145.760000
242.151718	146.000000
242.244507	146.280000
242.337311	145.400000
242.430099	145.760000
242.522903	146.480000
242.615692	145.980000
242.708481	146.040000
242.801270	146.680000
242.894073	146.180000
242.986862	146.320000
243.079651	147.020000
243.172455	146.740000
243.265244	146.660000
243.358063	146.460000
243.450867	146.340000
243.543655	145.880000
243.636459	145.980000
243.729263	146.260000
243.822067	146.580000
243.914856	146.860000
244.007660	147.060000
244.100464	147.100000
244.193268	146.820000
244.286072	146.480000
244.378876	145.760000
244.471680	145.540000
244.564499	145.700000
244.657318	146.200000
244.750122	146.560000
244.842926	146.280000
244.935745	146.380000
245.028549	145.880000
245.121368	145.440000
245.214172	145.380000
245.306992	145.920000
245.399796	145.740000
245.492615	146.220000
245.585434	146.140000
245.678253	145.920000
245.771072	145.720000
245.863892	146.260000
245.956711	146.420000
246.049530	146.360000
246.142349	146.120000
246.235168	146.340000
246.327988	146.360000
246.420807	145.740000
246.513626	145.900000
246.606445	146.140000
246.699280	146.020000
246.792099	145.900000
246.884918	145.820000
246.977753	145.440000
247.070587	145.640000
247.163422	145.520000
247.256241	145.460000
247.349075	145.820000
247.441895	145.880000
247.534729	145.640000
247.627563	145.520000
247.720383	146.200000
247.813217	146.120000
247.906052	146.220000
247.998886	146.180000
248.091736	146.440000
248.184570	145.640000
248.277405	145.800000
248.370239	146.660000
248.463074	147.800000
248.555908	148.060000
248.648743	147.780000
248.741592	147.560000
248.834427	146.680000
248.927261	145.260000
249.020111	145.500000
249.112946	146.340000
249.205795	146.020000
249.298630	146.320000
249.391495	146.940000
249.484344	146.480000
249.577179	146.280000
249.670029	146.780000
249.762878	147.200000
249.855728	147.000000
249.948563	147.160000
250.041412	146.420000
250.134262	146.680000
250.227112	146.580000
250.319962	146.500000
250.412827	146.500000
250.505692	146.380000
250.598541	146.060000
250.691391	145.580000
250.784241	145.700000
250.877106	145.560000
250.969955	145.760000
251.062805	146.160000
251.155670	146.760000
251.248520	146.440000
251.341385	146.780000
251.434235	146.520000
251.527100	146.080000
251.619965	145.420000
251.712814	146.000000
251.805695	145.880000
251.898560	146.240000
251.991425	146.680000
252.084290	146.900000
252.177155	146.460000
252.270020	146.120000
252.362885	146.040000
252.455750	145.720000
252.548615	145.320000
252.641479	145.560000
252.734360	145.740000
252.827240	145.580000
252.920105	145.580000
253.012970	145.920000
253.105850	145.660000
253.198715	145.240000
253.291595	145.560000
253.384460	145.240000
253.477341	145.060000
253.570221	145.280000
253.663086	145.340000
253.755966	145.620000
253.848846	145.720000
253.941727	146.020000
254.034592	145.760000
254.127472	145.400000
254.220367	145.300000
254.313248	145.380000
254.406128	144.920000
254.499008	145.140000
254.591904	145.920000
254.684784	146.080000
254.777664	146.200000
254.870544	145.820000
254.963440	145.700000
255.056335	145.440000
255.149216	145.480000
255.242111	145.700000
255.334991	146.360000
255.427887	146.500000
255.520767	146.920000
255.613663	146.900000
255.706558	146.400000
255.799438	146.180000
255.892334	145.680000
255.985229	145.600000
256.078125	145.360000
256.171021	145.500000
256.263916	145.900000
256.356812	146.220000
256.449707	146.020000
256.542603	145.600000
256.635498	146.100000
256.728394	145.860000
256.821289	145.780000
256.914215	145.940000
257.007080	146.540000
257.100006	146.340000
257.192932	146.680000
257.285828	146.880000
257.378723	146.620000
257.471619	146.180000
257.564545	145.680000
257.657440	145.580000
257.750336	146.020000
257.843262	145.840000
257.936157	147.020000
258.029053	147.680000
258.121979	147.460000
258.214874	146.840000
258.307800	146.840000
258.400696	145.780000
258.493622	145.220000
258.586517	144.900000
258.679443	145.300000
258.772339	144.980000
258.865265	144.780000
258.958160	144.720000
259.051086	145.260000
259.144012	144.840000
259.236938	145.600000
259.329834	145.980000
259.422791	145.780000
259.515717	145.300000
259.608612	145.360000
259.701538	145.300000
259.794464	145.360000
259.887390	145.300000
259.980316	145.280000
260.073212	145.100000
260.166138	144.180000
260.259064	144.320000
260.351990	145.280000
260.444916	145.300000
260.537842	146.000000
260.630768	146.860000
260.723694	146.840000
260.816620	146.280000
260.909546	146.280000
261.002472	145.500000
261.095398	145.100000
261.188354	144.800000
261.281281	144.560000
261.374207	144.760000
261.467133	145.920000
261.560089	146.260000
261.653015	146.200000
261.745972	147.080000
261.838867	147.580000
261.931824	147.540000
262.024780	147.060000
262.117706	147.240000
262.210663	146.940000
262.303589	146.720000
262.396515	146.360000
262.489471	146.940000
262.582397	146.840000
262.675354	146.220000
262.768280	146.180000
262.861237	146.280000
262.954163	146.160000
263.047119	145.980000
263.140045	146.060000
263.233002	145.960000
263.325958	145.720000
263.418884	145.440000
263.511841	145.520000
263.604797	145.760000
263.697723	145.680000
263.790680	145.480000
263.883636	145.720000
263.976593	145.740000
264.069550	145.640000
264.162476	145.440000
264.255463	145.520000
264.348419	145.380000
264.441376	145.760000
264.534332	145.880000
264.627289	146.120000
264.720245	146.660000
264.813202	146.280000
264.906158	146.140000
264.999115	146.220000
265.092072	146.340000
265.185028	146.320000
265.277985	146.940000
265.370941	146.800000
265.463898	146.800000
265.556854	146.460000
265.649811	145.500000
265.742798	145.420000
265.835754	145.400000
265.928711	145.480000
266.021667	145.540000
266.114655	145.980000
266.207611	146.260000
266.300568	146.000000
266.393585	145.940000
266.486511	146.420000
266.579498	145.860000
266.672485	145.680000
266.765442	145.620000
266.858429	145.840000
266.951385	145.180000
267.044342	145.580000
267.137329	145.500000
267.230316	145.780000
267.323273	145.160000
267.416260	145.840000
267.509216	145.640000
267.602203	145.720000
267.695160	146.220000
267.788147	146.640000
267.881134	145.920000
267.974091	146.380000
268.067078	145.900000
268.160065	145.780000
268.253052	145.740000
268.346008	146.180000
268.438995	145.760000
268.531982	146.040000
268.624969	145.520000
268.717987	145.880000
268.810944	145.580000
268.903961	145.620000
268.996948	145.500000
269.089905	145.860000
269.182892	145.520000
269.275879	146.100000
269.368866	145.640000
269.461853	145.760000
269.554871	146.000000
269.647858	146.120000
269.740845	146.220000
269.833832	146.680000
269.926819	146.360000
270.019806	145.780000
270.112793	145.080000
270.205811	144.740000
270.298798	145.120000
270.391785	145.920000
270.484772	145.840000
270.577789	146.400000
270.670776	146.160000
270.763763	145.900000
270.856750	145.720000
270.949768	145.780000
271.042786	145.900000
271.135773	146.280000
271.228790	146.600000
271.321808	146.120000
271.414795	146.040000
271.507782	145.620000
271.600800	145.140000
271.693817	144.900000
271.786804	145.400000
271.879822	145.800000
271.972809	145.800000
272.065826	146.480000
272.158844	146.240000
272.251831	146.500000
272.344849	146.060000
272.437866	145.880000
272.530853	145.780000
272.623871	146.180000
272.716888	145.360000
272.809906	146.160000
272.902893	146.300000
272.995911	145.540000
273.088928	145.480000
273.181946	145.840000
273.274963	145.280000
273.367981	145.400000
273.460999	145.580000
273.554047	146.060000
273.647003	146.660000
273.740051	146.540000
273.833069	146.760000
273.926086	147.320000
274.019135	146.940000
274.112152	146.280000
274.205170	146.340000
274.298187	146.600000
274.391205	146.180000
274.484222	145.960000
274.577240	146.100000
274.670258	146.280000
274.763306	145.980000
274.856323	146.280000
274.949341	146.520000
275.042358	146.720000
275.135406	146.580000
275.228424	146.660000
275.321442	146.520000
275.414490	146.140000
275.507507	145.940000
275.600525	146.380000
275.693573	146.140000
275.786591	145.940000
275.879669	146.200000
275.972656	146.140000
276.065735	145.640000
276.158752	146.080000
276.251801	146.760000
276.344818	146.500000
276.437866	146.480000
276.530884	146.540000
276.623932	145.720000
276.716980	145.880000
276.809998	146.220000
276.903046	146.180000
276.996094	147.220000
277.089111	148.200000
277.182159	148.240000
277.275208	147.920000
277.368256	147.960000
277.461304	147.060000
277.554321	146.480000
277.647369	146.000000
277.740417	146.160000
277.833466	146.160000
277.926514	146.120000
278.019562	146.700000
278.112610	146.200000
278.205688	146.400000
278.298706	146.620000
278.391785	146.480000
278.484833	145.840000
278.577881	145.920000
278.670929	146.000000
278.763977	145.960000
278.857025	146.300000
278.950073	146.500000
279.043121	146.680000
279.136169	146.680000
279.229248	146.680000
279.322296	146.420000
279.415344	146.080000
279.508392	145.700000
279.601440	145.380000
279.694519	144.960000
279.787567	144.880000
279.880615	145.100000
279.973694	145.100000
280.066742	145.200000
280.159790	145.660000
280.252869	145.600000
280.345917	145.660000
280.438995	146.020000
280.532074	145.840000
280.625122	145.760000
280.718201	146.560000
280.811279	146.280000
280.904327	146.120000
280.997406	146.180000
281.090454	146.340000
281.183533	145.420000
281.276581	145.440000
281.369659	145.180000
281.462738	145.400000
281.555786	145.240000
281.648865	145.620000
281.741943	145.760000
281.835022	146.380000
281.928070	146.140000
282.021149	146.100000
282.114227	145.700000
282.207306	145.860000
282.300385	145.960000
282.393433	146.300000
282.486511	146.220000
282.579590	146.820000
282.672668	147.100000
282.765747	146.460000
282.858856	146.040000
282.951904	146.140000
283.045013	146.140000
283.138062	146.000000
283.231171	146.280000
283.324249	146.560000
283.417328	146.480000
283.510406	146.120000
283.603485	145.960000
283.696564	146.080000
283.789642	146.120000
283.882751	145.920000
283.975830	146.580000
284.068909	146.320000
284.161987	146.740000
284.255066	146.360000
284.348175	146.820000
284.441254	146.380000
284.534332	146.680000
284.627441	146.080000
284.720520	145.940000
284.813599	145.920000
284.906708	146.040000
284.999786	145.320000
285.092896	145.280000
285.185974	146.420000
285.279053	145.520000
285.372192	145.520000
285.465240	146.280000
285.558380	146.220000
285.651459	145.520000
285.744568	146.580000
285.837677	146.160000
285.930756	146.400000
286.023865	146.700000
286.116943	146.420000
286.210052	146.420000
286.303162	146.720000
286.396240	146.460000
286.489349	146.300000
286.582458	146.780000
286.675568	146.480000
286.768646	146.300000
286.861755	146.660000
286.954865	147.340000
287.047974	146.720000
287.141083	146.460000
287.234161	146.320000
287.327271	145.860000
287.420380	145.840000
287.513519	145.700000
287.606598	145.980000
287.699738	146.080000
287.792816	146.020000
287.885956	145.760000
287.979034	145.880000
288.072174	145.800000
288.165283	145.680000
288.258392	145.920000
288.351501	145.200000
288.444611	145.820000
288.537720	146.040000
288.630859	146.180000
288.723969	146.180000
288.817078	146.720000
288.910187	146.360000
289.003296	146.000000
289.096436	145.720000
289.189545	145.560000
289.282654	145.220000
289.375763	145.280000
289.468903	145.480000
289.562012	145.820000
289.655121	145.660000
289.748260	145.740000
289.841400	146.080000
289.934509	146.160000
290.027649	146.500000
290.120728	146.480000
290.213898	146.660000
290.306976	146.220000
290.400146	146.080000
290.493256	145.140000
290.586395	145.200000
290.679535	145.220000
290.772644	145.260000
290.865784	144.540000
290.958893	144.820000
291.052032	144.780000
291.145172	144.500000
291.238281	144.220000
291.331421	144.640000
291.424561	145.060000
291.517670	144.960000
291.610809	145.500000
291.703949	145.500000
291.797089	145.660000
291.890228	145.520000
291.983337	145.600000
292.076477	145.020000
292.169617	145.300000
292.262756	145.240000
292.355927	145.040000
292.449036	144.740000
292.542206	144.860000
292.635315	145.200000
292.728485	145.520000
292.821625	145.300000
292.914764	146.620000
293.007904	146.720000
293.101044	146.340000
293.194183	146.300000
293.287323	146.540000
293.380463	145.780000
293.473602	145.680000
293.566742	145.920000
293.659882	146.200000
293.753021	146.460000
293.846191	146.240000
293.939331	146.320000
294.032471	146.160000
294.125610	145.480000
294.218781	145.800000
294.311920	146.380000
294.405060	146.280000
294.498230	146.240000
294.591370	146.700000
294.684540	145.800000
294.777679	145.220000
294.870850	145.660000
294.963959	145.460000
295.057159	145.240000
295.150299	145.580000
295.243469	145.720000
295.336609	145.160000
295.429779	145.340000
295.522919	145.660000
295.616089	145.940000
295.709229	146.500000
295.802399	146.800000
295.895569	146.680000
295.988708	146.440000
296.081879	146.660000
296.175018	145.960000
296.268188	145.840000
296.361359	146.460000
296.454529	146.380000
296.547668	145.960000
296.640839	146.300000
296.734009	146.240000
296.827179	146.140000
296.920319	146.640000
297.013519	146.520000
297.106659	146.280000
297.199860	146.260000
297.292999	146.120000
297.386200	145.600000
297.479309	145.660000
297.572510	145.720000
297.665680	145.680000
297.758850	145.500000
297.852020	145.700000
297.945190	145.760000
298.038361	145.540000
298.131531	146.140000
298.224701	146.100000
298.317871	145.760000
298.411072	145.180000
298.504242	145.100000
298.597412	144.540000
298.690582	144.820000
298.783752	144.980000
298.876923	145.540000
298.970093	145.640000
299.063293	146.180000
299.156464	146.320000
299.249634	146.680000
299.342834	146.700000
299.436005	147.100000
299.529205	146.720000
299.622345	146.560000
299.715576	145.720000
299.808716	145.480000
299.901917	145.400000
299.995117	145.720000
300.088287	145.820000
300.181488	145.840000
300.274658	146.080000
300.367828	145.900000
300.461029	145.700000
300.554199	145.940000
300.647400	146.200000
300.740601	146.540000
300.833771	146.460000
300.926971	146.580000
301.020142	145.960000
301.113342	145.960000
301.206512	145.680000
301.299713	145.760000
301.392914	145.600000
301.486084	145.820000
301.579285	145.780000
301.672516	146.120000
301.765686	145.860000
301.858887	145.780000
301.952057	145.880000
302.045288	145.920000
302.138458	145.660000
302.231659	145.700000
302.324860	145.340000
302.418060	145.080000
302.511261	144.960000
302.604462	145.240000
302.697662	145.220000
302.790863	145.340000
302.884064	144.980000
302.977264	145.340000
303.070465	145.860000
303.163666	146.760000
303.256866	147.320000
303.350067	147.540000
303.443268	147.360000
303.536469	146.860000
303.629669	146.140000
303.722870	146.260000
303.816071	146.020000
303.909271	145.820000
304.002472	144.780000
304.095673	144.540000
304.188934	143.580000
304.282104	144.580000
304.375336	144.820000
304.468506	145.180000
304.561768	145.020000
304.654968	145.820000
304.748169	145.340000
304.841370	145.160000
304.934601	145.680000
305.027802	145.860000
305.121002	145.480000
305.214233	145.480000
305.307434	145.780000
305.400665	146.340000
305.493866	146.220000
