Model Number: SPM-002-B   
Serial Number: 70087108
Firmware Version: 004.15.4
Exposure Time: 100000.000000us
Data Taken on: 11-12-2020 18:52:00.328
Wavelength	Amplitude
221.570786	0.000000
221.663406	0.000000
221.756027	0.000000
221.848648	0.000000
221.941269	0.000000
222.033905	0.000000
222.126526	0.000000
222.219162	0.000000
222.311798	0.000000
222.404419	0.000000
222.497055	0.000000
222.589676	0.000000
222.682312	0.000000
222.774933	0.000000
222.867569	0.000000
222.960205	0.000000
223.052841	0.000000
223.145462	0.000000
223.238098	0.000000
223.330734	0.000000
223.423386	0.000000
223.516022	0.000000
223.608658	0.000000
223.701309	0.000000
223.793945	0.000000
223.886581	0.000000
223.979218	0.000000
224.071869	0.000000
224.164505	0.000000
224.257156	0.000000
224.349792	0.000000
224.442444	0.000000
224.535095	0.000000
224.627747	0.000000
224.720398	0.000000
224.813034	0.000000
224.905685	0.000000
224.998337	144.980000
225.090988	145.120000
225.183640	145.100000
225.276291	144.900000
225.368942	144.980000
225.461594	145.520000
225.554245	145.480000
225.646912	145.340000
225.739578	145.900000
225.832230	146.440000
225.924896	145.680000
226.017548	146.140000
226.110199	147.060000
226.202866	146.280000
226.295532	145.700000
226.388184	145.820000
226.480850	145.120000
226.573517	144.320000
226.666168	144.480000
226.758835	145.100000
226.851501	145.600000
226.944183	146.100000
227.036850	145.880000
227.129517	145.880000
227.222183	145.960000
227.314850	145.840000
227.407516	145.660000
227.500198	146.600000
227.592865	146.400000
227.685532	145.880000
227.778214	145.680000
227.870880	146.060000
227.963562	146.240000
228.056229	146.880000
228.148926	146.700000
228.241592	147.640000
228.334274	147.060000
228.426956	146.660000
228.519638	146.520000
228.612305	146.460000
228.704987	145.980000
228.797668	146.280000
228.890350	145.780000
228.983032	145.160000
229.075714	145.880000
229.168396	145.600000
229.261108	145.060000
229.353790	145.220000
229.446472	145.680000
229.539169	145.340000
229.631851	144.800000
229.724533	144.900000
229.817230	145.100000
229.909912	145.780000
230.002609	145.860000
230.095306	146.260000
230.187988	146.600000
230.280685	146.360000
230.373383	145.260000
230.466095	145.000000
230.558792	145.740000
230.651474	145.820000
230.744171	145.860000
230.836868	145.940000
230.929581	146.220000
231.022278	145.760000
231.114975	145.880000
231.207672	145.700000
231.300369	146.200000
231.393082	146.440000
231.485779	145.880000
231.578506	145.320000
231.671204	145.360000
231.763916	145.340000
231.856613	144.820000
231.949326	145.420000
232.042023	145.520000
232.134735	145.620000
232.227448	144.980000
232.320160	145.540000
232.412872	145.580000
232.505585	146.340000
232.598297	146.580000
232.691010	146.780000
232.783722	146.120000
232.876450	146.520000
232.969162	145.880000
233.061874	145.400000
233.154587	145.100000
233.247314	145.660000
233.340027	144.980000
233.432739	145.640000
233.525467	145.640000
233.618179	146.160000
233.710907	145.400000
233.803635	145.760000
233.896347	145.320000
233.989090	146.200000
234.081818	145.960000
234.174545	146.340000
234.267258	145.720000
234.359985	145.620000
234.452713	145.240000
234.545441	145.260000
234.638168	145.060000
234.730896	145.880000
234.823639	145.740000
234.916367	145.860000
235.009094	146.060000
235.101822	145.880000
235.194580	145.300000
235.287308	145.380000
235.380051	144.780000
235.472778	144.660000
235.565521	145.260000
235.658249	145.120000
235.750992	145.260000
235.843719	145.580000
235.936462	145.760000
236.029205	145.340000
236.121948	145.180000
236.214691	145.680000
236.307449	146.120000
236.400192	145.760000
236.492935	145.720000
236.585678	145.940000
236.678421	145.800000
236.771164	145.320000
236.863907	145.980000
236.956665	146.100000
237.049408	148.020000
237.142151	147.100000
237.234909	147.720000
237.327652	147.500000
237.420410	147.320000
237.513153	146.060000
237.605927	146.240000
237.698669	145.540000
237.791428	144.880000
237.884186	145.500000
237.976944	144.840000
238.069702	145.480000
238.162445	145.200000
238.255203	145.600000
238.347961	145.340000
238.440720	145.340000
238.533478	144.800000
238.626266	144.800000
238.719025	145.020000
238.811783	145.100000
238.904541	145.140000
238.997314	145.160000
239.090073	145.060000
239.182831	145.120000
239.275604	145.800000
239.368362	145.580000
239.461136	145.840000
239.553909	146.160000
239.646667	145.920000
239.739441	145.260000
239.832214	145.780000
239.925003	145.880000
240.017761	146.380000
240.110535	146.880000
240.203308	146.660000
240.296082	146.620000
240.388855	146.440000
240.481628	146.280000
240.574417	146.200000
240.667191	146.400000
240.759964	146.040000
240.852737	145.960000
240.945526	145.540000
241.038315	145.060000
241.131088	145.100000
241.223877	145.500000
241.316650	145.240000
241.409439	145.520000
241.502228	145.460000
241.595001	145.780000
241.687790	145.260000
241.780579	145.400000
241.873367	145.360000
241.966141	145.700000
242.058929	145.220000
242.151718	145.800000
242.244507	146.280000
242.337311	145.860000
242.430099	146.140000
242.522903	146.020000
242.615692	145.520000
242.708481	145.440000
242.801270	145.920000
242.894073	145.820000
242.986862	145.980000
243.079651	146.400000
243.172455	146.060000
243.265244	145.900000
243.358063	145.160000
243.450867	145.380000
243.543655	145.300000
243.636459	145.760000
243.729263	146.380000
243.822067	146.900000
243.914856	147.180000
244.007660	147.180000
244.100464	146.840000
244.193268	146.280000
244.286072	146.080000
244.378876	145.520000
244.471680	145.380000
244.564499	145.680000
244.657318	146.180000
244.750122	146.680000
244.842926	146.420000
244.935745	146.820000
245.028549	146.240000
245.121368	145.960000
245.214172	145.500000
245.306992	146.160000
245.399796	145.660000
245.492615	145.960000
245.585434	145.700000
245.678253	145.720000
245.771072	145.200000
245.863892	145.620000
245.956711	145.740000
246.049530	145.560000
246.142349	145.340000
246.235168	145.700000
246.327988	146.140000
246.420807	145.840000
246.513626	146.020000
246.606445	145.880000
246.699280	145.560000
246.792099	145.160000
246.884918	145.020000
246.977753	144.560000
247.070587	144.720000
247.163422	144.900000
247.256241	144.680000
247.349075	145.120000
247.441895	145.500000
247.534729	145.620000
247.627563	145.460000
247.720383	146.060000
247.813217	145.960000
247.906052	145.760000
247.998886	145.720000
248.091736	145.820000
248.184570	145.280000
248.277405	145.260000
248.370239	146.180000
248.463074	147.100000
248.555908	147.440000
248.648743	147.420000
248.741592	147.460000
248.834427	146.800000
248.927261	145.660000
249.020111	145.720000
249.112946	146.280000
249.205795	145.880000
249.298630	146.100000
249.391495	146.260000
249.484344	145.880000
249.577179	145.780000
249.670029	145.980000
249.762878	146.480000
249.855728	146.620000
249.948563	146.760000
250.041412	145.880000
250.134262	146.300000
250.227112	145.840000
250.319962	145.860000
250.412827	145.840000
250.505692	145.720000
250.598541	145.440000
250.691391	145.020000
250.784241	145.320000
250.877106	145.200000
250.969955	145.320000
251.062805	145.680000
251.155670	146.420000
251.248520	145.940000
251.341385	146.200000
251.434235	146.160000
251.527100	145.820000
251.619965	145.420000
251.712814	146.100000
251.805695	145.740000
251.898560	146.120000
251.991425	146.460000
252.084290	146.540000
252.177155	145.780000
252.270020	145.880000
252.362885	145.640000
252.455750	145.720000
252.548615	145.340000
252.641479	145.540000
252.734360	145.380000
252.827240	145.500000
252.920105	144.980000
253.012970	144.760000
253.105850	144.800000
253.198715	144.720000
253.291595	144.620000
253.384460	144.420000
253.477341	144.780000
253.570221	144.940000
253.663086	145.060000
253.755966	145.580000
253.848846	145.940000
253.941727	146.060000
254.034592	145.880000
254.127472	145.500000
254.220367	145.160000
254.313248	145.360000
254.406128	145.080000
254.499008	145.340000
254.591904	146.020000
254.684784	146.500000
254.777664	146.420000
254.870544	146.320000
254.963440	146.100000
255.056335	146.060000
255.149216	145.840000
255.242111	146.120000
255.334991	146.680000
255.427887	147.000000
255.520767	146.800000
255.613663	147.160000
255.706558	146.540000
255.799438	145.880000
255.892334	145.580000
255.985229	145.740000
256.078125	145.340000
256.171021	145.560000
256.263916	146.360000
256.356812	146.320000
256.449707	146.460000
256.542603	146.180000
256.635498	146.660000
256.728394	146.100000
256.821289	146.020000
256.914215	146.040000
257.007080	146.500000
257.100006	146.140000
257.192932	146.660000
257.285828	146.940000
257.378723	146.880000
257.471619	146.760000
257.564545	146.540000
257.657440	146.360000
257.750336	146.460000
257.843262	145.980000
257.936157	146.780000
258.029053	146.920000
258.121979	147.060000
258.214874	146.660000
258.307800	146.560000
258.400696	145.240000
258.493622	145.120000
258.586517	144.160000
258.679443	144.500000
258.772339	144.520000
258.865265	144.700000
258.958160	144.220000
259.051086	145.520000
259.144012	145.200000
259.236938	145.920000
259.329834	146.200000
259.422791	146.560000
259.515717	145.800000
259.608612	145.780000
259.701538	145.580000
259.794464	145.260000
259.887390	145.240000
259.980316	145.340000
260.073212	145.160000
260.166138	144.420000
260.259064	144.740000
260.351990	145.420000
260.444916	145.340000
260.537842	145.720000
260.630768	146.680000
260.723694	146.600000
260.816620	146.040000
260.909546	146.180000
261.002472	145.820000
261.095398	145.140000
261.188354	144.960000
261.281281	144.840000
261.374207	144.780000
261.467133	145.740000
261.560089	145.940000
261.653015	145.820000
261.745972	146.380000
261.838867	146.560000
261.931824	146.120000
262.024780	145.560000
262.117706	145.920000
262.210663	145.940000
262.303589	145.860000
262.396515	145.760000
262.489471	147.100000
262.582397	146.880000
262.675354	146.240000
262.768280	146.120000
262.861237	146.240000
262.954163	145.640000
263.047119	145.740000
263.140045	145.980000
263.233002	145.940000
263.325958	145.840000
263.418884	145.400000
263.511841	145.320000
263.604797	145.280000
263.697723	145.400000
263.790680	145.340000
263.883636	145.820000
263.976593	145.620000
264.069550	145.740000
264.162476	145.740000
264.255463	145.720000
264.348419	145.560000
264.441376	145.900000
264.534332	145.260000
264.627289	145.120000
264.720245	145.580000
264.813202	145.200000
264.906158	145.700000
264.999115	146.320000
265.092072	146.160000
265.185028	146.260000
265.277985	146.600000
265.370941	146.260000
265.463898	145.900000
265.556854	145.900000
265.649811	145.160000
265.742798	145.120000
265.835754	144.740000
265.928711	145.480000
266.021667	145.360000
266.114655	145.500000
266.207611	145.680000
266.300568	145.400000
266.393585	144.880000
266.486511	145.460000
266.579498	144.800000
266.672485	144.620000
266.765442	145.000000
266.858429	145.380000
266.951385	144.740000
267.044342	145.380000
267.137329	145.440000
267.230316	145.400000
267.323273	144.960000
267.416260	145.800000
267.509216	145.740000
267.602203	145.700000
267.695160	146.240000
267.788147	146.200000
267.881134	145.560000
267.974091	145.920000
268.067078	145.880000
268.160065	145.440000
268.253052	145.400000
268.346008	145.620000
268.438995	145.320000
268.531982	145.360000
268.624969	145.240000
268.717987	145.800000
268.810944	145.960000
268.903961	145.980000
268.996948	145.740000
269.089905	146.220000
269.182892	145.960000
269.275879	146.020000
269.368866	145.680000
269.461853	146.000000
269.554871	145.760000
269.647858	145.780000
269.740845	145.700000
269.833832	146.280000
269.926819	145.940000
270.019806	146.000000
270.112793	145.620000
270.205811	145.800000
270.298798	145.140000
270.391785	145.680000
270.484772	145.360000
270.577789	145.540000
270.670776	145.100000
270.763763	145.540000
270.856750	145.520000
270.949768	145.460000
271.042786	145.740000
271.135773	145.880000
271.228790	146.160000
271.321808	145.640000
271.414795	145.460000
271.507782	144.940000
271.600800	144.560000
271.693817	144.340000
271.786804	144.920000
271.879822	145.320000
271.972809	145.220000
272.065826	145.840000
272.158844	145.480000
272.251831	145.720000
272.344849	145.780000
272.437866	145.900000
272.530853	145.680000
272.623871	145.860000
272.716888	144.940000
272.809906	145.080000
272.902893	145.120000
272.995911	144.720000
273.088928	144.780000
273.181946	145.280000
273.274963	144.820000
273.367981	144.660000
273.460999	145.060000
273.554047	145.500000
273.647003	145.840000
273.740051	145.940000
273.833069	146.540000
273.926086	146.660000
274.019135	146.140000
274.112152	145.760000
274.205170	145.680000
274.298187	145.720000
274.391205	145.140000
274.484222	145.420000
274.577240	145.500000
274.670258	145.680000
274.763306	145.400000
274.856323	146.100000
274.949341	146.040000
275.042358	146.500000
275.135406	146.360000
275.228424	146.380000
275.321442	146.040000
275.414490	145.900000
275.507507	145.860000
275.600525	146.300000
275.693573	146.040000
275.786591	145.960000
275.879669	146.080000
275.972656	145.480000
276.065735	145.080000
276.158752	145.560000
276.251801	146.260000
276.344818	146.240000
276.437866	146.240000
276.530884	146.220000
276.623932	145.720000
276.716980	145.340000
276.809998	145.640000
276.903046	145.620000
276.996094	146.140000
277.089111	146.800000
277.182159	147.220000
277.275208	146.660000
277.368256	146.580000
277.461304	146.340000
277.554321	145.560000
277.647369	145.440000
277.740417	145.620000
277.833466	145.600000
277.926514	145.500000
278.019562	146.440000
278.112610	145.520000
278.205688	145.700000
278.298706	146.180000
278.391785	145.880000
278.484833	145.220000
278.577881	145.720000
278.670929	146.040000
278.763977	145.920000
278.857025	146.420000
278.950073	146.500000
279.043121	146.260000
279.136169	145.900000
279.229248	145.680000
279.322296	145.560000
279.415344	145.160000
279.508392	145.540000
279.601440	145.460000
279.694519	145.260000
279.787567	145.060000
279.880615	145.020000
279.973694	144.340000
280.066742	144.260000
280.159790	144.640000
280.252869	144.420000
280.345917	144.900000
280.438995	144.920000
280.532074	144.940000
280.625122	145.180000
280.718201	146.260000
280.811279	146.580000
280.904327	146.960000
280.997406	146.960000
281.090454	146.960000
281.183533	146.240000
281.276581	145.620000
281.369659	145.700000
281.462738	145.720000
281.555786	145.520000
281.648865	145.560000
281.741943	145.700000
281.835022	145.920000
281.928070	145.760000
282.021149	145.540000
282.114227	145.460000
282.207306	145.680000
282.300385	145.780000
282.393433	145.960000
282.486511	146.140000
282.579590	146.780000
282.672668	146.900000
282.765747	146.400000
282.858856	145.940000
282.951904	146.040000
283.045013	145.520000
283.138062	145.580000
283.231171	145.860000
283.324249	146.700000
283.417328	146.820000
283.510406	146.580000
283.603485	146.380000
283.696564	146.300000
283.789642	145.900000
283.882751	145.440000
283.975830	146.200000
284.068909	145.780000
284.161987	146.260000
284.255066	146.140000
284.348175	146.500000
284.441254	146.040000
284.534332	146.820000
284.627441	146.160000
284.720520	145.820000
284.813599	145.820000
284.906708	145.820000
284.999786	145.120000
285.092896	145.200000
285.185974	146.600000
285.279053	146.260000
285.372192	146.240000
285.465240	146.820000
285.558380	146.620000
285.651459	145.720000
285.744568	146.340000
285.837677	145.940000
285.930756	145.880000
286.023865	146.100000
286.116943	145.880000
286.210052	145.680000
286.303162	145.760000
286.396240	145.560000
286.489349	145.420000
286.582458	145.740000
286.675568	145.480000
286.768646	145.640000
286.861755	145.920000
286.954865	146.420000
287.047974	145.680000
287.141083	145.560000
287.234161	145.180000
287.327271	144.800000
287.420380	144.800000
287.513519	144.980000
287.606598	145.080000
287.699738	145.580000
287.792816	145.320000
287.885956	145.100000
287.979034	145.300000
288.072174	145.420000
288.165283	145.340000
288.258392	145.680000
288.351501	145.280000
288.444611	145.740000
288.537720	145.860000
288.630859	145.600000
288.723969	145.900000
288.817078	146.380000
288.910187	145.980000
289.003296	145.340000
289.096436	145.240000
289.189545	144.980000
289.282654	144.120000
289.375763	144.280000
289.468903	144.980000
289.562012	145.140000
289.655121	145.220000
289.748260	146.160000
289.841400	146.440000
289.934509	146.160000
290.027649	146.480000
290.120728	146.280000
290.213898	146.180000
290.306976	145.940000
290.400146	146.160000
290.493256	145.720000
290.586395	145.720000
290.679535	145.660000
290.772644	145.460000
290.865784	144.880000
290.958893	144.820000
291.052032	144.900000
291.145172	145.000000
291.238281	144.840000
291.331421	145.180000
291.424561	146.060000
291.517670	145.920000
291.610809	146.100000
291.703949	146.140000
291.797089	146.080000
291.890228	145.600000
291.983337	145.720000
292.076477	145.300000
292.169617	145.500000
292.262756	145.760000
292.355927	145.540000
292.449036	145.080000
292.542206	145.460000
292.635315	145.660000
292.728485	145.720000
292.821625	145.440000
292.914764	146.680000
293.007904	146.360000
293.101044	146.260000
293.194183	146.000000
293.287323	146.300000
293.380463	145.740000
293.473602	145.640000
293.566742	145.720000
293.659882	146.300000
293.753021	146.660000
293.846191	146.340000
293.939331	145.940000
294.032471	145.800000
294.125610	145.240000
294.218781	145.320000
294.311920	145.920000
294.405060	146.400000
294.498230	146.420000
294.591370	146.600000
294.684540	146.060000
294.777679	145.260000
294.870850	145.740000
294.963959	145.860000
295.057159	145.780000
295.150299	145.700000
295.243469	145.980000
295.336609	145.100000
295.429779	145.080000
295.522919	145.400000
295.616089	145.820000
295.709229	146.260000
295.802399	146.700000
295.895569	146.020000
295.988708	145.460000
296.081879	145.520000
296.175018	144.960000
296.268188	144.480000
296.361359	145.520000
296.454529	146.080000
296.547668	145.740000
296.640839	145.820000
296.734009	146.020000
296.827179	145.720000
296.920319	145.520000
297.013519	145.420000
297.106659	145.760000
297.199860	145.880000
297.292999	145.740000
297.386200	145.460000
297.479309	145.420000
297.572510	144.980000
297.665680	144.880000
297.758850	144.960000
297.852020	145.020000
297.945190	145.280000
298.038361	145.020000
298.131531	145.820000
298.224701	145.360000
298.317871	145.040000
298.411072	144.440000
298.504242	144.560000
298.597412	143.980000
298.690582	144.600000
298.783752	144.900000
298.876923	145.580000
298.970093	145.740000
299.063293	145.980000
299.156464	145.980000
299.249634	146.180000
299.342834	146.300000
299.436005	146.640000
299.529205	146.320000
299.622345	146.240000
299.715576	145.560000
299.808716	145.060000
299.901917	144.880000
299.995117	145.160000
300.088287	145.440000
300.181488	145.660000
300.274658	145.820000
300.367828	145.880000
300.461029	145.840000
300.554199	145.560000
300.647400	145.500000
300.740601	145.820000
300.833771	145.760000
300.926971	145.660000
301.020142	145.080000
301.113342	144.920000
301.206512	144.860000
301.299713	144.780000
301.392914	145.200000
301.486084	145.880000
301.579285	146.320000
301.672516	146.500000
301.765686	146.280000
301.858887	145.740000
301.952057	145.380000
302.045288	145.500000
302.138458	145.140000
302.231659	145.080000
302.324860	145.160000
302.418060	145.220000
302.511261	144.860000
302.604462	145.340000
302.697662	145.080000
302.790863	144.860000
302.884064	144.540000
302.977264	144.660000
303.070465	144.460000
303.163666	145.440000
303.256866	145.760000
303.350067	146.100000
303.443268	146.160000
303.536469	146.080000
303.629669	145.720000
303.722870	145.720000
303.816071	145.240000
303.909271	145.220000
304.002472	144.580000
304.095673	144.260000
304.188934	143.760000
304.282104	144.840000
304.375336	144.700000
304.468506	145.120000
304.561768	145.000000
304.654968	145.620000
304.748169	145.060000
304.841370	145.180000
304.934601	145.400000
305.027802	145.280000
305.121002	145.000000
305.214233	144.920000
305.307434	144.840000
305.400665	145.480000
305.493866	145.560000
