Model Number: SPM-002-B   
Serial Number: 70087108
Firmware Version: 004.15.4
Exposure Time: 100000.000000us
Data Taken on: 11-12-2020 18:52:05.550
Wavelength	Amplitude
221.570786	0.000000
221.663406	0.000000
221.756027	0.000000
221.848648	0.000000
221.941269	0.000000
222.033905	0.000000
222.126526	0.000000
222.219162	0.000000
222.311798	0.000000
222.404419	0.000000
222.497055	0.000000
222.589676	0.000000
222.682312	0.000000
222.774933	0.000000
222.867569	0.000000
222.960205	0.000000
223.052841	0.000000
223.145462	0.000000
223.238098	0.000000
223.330734	0.000000
223.423386	0.000000
223.516022	0.000000
223.608658	0.000000
223.701309	0.000000
223.793945	0.000000
223.886581	0.000000
223.979218	0.000000
224.071869	0.000000
224.164505	0.000000
224.257156	0.000000
224.349792	0.000000
224.442444	0.000000
224.535095	0.000000
224.627747	0.000000
224.720398	0.000000
224.813034	0.000000
224.905685	0.000000
224.998337	144.860000
225.090988	144.880000
225.183640	145.080000
225.276291	144.920000
225.368942	145.080000
225.461594	146.040000
225.554245	146.080000
225.646912	145.940000
225.739578	146.360000
225.832230	146.600000
225.924896	145.580000
226.017548	146.060000
226.110199	146.720000
226.202866	146.100000
226.295532	146.060000
226.388184	146.280000
226.480850	145.660000
226.573517	145.040000
226.666168	145.240000
226.758835	145.420000
226.851501	145.680000
226.944183	145.980000
227.036850	145.620000
227.129517	145.740000
227.222183	145.700000
227.314850	145.860000
227.407516	146.040000
227.500198	146.720000
227.592865	146.300000
227.685532	145.740000
227.778214	145.340000
227.870880	145.700000
227.963562	146.000000
228.056229	146.440000
228.148926	146.780000
228.241592	147.400000
228.334274	146.880000
228.426956	146.320000
228.519638	146.580000
228.612305	146.200000
228.704987	146.200000
228.797668	146.280000
228.890350	146.460000
228.983032	145.540000
229.075714	146.460000
229.168396	145.900000
229.261108	145.460000
229.353790	145.360000
229.446472	145.720000
229.539169	145.080000
229.631851	144.940000
229.724533	145.300000
229.817230	145.560000
229.909912	146.560000
230.002609	146.760000
230.095306	146.900000
230.187988	147.300000
230.280685	147.000000
230.373383	145.740000
230.466095	145.600000
230.558792	145.920000
230.651474	145.560000
230.744171	145.440000
230.836868	145.500000
230.929581	145.820000
231.022278	145.380000
231.114975	145.400000
231.207672	145.180000
231.300369	145.740000
231.393082	145.800000
231.485779	146.100000
231.578506	146.140000
231.671204	146.560000
231.763916	146.480000
231.856613	146.420000
231.949326	146.580000
232.042023	146.440000
232.134735	146.300000
232.227448	145.740000
232.320160	145.940000
232.412872	145.800000
232.505585	146.340000
232.598297	146.740000
232.691010	146.960000
232.783722	146.140000
232.876450	146.400000
232.969162	145.740000
233.061874	144.820000
233.154587	144.640000
233.247314	145.200000
233.340027	144.480000
233.432739	144.980000
233.525467	145.240000
233.618179	145.540000
233.710907	145.340000
233.803635	146.100000
233.896347	145.880000
233.989090	146.840000
234.081818	146.760000
234.174545	147.000000
234.267258	146.340000
234.359985	146.500000
234.452713	145.960000
234.545441	145.680000
234.638168	145.380000
234.730896	146.060000
234.823639	145.800000
234.916367	146.160000
235.009094	146.620000
235.101822	146.700000
235.194580	146.380000
235.287308	146.320000
235.380051	145.720000
235.472778	145.880000
235.565521	146.200000
235.658249	145.820000
235.750992	145.860000
235.843719	145.880000
235.936462	145.800000
236.029205	145.220000
236.121948	145.200000
236.214691	145.760000
236.307449	146.460000
236.400192	146.080000
236.492935	146.040000
236.585678	146.240000
236.678421	145.700000
236.771164	145.220000
236.863907	145.640000
236.956665	145.880000
237.049408	147.460000
237.142151	147.160000
237.234909	147.700000
237.327652	147.860000
237.420410	147.740000
237.513153	146.480000
237.605927	146.420000
237.698669	145.800000
237.791428	145.280000
237.884186	145.740000
237.976944	145.500000
238.069702	146.180000
238.162445	146.060000
238.255203	146.200000
238.347961	146.420000
238.440720	146.280000
238.533478	145.920000
238.626266	145.760000
238.719025	145.880000
238.811783	145.460000
238.904541	145.400000
238.997314	145.320000
239.090073	145.280000
239.182831	145.260000
239.275604	146.100000
239.368362	146.200000
239.461136	146.100000
239.553909	146.340000
239.646667	146.200000
239.739441	145.760000
239.832214	146.080000
239.925003	146.500000
240.017761	146.820000
240.110535	147.560000
240.203308	146.780000
240.296082	146.820000
240.388855	146.740000
240.481628	146.760000
240.574417	146.440000
240.667191	146.740000
240.759964	146.300000
240.852737	145.880000
240.945526	145.560000
241.038315	145.420000
241.131088	145.380000
241.223877	145.840000
241.316650	145.680000
241.409439	146.080000
241.502228	145.540000
241.595001	146.120000
241.687790	145.980000
241.780579	146.400000
241.873367	146.280000
241.966141	146.720000
242.058929	145.900000
242.151718	146.000000
242.244507	146.420000
242.337311	145.940000
242.430099	146.320000
242.522903	146.780000
242.615692	146.100000
242.708481	145.880000
242.801270	146.040000
242.894073	145.960000
242.986862	146.100000
243.079651	146.700000
243.172455	146.320000
243.265244	146.780000
243.358063	146.200000
243.450867	146.420000
243.543655	146.400000
243.636459	146.760000
243.729263	146.920000
243.822067	147.060000
243.914856	146.940000
244.007660	147.300000
244.100464	147.220000
244.193268	146.620000
244.286072	146.720000
244.378876	146.340000
244.471680	145.760000
244.564499	146.000000
244.657318	146.640000
244.750122	146.860000
244.842926	146.400000
244.935745	146.940000
245.028549	146.340000
245.121368	145.720000
245.214172	145.600000
245.306992	146.000000
245.399796	145.640000
245.492615	146.180000
245.585434	146.000000
245.678253	145.980000
245.771072	146.140000
245.863892	146.300000
245.956711	146.160000
246.049530	146.360000
246.142349	146.200000
246.235168	146.080000
246.327988	146.860000
246.420807	146.700000
246.513626	146.520000
246.606445	146.200000
246.699280	146.140000
246.792099	145.500000
246.884918	145.180000
246.977753	145.120000
247.070587	145.480000
247.163422	145.500000
247.256241	145.220000
247.349075	145.700000
247.441895	145.840000
247.534729	145.740000
247.627563	145.600000
247.720383	146.300000
247.813217	146.360000
247.906052	146.440000
247.998886	146.620000
248.091736	146.460000
248.184570	145.720000
248.277405	145.300000
248.370239	145.900000
248.463074	146.740000
248.555908	147.360000
248.648743	147.240000
248.741592	147.480000
248.834427	146.640000
248.927261	145.300000
249.020111	145.300000
249.112946	145.960000
249.205795	145.740000
249.298630	146.240000
249.391495	146.640000
249.484344	146.480000
249.577179	146.480000
249.670029	146.860000
249.762878	147.260000
249.855728	147.400000
249.948563	147.280000
250.041412	146.180000
250.134262	146.380000
250.227112	146.200000
250.319962	146.080000
250.412827	146.100000
250.505692	146.180000
250.598541	145.760000
250.691391	145.360000
250.784241	145.340000
250.877106	145.480000
250.969955	145.620000
251.062805	146.000000
251.155670	146.460000
251.248520	146.100000
251.341385	146.180000
251.434235	146.120000
251.527100	145.760000
251.619965	145.060000
251.712814	146.020000
251.805695	145.840000
251.898560	146.140000
251.991425	146.560000
252.084290	146.880000
252.177155	145.880000
252.270020	145.720000
252.362885	145.540000
252.455750	145.320000
252.548615	144.920000
252.641479	145.080000
252.734360	145.100000
252.827240	145.300000
252.920105	145.320000
253.012970	145.580000
253.105850	145.840000
253.198715	145.660000
253.291595	145.620000
253.384460	144.920000
253.477341	145.140000
253.570221	145.280000
253.663086	145.140000
253.755966	145.900000
253.848846	146.220000
253.941727	146.200000
254.034592	145.900000
254.127472	145.760000
254.220367	145.240000
254.313248	145.260000
254.406128	144.880000
254.499008	145.040000
254.591904	146.160000
254.684784	146.460000
254.777664	146.620000
254.870544	146.360000
254.963440	146.220000
255.056335	145.800000
255.149216	145.360000
255.242111	145.800000
255.334991	146.040000
255.427887	146.480000
255.520767	146.500000
255.613663	146.800000
255.706558	146.200000
255.799438	146.180000
255.892334	145.620000
255.985229	145.540000
256.078125	145.460000
256.171021	145.420000
256.263916	145.620000
256.356812	145.840000
256.449707	145.600000
256.542603	145.280000
256.635498	146.060000
256.728394	146.060000
256.821289	145.940000
256.914215	146.480000
257.007080	146.940000
257.100006	146.640000
257.192932	147.020000
257.285828	147.200000
257.378723	146.880000
257.471619	146.300000
257.564545	145.600000
257.657440	145.300000
257.750336	145.740000
257.843262	145.200000
257.936157	146.540000
258.029053	147.160000
258.121979	147.180000
258.214874	146.740000
258.307800	146.840000
258.400696	145.520000
258.493622	145.460000
258.586517	144.840000
258.679443	145.160000
258.772339	144.820000
258.865265	144.940000
258.958160	144.500000
259.051086	145.560000
259.144012	145.240000
259.236938	146.360000
259.329834	146.600000
259.422791	146.540000
259.515717	145.660000
259.608612	145.460000
259.701538	145.320000
259.794464	144.940000
259.887390	144.960000
259.980316	144.820000
260.073212	144.640000
260.166138	143.600000
260.259064	144.200000
260.351990	145.040000
260.444916	145.580000
260.537842	145.940000
260.630768	146.800000
260.723694	146.380000
260.816620	146.100000
260.909546	145.720000
261.002472	145.440000
261.095398	144.960000
261.188354	144.920000
261.281281	144.260000
261.374207	144.600000
261.467133	145.500000
261.560089	145.680000
261.653015	145.680000
261.745972	146.580000
261.838867	147.000000
261.931824	146.840000
262.024780	146.460000
262.117706	146.740000
262.210663	146.660000
262.303589	146.140000
262.396515	146.000000
262.489471	147.000000
262.582397	146.560000
262.675354	146.080000
262.768280	146.360000
262.861237	146.240000
262.954163	145.960000
263.047119	146.460000
263.140045	146.120000
263.233002	145.880000
263.325958	146.020000
263.418884	145.540000
263.511841	145.300000
263.604797	145.680000
263.697723	145.520000
263.790680	145.320000
263.883636	146.260000
263.976593	145.880000
264.069550	146.020000
264.162476	146.100000
264.255463	146.060000
264.348419	145.280000
264.441376	145.680000
264.534332	145.300000
264.627289	145.540000
264.720245	145.820000
264.813202	145.700000
264.906158	146.060000
264.999115	146.680000
265.092072	146.620000
265.185028	147.040000
265.277985	147.220000
265.370941	146.800000
265.463898	146.120000
265.556854	145.900000
265.649811	144.800000
265.742798	144.880000
265.835754	145.320000
265.928711	145.980000
266.021667	145.940000
266.114655	146.620000
266.207611	146.700000
266.300568	145.900000
266.393585	145.500000
266.486511	146.140000
266.579498	145.340000
266.672485	145.260000
266.765442	145.300000
266.858429	145.720000
266.951385	144.900000
267.044342	145.240000
267.137329	145.140000
267.230316	145.600000
267.323273	145.280000
267.416260	146.060000
267.509216	145.860000
267.602203	145.980000
267.695160	146.300000
267.788147	146.380000
267.881134	145.560000
267.974091	145.940000
268.067078	145.500000
268.160065	144.880000
268.253052	144.660000
268.346008	144.900000
268.438995	144.420000
268.531982	144.900000
268.624969	145.000000
268.717987	145.580000
268.810944	145.560000
268.903961	145.820000
268.996948	145.700000
269.089905	145.800000
269.182892	145.760000
269.275879	146.300000
269.368866	146.120000
269.461853	146.000000
269.554871	146.000000
269.647858	145.680000
269.740845	145.640000
269.833832	146.080000
269.926819	145.820000
270.019806	145.860000
270.112793	145.380000
270.205811	145.520000
270.298798	145.260000
270.391785	146.120000
270.484772	146.000000
270.577789	146.340000
270.670776	145.520000
270.763763	145.520000
270.856750	144.960000
270.949768	144.760000
271.042786	144.780000
271.135773	145.200000
271.228790	145.420000
271.321808	145.260000
271.414795	144.960000
271.507782	144.840000
271.600800	144.260000
271.693817	144.540000
271.786804	144.940000
271.879822	145.560000
271.972809	145.520000
272.065826	146.380000
272.158844	145.620000
272.251831	146.300000
272.344849	145.820000
272.437866	145.640000
272.530853	145.380000
272.623871	145.740000
272.716888	144.540000
272.809906	145.400000
272.902893	145.620000
272.995911	145.080000
273.088928	144.900000
273.181946	144.900000
273.274963	144.260000
273.367981	144.420000
273.460999	144.820000
273.554047	145.300000
273.647003	146.320000
273.740051	146.380000
273.833069	146.480000
273.926086	146.600000
274.019135	146.320000
274.112152	145.900000
274.205170	146.040000
274.298187	146.140000
274.391205	145.800000
274.484222	145.800000
274.577240	145.620000
274.670258	145.540000
274.763306	145.340000
274.856323	146.000000
274.949341	146.200000
275.042358	146.740000
275.135406	146.400000
275.228424	146.460000
275.321442	146.180000
275.414490	145.940000
275.507507	145.840000
275.600525	146.440000
275.693573	146.180000
275.786591	145.900000
275.879669	146.140000
275.972656	145.680000
276.065735	145.240000
276.158752	145.720000
276.251801	146.140000
276.344818	146.160000
276.437866	146.220000
276.530884	146.160000
276.623932	145.440000
276.716980	145.700000
276.809998	145.820000
276.903046	145.720000
276.996094	146.700000
277.089111	147.600000
277.182159	147.980000
277.275208	147.460000
277.368256	147.500000
277.461304	146.900000
277.554321	146.320000
277.647369	146.060000
277.740417	146.220000
277.833466	146.140000
277.926514	146.040000
278.019562	146.400000
278.112610	145.560000
278.205688	145.780000
278.298706	146.160000
278.391785	145.940000
278.484833	145.440000
278.577881	145.580000
278.670929	145.640000
278.763977	145.760000
278.857025	146.400000
278.950073	146.500000
279.043121	146.380000
279.136169	146.340000
279.229248	145.920000
279.322296	145.660000
279.415344	145.400000
279.508392	145.560000
279.601440	145.260000
279.694519	145.500000
279.787567	145.320000
279.880615	145.600000
279.973694	145.480000
280.066742	145.660000
280.159790	145.740000
280.252869	145.820000
280.345917	145.920000
280.438995	145.980000
280.532074	145.660000
280.625122	145.840000
280.718201	146.620000
280.811279	146.540000
280.904327	146.640000
280.997406	147.260000
281.090454	146.940000
281.183533	146.160000
281.276581	146.180000
281.369659	146.180000
281.462738	146.020000
281.555786	146.240000
281.648865	146.360000
281.741943	146.400000
281.835022	146.700000
281.928070	146.460000
282.021149	146.200000
282.114227	146.020000
282.207306	145.900000
282.300385	146.180000
282.393433	146.300000
282.486511	146.260000
282.579590	146.500000
282.672668	146.840000
282.765747	145.940000
282.858856	145.680000
282.951904	145.800000
283.045013	145.860000
283.138062	145.960000
283.231171	146.400000
283.324249	146.760000
283.417328	146.720000
283.510406	146.680000
283.603485	146.300000
283.696564	146.280000
283.789642	146.460000
283.882751	146.200000
283.975830	146.640000
284.068909	146.600000
284.161987	147.040000
284.255066	146.320000
284.348175	146.740000
284.441254	146.320000
284.534332	146.600000
284.627441	146.100000
284.720520	146.160000
284.813599	146.160000
284.906708	146.320000
284.999786	145.620000
285.092896	145.380000
285.185974	146.300000
285.279053	145.680000
285.372192	145.520000
285.465240	146.520000
285.558380	146.300000
285.651459	145.640000
285.744568	146.800000
285.837677	146.380000
285.930756	145.840000
286.023865	146.060000
286.116943	146.100000
286.210052	145.480000
286.303162	145.520000
286.396240	145.560000
286.489349	145.660000
286.582458	145.940000
286.675568	145.880000
286.768646	145.960000
286.861755	146.280000
286.954865	146.800000
287.047974	146.120000
287.141083	145.980000
287.234161	145.700000
287.327271	145.460000
287.420380	145.700000
287.513519	145.940000
287.606598	146.000000
287.699738	146.360000
287.792816	146.200000
287.885956	145.860000
287.979034	145.700000
288.072174	145.660000
288.165283	145.540000
288.258392	145.700000
288.351501	144.980000
288.444611	145.080000
288.537720	145.280000
288.630859	145.240000
288.723969	145.280000
288.817078	145.740000
288.910187	146.140000
289.003296	145.780000
289.096436	145.540000
289.189545	145.440000
289.282654	145.020000
289.375763	145.160000
289.468903	145.860000
289.562012	146.340000
289.655121	146.520000
289.748260	147.080000
289.841400	147.120000
289.934509	146.720000
290.027649	146.840000
290.120728	146.380000
290.213898	146.220000
290.306976	145.800000
290.400146	146.180000
290.493256	145.620000
290.586395	145.980000
290.679535	146.240000
290.772644	146.140000
290.865784	145.200000
290.958893	145.320000
291.052032	145.340000
291.145172	144.900000
291.238281	144.860000
291.331421	144.740000
291.424561	145.200000
291.517670	144.700000
291.610809	145.140000
291.703949	145.120000
291.797089	145.920000
291.890228	145.520000
291.983337	145.740000
292.076477	145.540000
292.169617	145.680000
292.262756	145.640000
292.355927	145.640000
292.449036	145.520000
292.542206	145.800000
292.635315	146.100000
292.728485	146.160000
292.821625	146.100000
292.914764	147.220000
293.007904	147.160000
293.101044	146.940000
293.194183	146.760000
293.287323	146.940000
293.380463	146.260000
293.473602	146.040000
293.566742	146.080000
293.659882	146.480000
293.753021	146.400000
293.846191	146.400000
293.939331	146.120000
294.032471	146.140000
294.125610	145.620000
294.218781	146.120000
294.311920	146.400000
294.405060	146.340000
294.498230	146.200000
294.591370	146.260000
294.684540	145.540000
294.777679	144.900000
294.870850	145.180000
294.963959	145.140000
295.057159	144.940000
295.150299	145.340000
295.243469	145.240000
295.336609	145.020000
295.429779	145.240000
295.522919	145.800000
295.616089	145.900000
295.709229	146.800000
295.802399	147.100000
295.895569	146.700000
295.988708	146.380000
296.081879	146.160000
296.175018	145.540000
296.268188	145.180000
296.361359	145.580000
296.454529	145.660000
296.547668	145.660000
296.640839	145.920000
296.734009	146.040000
296.827179	146.000000
296.920319	145.900000
297.013519	145.860000
297.106659	145.920000
297.199860	145.640000
297.292999	145.720000
297.386200	145.820000
297.479309	145.580000
297.572510	145.240000
297.665680	145.180000
297.758850	145.160000
297.852020	145.180000
297.945190	145.080000
298.038361	144.900000
298.131531	146.120000
298.224701	146.060000
298.317871	145.620000
298.411072	145.280000
298.504242	145.140000
298.597412	144.280000
298.690582	144.480000
298.783752	144.660000
298.876923	145.520000
298.970093	146.060000
299.063293	146.640000
299.156464	146.700000
299.249634	147.080000
299.342834	146.880000
299.436005	147.020000
299.529205	146.660000
299.622345	146.320000
299.715576	145.720000
299.808716	145.760000
299.901917	145.700000
299.995117	146.080000
300.088287	146.300000
300.181488	146.200000
300.274658	146.020000
300.367828	145.680000
300.461029	145.480000
300.554199	145.360000
300.647400	145.340000
300.740601	145.700000
300.833771	145.520000
300.926971	145.500000
301.020142	145.500000
301.113342	145.800000
301.206512	145.900000
301.299713	146.240000
301.392914	146.220000
301.486084	146.460000
301.579285	146.420000
301.672516	146.620000
301.765686	146.500000
301.858887	146.100000
301.952057	145.860000
302.045288	145.700000
302.138458	145.300000
302.231659	145.240000
302.324860	145.660000
302.418060	145.460000
302.511261	145.700000
302.604462	145.920000
302.697662	145.880000
302.790863	145.560000
302.884064	145.360000
302.977264	145.300000
303.070465	145.620000
303.163666	146.220000
303.256866	146.540000
303.350067	146.600000
303.443268	146.580000
303.536469	146.420000
303.629669	145.800000
303.722870	145.960000
303.816071	145.860000
303.909271	145.820000
304.002472	145.220000
304.095673	145.300000
304.188934	144.200000
304.282104	145.260000
304.375336	145.560000
304.468506	145.640000
304.561768	145.580000
304.654968	146.340000
304.748169	145.480000
304.841370	145.280000
304.934601	145.720000
305.027802	145.420000
305.121002	145.200000
305.214233	145.420000
305.307434	145.320000
305.400665	145.500000
305.493866	145.820000
