Model Number: SPM-002-B   
Serial Number: 70087108
Firmware Version: 004.15.4
Exposure Time: 100000.000000us
Data Taken on: 11-12-2020 18:52:20.542
Wavelength	Amplitude
221.570786	0.000000
221.663406	0.000000
221.756027	0.000000
221.848648	0.000000
221.941269	0.000000
222.033905	0.000000
222.126526	0.000000
222.219162	0.000000
222.311798	0.000000
222.404419	0.000000
222.497055	0.000000
222.589676	0.000000
222.682312	0.000000
222.774933	0.000000
222.867569	0.000000
222.960205	0.000000
223.052841	0.000000
223.145462	0.000000
223.238098	0.000000
223.330734	0.000000
223.423386	0.000000
223.516022	0.000000
223.608658	0.000000
223.701309	0.000000
223.793945	0.000000
223.886581	0.000000
223.979218	0.000000
224.071869	0.000000
224.164505	0.000000
224.257156	0.000000
224.349792	0.000000
224.442444	0.000000
224.535095	0.000000
224.627747	0.000000
224.720398	0.000000
224.813034	0.000000
224.905685	0.000000
224.998337	146.040000
225.090988	145.420000
225.183640	145.120000
225.276291	144.640000
225.368942	145.420000
225.461594	145.640000
225.554245	145.940000
225.646912	146.360000
225.739578	147.400000
225.832230	147.240000
225.924896	146.460000
226.017548	146.900000
226.110199	147.280000
226.202866	146.360000
226.295532	146.280000
226.388184	146.240000
226.480850	145.500000
226.573517	144.840000
226.666168	145.220000
226.758835	145.740000
226.851501	146.500000
226.944183	146.840000
227.036850	146.720000
227.129517	146.760000
227.222183	146.900000
227.314850	146.660000
227.407516	146.760000
227.500198	147.520000
227.592865	147.300000
227.685532	146.620000
227.778214	146.300000
227.870880	146.620000
227.963562	146.920000
228.056229	147.300000
228.148926	147.100000
228.241592	147.980000
228.334274	147.440000
228.426956	146.860000
228.519638	147.060000
228.612305	146.960000
228.704987	146.740000
228.797668	146.980000
228.890350	146.740000
228.983032	146.160000
229.075714	146.920000
229.168396	146.400000
229.261108	146.000000
229.353790	146.000000
229.446472	146.580000
229.539169	146.120000
229.631851	145.940000
229.724533	146.240000
229.817230	146.780000
229.909912	147.080000
230.002609	147.260000
230.095306	147.420000
230.187988	147.400000
230.280685	146.800000
230.373383	146.080000
230.466095	146.180000
230.558792	146.320000
230.651474	146.340000
230.744171	146.420000
230.836868	146.000000
230.929581	146.060000
231.022278	146.080000
231.114975	145.900000
231.207672	145.960000
231.300369	146.640000
231.393082	146.820000
231.485779	146.760000
231.578506	147.080000
231.671204	147.380000
231.763916	147.280000
231.856613	146.820000
231.949326	146.980000
232.042023	146.640000
232.134735	146.380000
232.227448	145.880000
232.320160	146.220000
232.412872	146.160000
232.505585	147.320000
232.598297	147.660000
232.691010	147.780000
232.783722	147.560000
232.876450	148.140000
232.969162	147.200000
233.061874	146.700000
233.154587	146.400000
233.247314	146.300000
233.340027	145.660000
233.432739	145.920000
233.525467	146.000000
233.618179	146.460000
233.710907	146.340000
233.803635	146.460000
233.896347	146.200000
233.989090	146.820000
234.081818	146.560000
234.174545	146.940000
234.267258	146.400000
234.359985	146.660000
234.452713	146.360000
234.545441	146.560000
234.638168	146.140000
234.730896	146.760000
234.823639	146.620000
234.916367	146.380000
235.009094	146.380000
235.101822	146.560000
235.194580	146.460000
235.287308	146.240000
235.380051	146.100000
235.472778	146.300000
235.565521	146.460000
235.658249	146.140000
235.750992	146.080000
235.843719	145.960000
235.936462	145.920000
236.029205	145.480000
236.121948	145.260000
236.214691	145.760000
236.307449	146.480000
236.400192	146.340000
236.492935	146.180000
236.585678	146.380000
236.678421	146.240000
236.771164	145.880000
236.863907	146.200000
236.956665	146.580000
237.049408	148.340000
237.142151	147.660000
237.234909	148.460000
237.327652	148.280000
237.420410	148.040000
237.513153	146.940000
237.605927	147.340000
237.698669	146.540000
237.791428	146.020000
237.884186	146.720000
237.976944	146.020000
238.069702	146.400000
238.162445	146.220000
238.255203	146.580000
238.347961	146.740000
238.440720	146.960000
238.533478	146.620000
238.626266	146.620000
238.719025	146.700000
238.811783	146.580000
238.904541	146.540000
238.997314	146.320000
239.090073	146.140000
239.182831	146.200000
239.275604	146.700000
239.368362	146.460000
239.461136	147.140000
239.553909	147.160000
239.646667	146.960000
239.739441	146.220000
239.832214	146.760000
239.925003	146.240000
240.017761	147.060000
240.110535	147.760000
240.203308	147.440000
240.296082	147.420000
240.388855	147.580000
240.481628	147.300000
240.574417	147.300000
240.667191	147.760000
240.759964	147.300000
240.852737	147.020000
240.945526	146.640000
241.038315	146.180000
241.131088	145.880000
241.223877	146.380000
241.316650	146.460000
241.409439	146.940000
241.502228	146.640000
241.595001	147.220000
241.687790	146.940000
241.780579	147.020000
241.873367	146.900000
241.966141	147.340000
242.058929	146.600000
242.151718	146.840000
242.244507	147.300000
242.337311	146.700000
242.430099	147.140000
242.522903	147.500000
242.615692	146.840000
242.708481	146.540000
242.801270	147.160000
242.894073	146.480000
242.986862	146.480000
243.079651	147.240000
243.172455	147.000000
243.265244	146.880000
243.358063	146.840000
243.450867	147.200000
243.543655	146.680000
243.636459	146.580000
243.729263	146.840000
243.822067	147.100000
243.914856	146.940000
244.007660	147.100000
244.100464	147.180000
244.193268	146.540000
244.286072	146.040000
244.378876	145.380000
244.471680	145.160000
244.564499	145.720000
244.657318	146.400000
244.750122	146.940000
244.842926	146.860000
244.935745	147.360000
245.028549	146.700000
245.121368	146.200000
245.214172	146.120000
245.306992	146.740000
245.399796	146.240000
245.492615	146.600000
245.585434	146.680000
245.678253	146.660000
245.771072	146.260000
245.863892	146.720000
245.956711	146.820000
246.049530	146.620000
246.142349	146.260000
246.235168	146.500000
246.327988	147.000000
246.420807	146.560000
246.513626	146.800000
246.606445	146.840000
246.699280	147.000000
246.792099	146.580000
246.884918	146.460000
246.977753	145.980000
247.070587	146.040000
247.163422	145.780000
247.256241	145.700000
247.349075	146.320000
247.441895	146.520000
247.534729	146.740000
247.627563	146.580000
247.720383	146.920000
247.813217	147.000000
247.906052	147.080000
247.998886	146.920000
248.091736	147.060000
248.184570	146.600000
248.277405	146.220000
248.370239	147.100000
248.463074	148.400000
248.555908	148.560000
248.648743	148.520000
248.741592	148.820000
248.834427	147.980000
248.927261	146.260000
249.020111	146.580000
249.112946	147.320000
249.205795	146.640000
249.298630	147.080000
249.391495	147.400000
249.484344	146.940000
249.577179	146.900000
249.670029	147.460000
249.762878	147.780000
249.855728	148.400000
249.948563	148.520000
250.041412	147.440000
250.134262	147.580000
250.227112	147.180000
250.319962	146.840000
250.412827	146.760000
250.505692	146.780000
250.598541	146.520000
250.691391	146.060000
250.784241	145.960000
250.877106	146.040000
250.969955	146.180000
251.062805	146.500000
251.155670	147.160000
251.248520	147.080000
251.341385	146.940000
251.434235	147.080000
251.527100	146.540000
251.619965	146.060000
251.712814	146.720000
251.805695	147.000000
251.898560	146.980000
251.991425	147.120000
252.084290	147.360000
252.177155	146.660000
252.270020	146.120000
252.362885	146.100000
252.455750	146.180000
252.548615	145.900000
252.641479	146.100000
252.734360	146.100000
252.827240	145.780000
252.920105	145.920000
253.012970	145.940000
253.105850	145.820000
253.198715	145.720000
253.291595	146.200000
253.384460	145.660000
253.477341	145.500000
253.570221	145.520000
253.663086	145.560000
253.755966	145.900000
253.848846	146.020000
253.941727	146.260000
254.034592	146.300000
254.127472	145.920000
254.220367	145.960000
254.313248	146.600000
254.406128	146.240000
254.499008	146.660000
254.591904	147.800000
254.684784	148.080000
254.777664	147.720000
254.870544	147.520000
254.963440	147.020000
255.056335	146.720000
255.149216	145.940000
255.242111	146.320000
255.334991	146.820000
255.427887	147.020000
255.520767	146.940000
255.613663	147.360000
255.706558	146.780000
255.799438	146.420000
255.892334	146.040000
255.985229	146.100000
256.078125	145.640000
256.171021	145.820000
256.263916	146.600000
256.356812	146.960000
256.449707	146.900000
256.542603	147.020000
256.635498	147.440000
256.728394	146.900000
256.821289	146.800000
256.914215	147.060000
257.007080	147.480000
257.100006	147.240000
257.192932	147.900000
257.285828	148.040000
257.378723	147.780000
257.471619	147.480000
257.564545	146.980000
257.657440	146.740000
257.750336	146.880000
257.843262	146.680000
257.936157	147.600000
258.029053	148.200000
258.121979	148.320000
258.214874	148.060000
258.307800	147.960000
258.400696	146.820000
258.493622	146.900000
258.586517	146.060000
258.679443	146.400000
258.772339	146.400000
258.865265	146.420000
258.958160	145.880000
259.051086	146.700000
259.144012	146.420000
259.236938	147.160000
259.329834	147.300000
259.422791	147.200000
259.515717	146.620000
259.608612	146.340000
259.701538	146.040000
259.794464	145.540000
259.887390	145.560000
259.980316	145.460000
260.073212	145.620000
260.166138	144.800000
260.259064	145.520000
260.351990	146.180000
260.444916	146.480000
260.537842	146.620000
260.630768	147.400000
260.723694	147.380000
260.816620	146.960000
260.909546	146.940000
261.002472	146.340000
261.095398	145.780000
261.188354	145.800000
261.281281	145.560000
261.374207	145.560000
261.467133	146.560000
261.560089	147.200000
261.653015	146.780000
261.745972	147.340000
261.838867	147.740000
261.931824	147.540000
262.024780	146.740000
262.117706	147.080000
262.210663	147.020000
262.303589	146.680000
262.396515	146.760000
262.489471	147.880000
262.582397	147.580000
262.675354	147.320000
262.768280	147.220000
262.861237	147.340000
262.954163	147.120000
263.047119	147.180000
263.140045	147.000000
263.233002	147.060000
263.325958	146.780000
263.418884	146.340000
263.511841	146.620000
263.604797	146.720000
263.697723	147.060000
263.790680	146.900000
263.883636	147.220000
263.976593	146.920000
264.069550	147.320000
264.162476	146.740000
264.255463	146.920000
264.348419	146.640000
264.441376	146.960000
264.534332	146.440000
264.627289	146.800000
264.720245	147.060000
264.813202	146.800000
264.906158	147.000000
264.999115	147.440000
265.092072	146.940000
265.185028	147.140000
265.277985	147.400000
265.370941	146.800000
265.463898	146.460000
265.556854	146.480000
265.649811	145.600000
265.742798	145.460000
265.835754	145.600000
265.928711	146.260000
266.021667	146.720000
266.114655	146.840000
266.207611	147.280000
266.300568	146.960000
266.393585	146.000000
266.486511	146.080000
266.579498	145.400000
266.672485	145.140000
266.765442	145.260000
266.858429	146.260000
266.951385	145.640000
267.044342	146.420000
267.137329	146.380000
267.230316	146.700000
267.323273	145.980000
267.416260	147.060000
267.509216	146.860000
267.602203	146.840000
267.695160	147.300000
267.788147	147.540000
267.881134	146.800000
267.974091	147.140000
268.067078	147.040000
268.160065	146.380000
268.253052	146.100000
268.346008	146.080000
268.438995	145.760000
268.531982	146.160000
268.624969	145.940000
268.717987	146.280000
268.810944	146.420000
268.903961	146.600000
268.996948	146.140000
269.089905	146.860000
269.182892	146.960000
269.275879	147.220000
269.368866	146.740000
269.461853	146.900000
269.554871	146.620000
269.647858	146.540000
269.740845	146.680000
269.833832	147.280000
269.926819	147.140000
270.019806	147.240000
270.112793	146.840000
270.205811	146.880000
270.298798	146.560000
270.391785	147.000000
270.484772	146.480000
270.577789	146.760000
270.670776	146.220000
270.763763	146.260000
270.856750	145.760000
270.949768	145.700000
271.042786	145.680000
271.135773	145.680000
271.228790	146.040000
271.321808	146.160000
271.414795	145.900000
271.507782	145.680000
271.600800	145.420000
271.693817	145.560000
271.786804	145.980000
271.879822	146.880000
271.972809	146.660000
272.065826	147.320000
272.158844	146.560000
272.251831	146.920000
272.344849	146.480000
272.437866	146.480000
272.530853	146.300000
272.623871	146.720000
272.716888	145.700000
272.809906	146.120000
272.902893	146.200000
272.995911	145.840000
273.088928	145.840000
273.181946	146.260000
273.274963	145.880000
273.367981	145.700000
273.460999	146.160000
273.554047	146.620000
273.647003	146.900000
273.740051	146.820000
273.833069	147.420000
273.926086	147.060000
274.019135	146.400000
274.112152	146.180000
274.205170	146.340000
274.298187	146.540000
274.391205	146.120000
274.484222	146.520000
274.577240	146.620000
274.670258	146.560000
274.763306	146.040000
274.856323	147.000000
274.949341	146.920000
275.042358	147.120000
275.135406	146.940000
275.228424	147.080000
275.321442	146.580000
275.414490	145.880000
275.507507	145.940000
275.600525	146.380000
275.693573	145.960000
275.786591	145.900000
275.879669	146.380000
275.972656	146.020000
276.065735	145.960000
276.158752	146.860000
276.251801	147.500000
276.344818	147.700000
276.437866	147.740000
276.530884	147.480000
276.623932	146.460000
276.716980	146.320000
276.809998	146.120000
276.903046	146.260000
276.996094	146.700000
277.089111	147.520000
277.182159	147.880000
277.275208	147.700000
277.368256	147.280000
277.461304	147.100000
277.554321	146.120000
277.647369	145.880000
277.740417	146.200000
277.833466	146.480000
277.926514	146.380000
278.019562	147.420000
278.112610	146.540000
278.205688	146.680000
278.298706	146.640000
278.391785	146.400000
278.484833	145.880000
278.577881	146.060000
278.670929	146.160000
278.763977	146.100000
278.857025	146.580000
278.950073	146.780000
279.043121	147.060000
279.136169	146.780000
279.229248	146.460000
279.322296	146.480000
279.415344	146.000000
279.508392	145.740000
279.601440	145.600000
279.694519	145.860000
279.787567	145.060000
279.880615	145.420000
279.973694	145.400000
280.066742	145.660000
280.159790	145.800000
280.252869	145.960000
280.345917	145.840000
280.438995	145.820000
280.532074	145.460000
280.625122	145.520000
280.718201	146.640000
280.811279	146.780000
280.904327	146.720000
280.997406	147.060000
281.090454	147.100000
281.183533	146.080000
281.276581	145.960000
281.369659	146.120000
281.462738	146.100000
281.555786	146.240000
281.648865	146.600000
281.741943	146.560000
281.835022	146.960000
281.928070	146.740000
282.021149	146.360000
282.114227	146.360000
282.207306	146.400000
282.300385	146.240000
282.393433	146.460000
282.486511	146.700000
282.579590	146.980000
282.672668	147.400000
282.765747	147.180000
282.858856	146.640000
282.951904	146.720000
283.045013	146.700000
283.138062	146.880000
283.231171	147.180000
283.324249	147.980000
283.417328	147.760000
283.510406	147.180000
283.603485	146.740000
283.696564	146.340000
283.789642	145.900000
283.882751	145.820000
283.975830	146.720000
284.068909	146.540000
284.161987	147.340000
284.255066	147.000000
284.348175	147.100000
284.441254	146.760000
284.534332	147.260000
284.627441	146.820000
284.720520	146.800000
284.813599	146.760000
284.906708	146.780000
284.999786	146.180000
285.092896	145.620000
285.185974	146.820000
285.279053	146.400000
285.372192	146.480000
285.465240	147.180000
285.558380	147.720000
285.651459	146.960000
285.744568	148.080000
285.837677	147.700000
285.930756	147.560000
286.023865	147.100000
286.116943	146.780000
286.210052	146.460000
286.303162	146.300000
286.396240	146.380000
286.489349	146.200000
286.582458	146.480000
286.675568	146.080000
286.768646	146.120000
286.861755	146.140000
286.954865	147.180000
287.047974	146.840000
287.141083	146.720000
287.234161	146.580000
287.327271	146.160000
287.420380	145.980000
287.513519	146.000000
287.606598	146.140000
287.699738	146.620000
287.792816	146.600000
287.885956	146.540000
287.979034	146.760000
288.072174	146.660000
288.165283	146.480000
288.258392	146.860000
288.351501	146.300000
288.444611	146.380000
288.537720	147.000000
288.630859	147.120000
288.723969	147.120000
288.817078	147.520000
288.910187	147.320000
289.003296	146.420000
289.096436	145.960000
289.189545	145.660000
289.282654	145.200000
289.375763	145.920000
289.468903	146.680000
289.562012	147.280000
289.655121	147.320000
289.748260	147.760000
289.841400	147.360000
289.934509	147.060000
290.027649	146.840000
290.120728	146.440000
290.213898	146.080000
290.306976	145.820000
290.400146	145.840000
290.493256	145.260000
290.586395	145.820000
290.679535	146.160000
290.772644	145.980000
290.865784	145.460000
290.958893	145.800000
291.052032	145.700000
291.145172	145.720000
291.238281	145.680000
291.331421	146.180000
291.424561	146.600000
291.517670	146.180000
291.610809	146.180000
291.703949	146.460000
291.797089	146.080000
291.890228	145.480000
291.983337	145.820000
292.076477	145.400000
292.169617	145.820000
292.262756	146.140000
292.355927	146.100000
292.449036	145.600000
292.542206	146.120000
292.635315	146.060000
292.728485	146.160000
292.821625	146.160000
292.914764	147.440000
293.007904	147.260000
293.101044	147.060000
293.194183	146.900000
293.287323	147.040000
293.380463	146.240000
293.473602	146.120000
293.566742	146.380000
293.659882	146.960000
293.753021	147.300000
293.846191	147.320000
293.939331	147.120000
294.032471	146.860000
294.125610	146.420000
294.218781	146.660000
294.311920	146.960000
294.405060	147.160000
294.498230	146.960000
294.591370	146.860000
294.684540	145.960000
294.777679	145.340000
294.870850	145.640000
294.963959	145.540000
295.057159	145.440000
295.150299	145.900000
295.243469	146.080000
295.336609	145.620000
295.429779	145.960000
295.522919	146.260000
295.616089	146.440000
295.709229	147.100000
295.802399	147.360000
295.895569	146.920000
295.988708	146.640000
296.081879	146.760000
296.175018	146.140000
296.268188	146.200000
296.361359	146.900000
296.454529	147.240000
296.547668	146.740000
296.640839	147.060000
296.734009	146.800000
296.827179	146.560000
296.920319	146.720000
297.013519	146.740000
297.106659	146.620000
297.199860	146.900000
297.292999	146.880000
297.386200	146.540000
297.479309	146.440000
297.572510	146.440000
297.665680	145.840000
297.758850	145.420000
297.852020	145.140000
297.945190	145.120000
298.038361	144.680000
298.131531	145.720000
298.224701	146.000000
298.317871	145.940000
298.411072	145.680000
298.504242	145.860000
298.597412	145.080000
298.690582	145.360000
298.783752	145.260000
298.876923	145.740000
298.970093	145.820000
299.063293	146.400000
299.156464	146.600000
299.249634	147.240000
299.342834	147.520000
299.436005	147.780000
299.529205	147.280000
299.622345	147.060000
299.715576	146.360000
299.808716	146.320000
299.901917	146.280000
299.995117	146.700000
300.088287	146.820000
300.181488	146.800000
300.274658	146.500000
300.367828	146.360000
300.461029	146.180000
300.554199	146.400000
300.647400	146.700000
300.740601	147.100000
300.833771	147.080000
300.926971	147.260000
301.020142	146.520000
301.113342	146.260000
301.206512	146.140000
301.299713	146.680000
301.392914	146.680000
301.486084	147.180000
301.579285	147.220000
301.672516	147.600000
301.765686	147.140000
301.858887	146.900000
301.952057	146.620000
302.045288	147.040000
302.138458	146.660000
302.231659	146.280000
302.324860	146.180000
302.418060	145.980000
302.511261	145.660000
302.604462	145.800000
302.697662	145.700000
302.790863	145.880000
302.884064	145.720000
302.977264	145.760000
303.070465	145.760000
303.163666	146.660000
303.256866	146.600000
303.350067	146.800000
303.443268	146.840000
303.536469	146.860000
303.629669	146.240000
303.722870	146.340000
303.816071	146.480000
303.909271	146.440000
304.002472	145.600000
304.095673	145.260000
304.188934	144.480000
304.282104	145.320000
304.375336	145.400000
304.468506	145.780000
304.561768	146.020000
304.654968	147.100000
304.748169	146.440000
304.841370	146.400000
304.934601	146.580000
305.027802	146.340000
305.121002	146.000000
305.214233	145.820000
305.307434	145.760000
305.400665	146.460000
305.493866	146.500000
