Model Number: SPM-002-B   
Serial Number: 70087108
Firmware Version: 004.15.4
Exposure Time: 100000.000000us
Data Taken on: 11-12-2020 18:52:41.018
Wavelength	Amplitude
221.570786	0.000000
221.663406	0.000000
221.756027	0.000000
221.848648	0.000000
221.941269	0.000000
222.033905	0.000000
222.126526	0.000000
222.219162	0.000000
222.311798	0.000000
222.404419	0.000000
222.497055	0.000000
222.589676	0.000000
222.682312	0.000000
222.774933	0.000000
222.867569	0.000000
222.960205	0.000000
223.052841	0.000000
223.145462	0.000000
223.238098	0.000000
223.330734	0.000000
223.423386	0.000000
223.516022	0.000000
223.608658	0.000000
223.701309	0.000000
223.793945	0.000000
223.886581	0.000000
223.979218	0.000000
224.071869	0.000000
224.164505	0.000000
224.257156	0.000000
224.349792	0.000000
224.442444	0.000000
224.535095	0.000000
224.627747	0.000000
224.720398	0.000000
224.813034	0.000000
224.905685	0.000000
224.998337	145.540000
225.090988	145.240000
225.183640	145.400000
225.276291	145.040000
225.368942	145.620000
225.461594	145.900000
225.554245	146.220000
225.646912	146.260000
225.739578	146.980000
225.832230	147.320000
225.924896	146.700000
226.017548	146.720000
226.110199	147.280000
226.202866	146.320000
226.295532	145.880000
226.388184	145.800000
226.480850	145.500000
226.573517	144.620000
226.666168	144.940000
226.758835	145.100000
226.851501	145.720000
226.944183	145.600000
227.036850	145.620000
227.129517	145.800000
227.222183	146.200000
227.314850	146.020000
227.407516	146.540000
227.500198	147.140000
227.592865	146.700000
227.685532	145.920000
227.778214	145.620000
227.870880	145.680000
227.963562	146.060000
228.056229	146.580000
228.148926	146.680000
228.241592	147.640000
228.334274	147.420000
228.426956	146.840000
228.519638	146.720000
228.612305	146.680000
228.704987	146.360000
228.797668	146.300000
228.890350	145.900000
228.983032	145.140000
229.075714	145.940000
229.168396	145.440000
229.261108	145.080000
229.353790	145.480000
229.446472	146.160000
229.539169	145.600000
229.631851	145.380000
229.724533	145.600000
229.817230	145.620000
229.909912	146.540000
230.002609	146.660000
230.095306	146.820000
230.187988	147.200000
230.280685	147.220000
230.373383	145.940000
230.466095	145.800000
230.558792	146.240000
230.651474	146.060000
230.744171	145.780000
230.836868	146.080000
230.929581	146.140000
231.022278	146.100000
231.114975	146.060000
231.207672	146.180000
231.300369	146.600000
231.393082	146.960000
231.485779	146.820000
231.578506	146.760000
231.671204	147.100000
231.763916	147.000000
231.856613	146.980000
231.949326	147.240000
232.042023	147.300000
232.134735	146.660000
232.227448	146.200000
232.320160	146.260000
232.412872	145.780000
232.505585	146.360000
232.598297	147.100000
232.691010	147.220000
232.783722	146.720000
232.876450	147.380000
232.969162	146.620000
233.061874	145.880000
233.154587	145.600000
233.247314	145.820000
233.340027	145.140000
233.432739	145.720000
233.525467	145.860000
233.618179	146.320000
233.710907	146.140000
233.803635	146.760000
233.896347	146.440000
233.989090	147.080000
234.081818	146.900000
234.174545	146.960000
234.267258	146.520000
234.359985	146.620000
234.452713	146.280000
234.545441	146.320000
234.638168	146.180000
234.730896	146.600000
234.823639	146.620000
234.916367	146.720000
235.009094	146.740000
235.101822	146.780000
235.194580	146.440000
235.287308	146.380000
235.380051	145.980000
235.472778	145.880000
235.565521	146.260000
235.658249	146.000000
235.750992	145.920000
235.843719	146.240000
235.936462	146.900000
236.029205	146.360000
236.121948	146.400000
236.214691	146.680000
236.307449	147.120000
236.400192	146.360000
236.492935	146.480000
236.585678	146.480000
236.678421	146.380000
236.771164	145.980000
236.863907	146.540000
236.956665	146.680000
237.049408	148.260000
237.142151	147.520000
237.234909	148.260000
237.327652	148.020000
237.420410	148.080000
237.513153	147.140000
237.605927	147.300000
237.698669	146.600000
237.791428	146.060000
237.884186	146.480000
237.976944	145.660000
238.069702	146.220000
238.162445	145.700000
238.255203	145.840000
238.347961	145.680000
238.440720	146.000000
238.533478	145.800000
238.626266	145.740000
238.719025	146.220000
238.811783	145.920000
238.904541	146.120000
238.997314	145.880000
239.090073	145.840000
239.182831	145.960000
239.275604	146.560000
239.368362	146.120000
239.461136	146.400000
239.553909	146.440000
239.646667	145.980000
239.739441	145.460000
239.832214	145.760000
239.925003	146.000000
240.017761	146.720000
240.110535	147.260000
240.203308	146.960000
240.296082	146.900000
240.388855	146.600000
240.481628	146.620000
240.574417	146.580000
240.667191	146.700000
240.759964	146.620000
240.852737	146.900000
240.945526	146.560000
241.038315	146.320000
241.131088	146.660000
241.223877	146.840000
241.316650	146.300000
241.409439	146.680000
241.502228	146.440000
241.595001	146.680000
241.687790	146.680000
241.780579	146.680000
241.873367	146.560000
241.966141	146.820000
242.058929	146.320000
242.151718	146.340000
242.244507	146.940000
242.337311	146.100000
242.430099	146.420000
242.522903	146.740000
242.615692	146.300000
242.708481	145.880000
242.801270	146.680000
242.894073	146.320000
242.986862	146.220000
243.079651	146.840000
243.172455	146.960000
243.265244	147.180000
243.358063	146.660000
243.450867	146.860000
243.543655	146.500000
243.636459	146.440000
243.729263	146.400000
243.822067	146.860000
243.914856	147.060000
244.007660	147.380000
244.100464	147.280000
244.193268	146.860000
244.286072	146.880000
244.378876	146.000000
244.471680	145.740000
244.564499	146.200000
244.657318	146.740000
244.750122	147.220000
244.842926	147.120000
244.935745	147.320000
245.028549	146.800000
245.121368	146.260000
245.214172	146.100000
245.306992	146.820000
245.399796	146.480000
245.492615	146.680000
245.585434	146.760000
245.678253	146.440000
245.771072	145.980000
245.863892	146.560000
245.956711	146.660000
246.049530	146.480000
246.142349	146.320000
246.235168	146.520000
246.327988	146.880000
246.420807	146.900000
246.513626	146.860000
246.606445	146.940000
246.699280	147.040000
246.792099	146.500000
246.884918	146.020000
246.977753	146.240000
247.070587	146.200000
247.163422	146.120000
247.256241	146.200000
247.349075	146.640000
247.441895	146.520000
247.534729	146.620000
247.627563	146.400000
247.720383	146.600000
247.813217	146.700000
247.906052	146.540000
247.998886	146.340000
248.091736	146.220000
248.184570	145.880000
248.277405	145.500000
248.370239	146.600000
248.463074	147.800000
248.555908	148.200000
248.648743	148.120000
248.741592	148.420000
248.834427	147.520000
248.927261	146.100000
249.020111	146.520000
249.112946	147.080000
249.205795	146.820000
249.298630	147.020000
249.391495	147.400000
249.484344	146.980000
249.577179	146.740000
249.670029	146.840000
249.762878	147.360000
249.855728	147.520000
249.948563	147.120000
250.041412	146.720000
250.134262	147.260000
250.227112	146.980000
250.319962	146.900000
250.412827	147.260000
250.505692	146.800000
250.598541	146.560000
250.691391	146.180000
250.784241	146.040000
250.877106	146.240000
250.969955	146.320000
251.062805	146.540000
251.155670	147.400000
251.248520	147.260000
251.341385	147.320000
251.434235	147.500000
251.527100	147.040000
251.619965	146.100000
251.712814	147.020000
251.805695	146.800000
251.898560	146.900000
251.991425	147.120000
252.084290	147.500000
252.177155	146.400000
252.270020	146.140000
252.362885	146.200000
252.455750	145.960000
252.548615	145.660000
252.641479	145.820000
252.734360	145.940000
252.827240	145.660000
252.920105	145.940000
253.012970	145.720000
253.105850	145.880000
253.198715	145.720000
253.291595	146.000000
253.384460	145.400000
253.477341	145.560000
253.570221	145.560000
253.663086	145.480000
253.755966	146.260000
253.848846	146.680000
253.941727	147.120000
254.034592	147.220000
254.127472	147.020000
254.220367	146.620000
254.313248	146.840000
254.406128	146.200000
254.499008	146.320000
254.591904	147.220000
254.684784	147.460000
254.777664	147.240000
254.870544	147.220000
254.963440	146.920000
255.056335	146.880000
255.149216	146.320000
255.242111	146.660000
255.334991	147.200000
255.427887	147.480000
255.520767	147.220000
255.613663	147.540000
255.706558	147.100000
255.799438	146.480000
255.892334	146.080000
255.985229	145.820000
256.078125	145.420000
256.171021	145.320000
256.263916	146.220000
256.356812	146.540000
256.449707	147.180000
256.542603	147.120000
256.635498	147.500000
256.728394	147.120000
256.821289	147.040000
256.914215	146.720000
257.007080	147.220000
257.100006	147.540000
257.192932	147.760000
257.285828	148.080000
257.378723	147.940000
257.471619	147.300000
257.564545	146.560000
257.657440	146.360000
257.750336	146.580000
257.843262	146.300000
257.936157	147.700000
258.029053	147.940000
258.121979	148.260000
258.214874	147.660000
258.307800	147.740000
258.400696	146.480000
258.493622	146.700000
258.586517	145.660000
258.679443	146.100000
258.772339	145.880000
258.865265	145.760000
258.958160	145.140000
259.051086	146.120000
259.144012	145.940000
259.236938	146.720000
259.329834	146.880000
259.422791	146.980000
259.515717	146.560000
259.608612	146.100000
259.701538	145.500000
259.794464	145.440000
259.887390	145.560000
259.980316	145.320000
260.073212	145.480000
260.166138	145.060000
260.259064	145.200000
260.351990	145.600000
260.444916	145.720000
260.537842	146.120000
260.630768	147.000000
260.723694	147.000000
260.816620	146.920000
260.909546	146.860000
261.002472	146.220000
261.095398	145.540000
261.188354	145.780000
261.281281	145.220000
261.374207	145.260000
261.467133	146.120000
261.560089	146.500000
261.653015	146.200000
261.745972	146.960000
261.838867	147.600000
261.931824	147.720000
262.024780	147.280000
262.117706	147.620000
262.210663	147.340000
262.303589	146.700000
262.396515	146.420000
262.489471	147.680000
262.582397	147.340000
262.675354	147.420000
262.768280	147.420000
262.861237	147.300000
262.954163	146.520000
263.047119	146.800000
263.140045	146.320000
263.233002	146.200000
263.325958	146.200000
263.418884	146.000000
263.511841	146.100000
263.604797	146.300000
263.697723	146.640000
263.790680	146.460000
263.883636	147.140000
263.976593	146.680000
264.069550	146.840000
264.162476	146.400000
264.255463	146.440000
264.348419	145.960000
264.441376	146.540000
264.534332	146.260000
264.627289	146.800000
264.720245	147.020000
264.813202	146.780000
264.906158	146.500000
264.999115	146.980000
265.092072	146.660000
265.185028	147.120000
265.277985	147.020000
265.370941	146.920000
265.463898	146.540000
265.556854	146.420000
265.649811	145.300000
265.742798	145.460000
265.835754	145.520000
265.928711	145.800000
266.021667	145.960000
266.114655	146.420000
266.207611	146.680000
266.300568	146.100000
266.393585	145.560000
266.486511	145.620000
266.579498	145.020000
266.672485	144.880000
266.765442	145.180000
266.858429	145.780000
266.951385	145.200000
267.044342	145.360000
267.137329	145.420000
267.230316	145.820000
267.323273	145.400000
267.416260	146.440000
267.509216	146.780000
267.602203	146.920000
267.695160	147.220000
267.788147	147.160000
267.881134	146.600000
267.974091	146.660000
268.067078	146.260000
268.160065	145.800000
268.253052	145.700000
268.346008	145.640000
268.438995	145.400000
268.531982	145.560000
268.624969	145.380000
268.717987	145.840000
268.810944	145.600000
268.903961	145.640000
268.996948	145.360000
269.089905	146.000000
269.182892	146.040000
269.275879	146.620000
269.368866	146.320000
269.461853	146.760000
269.554871	146.140000
269.647858	146.180000
269.740845	146.260000
269.833832	146.900000
269.926819	146.380000
270.019806	146.680000
270.112793	146.160000
270.205811	146.240000
270.298798	145.820000
270.391785	146.360000
270.484772	146.120000
270.577789	146.460000
270.670776	145.900000
270.763763	146.020000
270.856750	145.920000
270.949768	145.840000
271.042786	145.940000
271.135773	146.140000
271.228790	146.460000
271.321808	146.160000
271.414795	146.120000
271.507782	146.000000
271.600800	145.940000
271.693817	145.920000
271.786804	146.500000
271.879822	146.820000
271.972809	146.720000
272.065826	147.420000
272.158844	146.800000
272.251831	147.200000
272.344849	147.060000
272.437866	146.900000
272.530853	146.580000
272.623871	146.900000
272.716888	145.680000
272.809906	145.960000
272.902893	145.880000
272.995911	145.480000
273.088928	145.480000
273.181946	145.900000
273.274963	145.400000
273.367981	145.520000
273.460999	145.920000
273.554047	146.400000
273.647003	147.060000
273.740051	147.540000
273.833069	147.720000
273.926086	147.700000
274.019135	147.400000
274.112152	146.900000
274.205170	146.540000
274.298187	146.760000
274.391205	146.140000
274.484222	146.100000
274.577240	146.180000
274.670258	146.000000
274.763306	145.700000
274.856323	146.460000
274.949341	146.600000
275.042358	146.880000
275.135406	147.060000
275.228424	147.360000
275.321442	147.040000
275.414490	146.740000
275.507507	147.040000
275.600525	147.640000
275.693573	147.140000
275.786591	146.560000
275.879669	146.940000
275.972656	146.600000
276.065735	146.000000
276.158752	146.800000
276.251801	147.760000
276.344818	147.600000
276.437866	147.360000
276.530884	147.360000
276.623932	146.240000
276.716980	146.040000
276.809998	146.040000
276.903046	146.240000
276.996094	146.940000
277.089111	148.080000
277.182159	148.520000
277.275208	148.240000
277.368256	147.800000
277.461304	147.240000
277.554321	146.200000
277.647369	145.860000
277.740417	146.080000
277.833466	145.960000
277.926514	145.880000
278.019562	146.740000
278.112610	146.140000
278.205688	146.140000
278.298706	146.260000
278.391785	146.060000
278.484833	145.480000
278.577881	145.380000
278.670929	145.680000
278.763977	146.000000
278.857025	146.400000
278.950073	146.680000
279.043121	146.780000
279.136169	146.720000
279.229248	146.420000
279.322296	146.520000
279.415344	146.420000
279.508392	146.180000
279.601440	146.100000
279.694519	146.080000
279.787567	145.780000
279.880615	145.720000
279.973694	145.820000
280.066742	145.660000
280.159790	146.000000
280.252869	145.660000
280.345917	145.700000
280.438995	146.220000
280.532074	146.040000
280.625122	146.240000
280.718201	147.380000
280.811279	147.440000
280.904327	147.180000
280.997406	147.480000
281.090454	147.340000
281.183533	146.440000
281.276581	146.260000
281.369659	145.940000
281.462738	146.040000
281.555786	145.860000
281.648865	146.060000
281.741943	146.100000
281.835022	147.120000
281.928070	146.920000
282.021149	146.760000
282.114227	146.860000
282.207306	146.860000
282.300385	146.420000
282.393433	146.640000
282.486511	146.560000
282.579590	146.880000
282.672668	147.220000
282.765747	146.400000
282.858856	145.940000
282.951904	146.260000
283.045013	146.080000
283.138062	146.260000
283.231171	147.020000
283.324249	147.440000
283.417328	147.660000
283.510406	147.080000
283.603485	146.600000
283.696564	146.520000
283.789642	146.480000
283.882751	146.040000
283.975830	146.800000
284.068909	146.660000
284.161987	146.900000
284.255066	146.220000
284.348175	146.480000
284.441254	146.380000
284.534332	146.820000
284.627441	146.600000
284.720520	146.600000
284.813599	146.640000
284.906708	146.560000
284.999786	145.880000
285.092896	145.480000
285.185974	146.840000
285.279053	146.260000
285.372192	146.120000
285.465240	147.100000
285.558380	147.320000
285.651459	146.440000
285.744568	147.680000
285.837677	147.480000
285.930756	147.160000
286.023865	147.280000
286.116943	147.180000
286.210052	146.760000
286.303162	146.560000
286.396240	146.540000
286.489349	146.180000
286.582458	146.560000
286.675568	146.240000
286.768646	146.720000
286.861755	146.860000
286.954865	147.500000
287.047974	146.800000
287.141083	146.620000
287.234161	146.220000
287.327271	145.880000
287.420380	146.220000
287.513519	146.400000
287.606598	146.320000
287.699738	146.760000
287.792816	146.720000
287.885956	146.240000
287.979034	146.440000
288.072174	146.840000
288.165283	146.420000
288.258392	146.700000
288.351501	146.500000
288.444611	146.540000
288.537720	146.660000
288.630859	146.540000
288.723969	146.640000
288.817078	146.900000
288.910187	146.740000
289.003296	146.140000
289.096436	146.020000
289.189545	145.620000
289.282654	145.100000
289.375763	145.620000
289.468903	146.280000
289.562012	146.940000
289.655121	147.000000
289.748260	147.140000
289.841400	147.320000
289.934509	147.100000
290.027649	147.240000
290.120728	147.060000
290.213898	147.280000
290.306976	146.980000
290.400146	146.640000
290.493256	145.940000
290.586395	146.180000
290.679535	146.500000
290.772644	146.180000
290.865784	146.060000
290.958893	146.380000
291.052032	146.100000
291.145172	145.800000
291.238281	145.760000
291.331421	145.980000
291.424561	146.480000
291.517670	146.400000
291.610809	146.840000
291.703949	146.660000
291.797089	146.520000
291.890228	145.840000
291.983337	145.960000
292.076477	145.380000
292.169617	146.060000
292.262756	146.220000
292.355927	145.940000
292.449036	146.020000
292.542206	146.280000
292.635315	145.960000
292.728485	146.360000
292.821625	146.720000
292.914764	147.740000
293.007904	147.740000
293.101044	147.960000
293.194183	147.720000
293.287323	147.720000
293.380463	146.860000
293.473602	146.380000
293.566742	146.480000
293.659882	146.780000
293.753021	146.920000
293.846191	146.900000
293.939331	146.980000
294.032471	146.720000
294.125610	146.100000
294.218781	146.540000
294.311920	146.720000
294.405060	147.060000
294.498230	147.180000
294.591370	147.440000
294.684540	146.380000
294.777679	145.980000
294.870850	146.140000
294.963959	146.040000
295.057159	145.900000
295.150299	146.440000
295.243469	146.620000
295.336609	146.080000
295.429779	145.980000
295.522919	146.640000
295.616089	146.740000
295.709229	147.440000
295.802399	148.020000
295.895569	147.840000
295.988708	147.340000
296.081879	147.440000
296.175018	146.680000
296.268188	146.340000
296.361359	147.000000
296.454529	147.000000
296.547668	146.860000
296.640839	147.100000
296.734009	147.100000
296.827179	146.880000
296.920319	147.220000
297.013519	146.780000
297.106659	146.620000
297.199860	146.520000
297.292999	146.380000
297.386200	145.720000
297.479309	146.100000
297.572510	146.040000
297.665680	145.660000
297.758850	145.700000
297.852020	146.060000
297.945190	145.700000
298.038361	145.280000
298.131531	146.420000
298.224701	146.160000
298.317871	145.800000
298.411072	145.700000
298.504242	145.940000
298.597412	145.380000
298.690582	145.620000
298.783752	145.800000
298.876923	146.280000
298.970093	146.380000
299.063293	146.600000
299.156464	146.880000
299.249634	146.860000
299.342834	146.980000
299.436005	147.380000
299.529205	147.200000
299.622345	147.160000
299.715576	147.060000
299.808716	146.920000
299.901917	146.880000
299.995117	147.020000
300.088287	147.060000
300.181488	146.840000
300.274658	146.580000
300.367828	146.340000
300.461029	146.200000
300.554199	146.240000
300.647400	146.420000
300.740601	146.740000
300.833771	146.960000
300.926971	147.040000
301.020142	146.320000
301.113342	146.180000
301.206512	146.160000
301.299713	145.760000
301.392914	145.700000
301.486084	146.160000
301.579285	146.420000
301.672516	146.680000
301.765686	146.940000
301.858887	146.960000
301.952057	146.920000
302.045288	147.040000
302.138458	147.020000
302.231659	146.940000
302.324860	146.760000
302.418060	146.480000
302.511261	146.200000
302.604462	146.240000
302.697662	145.800000
302.790863	145.680000
302.884064	145.660000
302.977264	145.840000
303.070465	145.880000
303.163666	146.820000
303.256866	147.180000
303.350067	147.460000
303.443268	147.460000
303.536469	147.260000
303.629669	146.720000
303.722870	146.760000
303.816071	146.400000
303.909271	146.340000
304.002472	145.560000
304.095673	145.280000
304.188934	144.560000
304.282104	145.640000
304.375336	145.460000
304.468506	145.860000
304.561768	145.780000
304.654968	146.440000
304.748169	145.740000
304.841370	145.560000
304.934601	145.900000
305.027802	145.980000
305.121002	145.600000
305.214233	145.360000
305.307434	145.740000
305.400665	146.480000
305.493866	146.300000
