Model Number: SPM-002-B   
Serial Number: 70087108
Firmware Version: 004.15.4
Exposure Time: 100000.000000us
Data Taken on: 11-12-2020 18:52:47.628
Wavelength	Amplitude
221.570786	0.000000
221.663406	0.000000
221.756027	0.000000
221.848648	0.000000
221.941269	0.000000
222.033905	0.000000
222.126526	0.000000
222.219162	0.000000
222.311798	0.000000
222.404419	0.000000
222.497055	0.000000
222.589676	0.000000
222.682312	0.000000
222.774933	0.000000
222.867569	0.000000
222.960205	0.000000
223.052841	0.000000
223.145462	0.000000
223.238098	0.000000
223.330734	0.000000
223.423386	0.000000
223.516022	0.000000
223.608658	0.000000
223.701309	0.000000
223.793945	0.000000
223.886581	0.000000
223.979218	0.000000
224.071869	0.000000
224.164505	0.000000
224.257156	0.000000
224.349792	0.000000
224.442444	0.000000
224.535095	0.000000
224.627747	0.000000
224.720398	0.000000
224.813034	0.000000
224.905685	0.000000
224.998337	145.320000
225.090988	144.900000
225.183640	144.700000
225.276291	144.640000
225.368942	144.600000
225.461594	145.240000
225.554245	145.320000
225.646912	145.500000
225.739578	146.040000
225.832230	146.220000
225.924896	145.420000
226.017548	145.720000
226.110199	146.260000
226.202866	145.360000
226.295532	145.400000
226.388184	145.560000
226.480850	144.940000
226.573517	144.420000
226.666168	144.880000
226.758835	145.280000
226.851501	145.880000
226.944183	146.400000
227.036850	145.900000
227.129517	145.820000
227.222183	145.580000
227.314850	145.540000
227.407516	145.840000
227.500198	146.660000
227.592865	146.340000
227.685532	146.080000
227.778214	145.580000
227.870880	145.600000
227.963562	145.860000
228.056229	146.300000
228.148926	146.360000
228.241592	147.320000
228.334274	146.780000
228.426956	146.280000
228.519638	146.360000
228.612305	146.260000
228.704987	145.940000
228.797668	146.080000
228.890350	146.080000
228.983032	145.480000
229.075714	145.980000
229.168396	145.560000
229.261108	144.820000
229.353790	144.960000
229.446472	145.300000
229.539169	144.860000
229.631851	144.780000
229.724533	145.500000
229.817230	145.420000
229.909912	146.160000
230.002609	146.260000
230.095306	145.980000
230.187988	145.960000
230.280685	145.740000
230.373383	144.620000
230.466095	144.480000
230.558792	144.900000
230.651474	144.640000
230.744171	144.920000
230.836868	145.240000
230.929581	145.740000
231.022278	145.780000
231.114975	146.160000
231.207672	145.940000
231.300369	146.180000
231.393082	145.820000
231.485779	145.700000
231.578506	145.380000
231.671204	145.500000
231.763916	145.340000
231.856613	145.400000
231.949326	145.600000
232.042023	145.600000
232.134735	145.500000
232.227448	145.460000
232.320160	145.600000
232.412872	145.400000
232.505585	146.260000
232.598297	146.640000
232.691010	146.340000
232.783722	146.020000
232.876450	146.440000
232.969162	145.840000
233.061874	145.140000
233.154587	145.020000
233.247314	145.400000
233.340027	144.600000
233.432739	144.920000
233.525467	145.260000
233.618179	145.740000
233.710907	145.380000
233.803635	146.200000
233.896347	145.600000
233.989090	146.280000
234.081818	146.220000
234.174545	146.460000
234.267258	145.700000
234.359985	146.140000
234.452713	145.700000
234.545441	145.540000
234.638168	145.360000
234.730896	146.160000
234.823639	146.080000
234.916367	146.360000
235.009094	146.660000
235.101822	146.460000
235.194580	145.880000
235.287308	145.840000
235.380051	145.040000
235.472778	145.100000
235.565521	145.600000
235.658249	145.460000
235.750992	145.700000
235.843719	145.880000
235.936462	145.860000
236.029205	145.320000
236.121948	145.340000
236.214691	145.600000
236.307449	146.500000
236.400192	146.340000
236.492935	146.020000
236.585678	146.420000
236.678421	145.980000
236.771164	145.300000
236.863907	145.960000
236.956665	146.620000
237.049408	147.700000
237.142151	147.580000
237.234909	148.260000
237.327652	147.820000
237.420410	147.640000
237.513153	146.980000
237.605927	146.860000
237.698669	146.280000
237.791428	145.520000
237.884186	146.040000
237.976944	145.480000
238.069702	145.700000
238.162445	145.340000
238.255203	145.940000
238.347961	146.000000
238.440720	145.800000
238.533478	145.800000
238.626266	145.860000
238.719025	145.880000
238.811783	145.360000
238.904541	145.420000
238.997314	145.180000
239.090073	145.040000
239.182831	145.440000
239.275604	146.580000
239.368362	146.540000
239.461136	146.700000
239.553909	146.700000
239.646667	146.420000
239.739441	145.340000
239.832214	145.640000
239.925003	145.960000
240.017761	146.620000
240.110535	146.800000
240.203308	146.440000
240.296082	146.360000
240.388855	146.140000
240.481628	146.220000
240.574417	146.160000
240.667191	146.700000
240.759964	146.580000
240.852737	146.660000
240.945526	146.180000
241.038315	146.100000
241.131088	145.960000
241.223877	146.120000
241.316650	145.820000
241.409439	146.040000
241.502228	145.660000
241.595001	146.180000
241.687790	145.660000
241.780579	145.880000
241.873367	145.960000
241.966141	146.300000
242.058929	145.820000
242.151718	146.440000
242.244507	146.640000
242.337311	145.960000
242.430099	146.380000
242.522903	146.360000
242.615692	145.700000
242.708481	145.700000
242.801270	146.340000
242.894073	146.040000
242.986862	146.120000
243.079651	146.760000
243.172455	146.160000
243.265244	146.040000
243.358063	145.440000
243.450867	145.900000
243.543655	145.860000
243.636459	146.100000
243.729263	146.580000
243.822067	147.040000
243.914856	147.020000
244.007660	146.940000
244.100464	146.900000
244.193268	146.020000
244.286072	145.520000
244.378876	144.960000
244.471680	144.620000
244.564499	145.040000
244.657318	146.200000
244.750122	146.680000
244.842926	146.180000
244.935745	146.800000
245.028549	146.260000
245.121368	145.280000
245.214172	145.660000
245.306992	146.320000
245.399796	145.880000
245.492615	146.040000
245.585434	146.280000
245.678253	145.760000
245.771072	145.500000
245.863892	145.780000
245.956711	146.140000
246.049530	145.940000
246.142349	145.780000
246.235168	145.880000
246.327988	146.300000
246.420807	145.940000
246.513626	145.880000
246.606445	146.000000
246.699280	146.100000
246.792099	145.440000
246.884918	145.240000
246.977753	145.180000
247.070587	145.140000
247.163422	144.940000
247.256241	145.060000
247.349075	145.560000
247.441895	145.740000
247.534729	145.720000
247.627563	145.600000
247.720383	146.360000
247.813217	145.980000
247.906052	145.480000
247.998886	145.480000
248.091736	145.600000
248.184570	144.920000
248.277405	144.980000
248.370239	146.300000
248.463074	147.280000
248.555908	147.460000
248.648743	147.380000
248.741592	147.760000
248.834427	146.840000
248.927261	145.940000
249.020111	146.560000
249.112946	147.420000
249.205795	146.560000
249.298630	146.800000
249.391495	146.800000
249.484344	146.080000
249.577179	145.480000
249.670029	146.060000
249.762878	146.540000
249.855728	146.580000
249.948563	146.720000
250.041412	146.300000
250.134262	146.540000
250.227112	146.360000
250.319962	146.320000
250.412827	146.400000
250.505692	146.420000
250.598541	146.360000
250.691391	146.040000
250.784241	146.140000
250.877106	146.400000
250.969955	146.380000
251.062805	146.720000
251.155670	147.380000
251.248520	147.260000
251.341385	147.120000
251.434235	147.060000
251.527100	146.640000
251.619965	145.880000
251.712814	146.520000
251.805695	146.360000
251.898560	146.820000
251.991425	147.120000
252.084290	147.240000
252.177155	146.380000
252.270020	146.280000
252.362885	145.880000
252.455750	145.460000
252.548615	145.000000
252.641479	145.160000
252.734360	145.020000
252.827240	144.960000
252.920105	145.180000
253.012970	145.620000
253.105850	145.860000
253.198715	145.720000
253.291595	145.960000
253.384460	145.980000
253.477341	145.880000
253.570221	145.800000
253.663086	145.460000
253.755966	145.960000
253.848846	146.000000
253.941727	146.100000
254.034592	146.060000
254.127472	146.040000
254.220367	145.860000
254.313248	145.840000
254.406128	145.560000
254.499008	145.600000
254.591904	146.560000
254.684784	146.780000
254.777664	146.540000
254.870544	146.380000
254.963440	146.320000
255.056335	146.240000
255.149216	145.620000
255.242111	146.080000
255.334991	146.540000
255.427887	146.740000
255.520767	146.740000
255.613663	146.840000
255.706558	146.180000
255.799438	145.960000
255.892334	145.620000
255.985229	145.360000
256.078125	145.420000
256.171021	145.520000
256.263916	145.700000
256.356812	146.040000
256.449707	146.000000
256.542603	145.480000
256.635498	146.200000
256.728394	146.060000
256.821289	145.800000
256.914215	146.000000
257.007080	146.880000
257.100006	146.540000
257.192932	147.020000
257.285828	147.200000
257.378723	146.960000
257.471619	146.680000
257.564545	146.260000
257.657440	145.900000
257.750336	146.600000
257.843262	146.320000
257.936157	147.140000
258.029053	147.820000
258.121979	148.060000
258.214874	147.360000
258.307800	147.380000
258.400696	146.040000
258.493622	145.560000
258.586517	144.900000
258.679443	145.040000
258.772339	144.940000
258.865265	144.980000
258.958160	144.380000
259.051086	145.360000
259.144012	145.320000
259.236938	146.100000
259.329834	146.400000
259.422791	146.520000
259.515717	145.740000
259.608612	145.400000
259.701538	145.460000
259.794464	145.280000
259.887390	145.700000
259.980316	145.700000
260.073212	145.700000
260.166138	144.400000
260.259064	144.940000
260.351990	144.920000
260.444916	145.240000
260.537842	145.560000
260.630768	146.600000
260.723694	146.420000
260.816620	146.740000
260.909546	146.300000
261.002472	145.940000
261.095398	145.520000
261.188354	145.380000
261.281281	144.680000
261.374207	144.900000
261.467133	145.540000
261.560089	145.700000
261.653015	145.360000
261.745972	146.200000
261.838867	146.680000
261.931824	147.140000
262.024780	146.640000
262.117706	147.140000
262.210663	147.280000
262.303589	146.820000
262.396515	146.080000
262.489471	147.400000
262.582397	147.120000
262.675354	146.120000
262.768280	146.200000
262.861237	146.220000
262.954163	145.640000
263.047119	145.800000
263.140045	146.040000
263.233002	146.180000
263.325958	146.260000
263.418884	145.720000
263.511841	145.960000
263.604797	146.120000
263.697723	145.760000
263.790680	145.380000
263.883636	145.980000
263.976593	145.740000
264.069550	145.840000
264.162476	145.820000
264.255463	146.120000
264.348419	145.960000
264.441376	146.440000
264.534332	146.140000
264.627289	146.160000
264.720245	146.640000
264.813202	146.240000
264.906158	145.960000
264.999115	146.200000
265.092072	146.060000
265.185028	146.080000
265.277985	146.440000
265.370941	146.160000
265.463898	146.000000
265.556854	146.040000
265.649811	145.080000
265.742798	145.100000
265.835754	145.300000
265.928711	145.800000
266.021667	146.160000
266.114655	146.780000
266.207611	147.120000
266.300568	146.440000
266.393585	146.000000
266.486511	146.260000
266.579498	145.260000
266.672485	145.000000
266.765442	145.140000
266.858429	145.420000
266.951385	144.960000
267.044342	145.380000
267.137329	145.260000
267.230316	146.000000
267.323273	145.600000
267.416260	145.800000
267.509216	146.080000
267.602203	145.960000
267.695160	145.900000
267.788147	145.940000
267.881134	145.720000
267.974091	145.440000
268.067078	145.260000
268.160065	145.040000
268.253052	144.920000
268.346008	145.180000
268.438995	145.120000
268.531982	145.340000
268.624969	144.840000
268.717987	145.280000
268.810944	145.400000
268.903961	145.500000
268.996948	145.040000
269.089905	145.780000
269.182892	145.740000
269.275879	145.960000
269.368866	145.920000
269.461853	147.020000
269.554871	146.800000
269.647858	146.760000
269.740845	146.900000
269.833832	147.260000
269.926819	146.220000
270.019806	146.320000
270.112793	145.680000
270.205811	145.600000
270.298798	145.600000
270.391785	146.180000
270.484772	145.760000
270.577789	145.940000
270.670776	145.440000
270.763763	145.420000
270.856750	145.280000
270.949768	145.180000
271.042786	145.480000
271.135773	145.560000
271.228790	145.580000
271.321808	145.500000
271.414795	145.540000
271.507782	145.240000
271.600800	144.800000
271.693817	144.940000
271.786804	145.280000
271.879822	145.400000
271.972809	145.540000
272.065826	146.020000
272.158844	145.600000
272.251831	146.100000
272.344849	146.340000
272.437866	146.140000
272.530853	146.020000
272.623871	146.220000
272.716888	145.000000
272.809906	145.180000
272.902893	145.340000
272.995911	144.980000
273.088928	144.980000
273.181946	145.400000
273.274963	144.920000
273.367981	144.960000
273.460999	145.120000
273.554047	145.260000
273.647003	145.780000
273.740051	145.900000
273.833069	146.240000
273.926086	146.440000
274.019135	146.240000
274.112152	145.900000
274.205170	145.980000
274.298187	145.960000
274.391205	145.720000
274.484222	145.760000
274.577240	145.560000
274.670258	145.520000
274.763306	145.300000
274.856323	145.700000
274.949341	145.680000
275.042358	146.140000
275.135406	145.900000
275.228424	145.940000
275.321442	145.980000
275.414490	145.940000
275.507507	146.180000
275.600525	146.780000
275.693573	146.900000
275.786591	146.380000
275.879669	146.520000
275.972656	145.980000
276.065735	145.680000
276.158752	145.940000
276.251801	146.700000
276.344818	146.680000
276.437866	146.660000
276.530884	146.440000
276.623932	145.580000
276.716980	145.520000
276.809998	145.600000
276.903046	145.620000
276.996094	146.540000
277.089111	147.440000
277.182159	147.960000
277.275208	147.620000
277.368256	147.720000
277.461304	147.020000
277.554321	146.160000
277.647369	145.380000
277.740417	145.380000
277.833466	145.420000
277.926514	145.540000
278.019562	146.460000
278.112610	146.160000
278.205688	146.540000
278.298706	146.460000
278.391785	146.120000
278.484833	145.400000
278.577881	145.520000
278.670929	145.740000
278.763977	145.740000
278.857025	146.160000
278.950073	146.560000
279.043121	146.420000
279.136169	146.040000
279.229248	146.140000
279.322296	145.920000
279.415344	145.500000
279.508392	145.720000
279.601440	145.780000
279.694519	145.420000
279.787567	145.580000
279.880615	145.560000
279.973694	145.380000
280.066742	145.200000
280.159790	145.300000
280.252869	145.060000
280.345917	145.380000
280.438995	145.380000
280.532074	145.640000
280.625122	146.060000
280.718201	146.740000
280.811279	146.780000
280.904327	146.740000
280.997406	146.800000
281.090454	146.540000
281.183533	145.880000
281.276581	145.720000
281.369659	145.580000
281.462738	145.520000
281.555786	145.760000
281.648865	145.900000
281.741943	145.760000
281.835022	146.400000
281.928070	145.820000
282.021149	145.520000
282.114227	145.280000
282.207306	145.400000
282.300385	145.300000
282.393433	145.700000
282.486511	145.580000
282.579590	146.100000
282.672668	146.580000
282.765747	146.220000
282.858856	146.260000
282.951904	146.420000
283.045013	146.260000
283.138062	146.340000
283.231171	146.640000
283.324249	146.900000
283.417328	147.180000
283.510406	146.800000
283.603485	146.340000
283.696564	146.160000
283.789642	146.280000
283.882751	145.980000
283.975830	146.920000
284.068909	146.500000
284.161987	146.980000
284.255066	146.420000
284.348175	146.420000
284.441254	145.480000
284.534332	146.540000
284.627441	145.900000
284.720520	145.460000
284.813599	145.360000
284.906708	145.840000
284.999786	144.980000
285.092896	144.940000
285.185974	146.220000
285.279053	145.680000
285.372192	145.760000
285.465240	146.620000
285.558380	146.680000
285.651459	146.080000
285.744568	146.980000
285.837677	146.600000
285.930756	146.200000
286.023865	146.380000
286.116943	145.860000
286.210052	146.120000
286.303162	146.100000
286.396240	145.880000
286.489349	145.840000
286.582458	146.420000
286.675568	145.880000
286.768646	146.060000
286.861755	146.260000
286.954865	146.620000
287.047974	146.100000
287.141083	146.080000
287.234161	145.740000
287.327271	145.920000
287.420380	146.300000
287.513519	146.320000
287.606598	146.320000
287.699738	146.600000
287.792816	146.160000
287.885956	145.620000
287.979034	146.080000
288.072174	146.140000
288.165283	145.980000
288.258392	146.040000
288.351501	145.580000
288.444611	145.560000
288.537720	146.120000
288.630859	146.200000
288.723969	146.500000
288.817078	147.000000
288.910187	146.940000
289.003296	146.340000
289.096436	146.120000
289.189545	145.840000
289.282654	145.280000
289.375763	145.460000
289.468903	145.900000
289.562012	146.140000
289.655121	146.160000
289.748260	146.580000
289.841400	146.780000
289.934509	146.340000
290.027649	146.520000
290.120728	146.420000
290.213898	146.040000
290.306976	145.620000
290.400146	145.760000
290.493256	145.400000
290.586395	145.420000
290.679535	145.860000
290.772644	145.820000
290.865784	145.180000
290.958893	145.320000
291.052032	145.180000
291.145172	144.880000
291.238281	144.660000
291.331421	144.940000
291.424561	144.940000
291.517670	144.760000
291.610809	145.300000
291.703949	145.400000
291.797089	145.740000
291.890228	145.400000
291.983337	145.620000
292.076477	145.100000
292.169617	145.160000
292.262756	145.040000
292.355927	145.540000
292.449036	145.340000
292.542206	145.640000
292.635315	145.980000
292.728485	146.120000
292.821625	145.340000
292.914764	146.860000
293.007904	146.460000
293.101044	146.260000
293.194183	146.160000
293.287323	146.760000
293.380463	145.640000
293.473602	145.700000
293.566742	145.700000
293.659882	146.300000
293.753021	146.300000
293.846191	146.260000
293.939331	146.180000
294.032471	146.160000
294.125610	145.560000
294.218781	145.940000
294.311920	146.200000
294.405060	146.360000
294.498230	146.060000
294.591370	146.080000
294.684540	145.280000
294.777679	144.820000
294.870850	145.260000
294.963959	145.480000
295.057159	145.320000
295.150299	145.720000
295.243469	145.680000
295.336609	145.060000
295.429779	145.240000
295.522919	145.720000
295.616089	145.740000
295.709229	146.620000
295.802399	146.500000
295.895569	146.000000
295.988708	145.600000
296.081879	145.680000
296.175018	144.900000
296.268188	145.180000
296.361359	145.660000
296.454529	145.880000
296.547668	145.780000
296.640839	145.960000
296.734009	145.860000
296.827179	145.960000
296.920319	146.000000
297.013519	145.620000
297.106659	145.620000
297.199860	145.820000
297.292999	145.940000
297.386200	145.820000
297.479309	145.900000
297.572510	145.860000
297.665680	145.400000
297.758850	144.940000
297.852020	144.720000
297.945190	144.900000
298.038361	144.520000
298.131531	145.520000
298.224701	145.340000
298.317871	145.080000
298.411072	144.620000
298.504242	144.840000
298.597412	144.160000
298.690582	144.520000
298.783752	144.720000
298.876923	145.140000
298.970093	145.140000
299.063293	145.520000
299.156464	145.880000
299.249634	146.140000
299.342834	146.360000
299.436005	146.960000
299.529205	146.940000
299.622345	146.860000
299.715576	146.300000
299.808716	146.220000
299.901917	145.460000
299.995117	145.180000
300.088287	145.180000
300.181488	145.260000
300.274658	145.200000
300.367828	145.560000
300.461029	145.860000
300.554199	146.020000
300.647400	146.140000
300.740601	146.720000
300.833771	146.440000
300.926971	146.280000
301.020142	145.600000
301.113342	145.520000
301.206512	144.900000
301.299713	145.540000
301.392914	146.000000
301.486084	146.520000
301.579285	146.780000
301.672516	147.340000
301.765686	146.700000
301.858887	146.040000
301.952057	145.620000
302.045288	145.580000
302.138458	145.160000
302.231659	144.940000
302.324860	144.920000
302.418060	144.980000
302.511261	144.780000
302.604462	145.080000
302.697662	145.400000
302.790863	145.700000
302.884064	145.260000
302.977264	145.400000
303.070465	145.500000
303.163666	146.160000
303.256866	146.260000
303.350067	146.560000
303.443268	146.720000
303.536469	146.520000
303.629669	146.040000
303.722870	146.000000
303.816071	146.140000
303.909271	146.060000
304.002472	145.460000
304.095673	145.100000
304.188934	144.400000
304.282104	145.320000
304.375336	145.440000
304.468506	145.640000
304.561768	145.300000
304.654968	146.200000
304.748169	145.540000
304.841370	145.180000
304.934601	145.520000
305.027802	145.680000
305.121002	145.160000
305.214233	144.940000
305.307434	145.060000
305.400665	145.500000
305.493866	145.560000
