Model Number: SPM-002-B   
Serial Number: 70087108
Firmware Version: 004.15.4
Exposure Time: 100000.000000us
Data Taken on: 11-12-2020 18:52:52.720
Wavelength	Amplitude
221.570786	0.000000
221.663406	0.000000
221.756027	0.000000
221.848648	0.000000
221.941269	0.000000
222.033905	0.000000
222.126526	0.000000
222.219162	0.000000
222.311798	0.000000
222.404419	0.000000
222.497055	0.000000
222.589676	0.000000
222.682312	0.000000
222.774933	0.000000
222.867569	0.000000
222.960205	0.000000
223.052841	0.000000
223.145462	0.000000
223.238098	0.000000
223.330734	0.000000
223.423386	0.000000
223.516022	0.000000
223.608658	0.000000
223.701309	0.000000
223.793945	0.000000
223.886581	0.000000
223.979218	0.000000
224.071869	0.000000
224.164505	0.000000
224.257156	0.000000
224.349792	0.000000
224.442444	0.000000
224.535095	0.000000
224.627747	0.000000
224.720398	0.000000
224.813034	0.000000
224.905685	0.000000
224.998337	144.960000
225.090988	144.800000
225.183640	144.720000
225.276291	144.640000
225.368942	144.860000
225.461594	145.240000
225.554245	145.860000
225.646912	146.000000
225.739578	146.400000
225.832230	146.900000
225.924896	146.400000
226.017548	146.360000
226.110199	146.760000
226.202866	146.080000
226.295532	145.980000
226.388184	145.780000
226.480850	145.260000
226.573517	144.760000
226.666168	145.480000
226.758835	145.500000
226.851501	146.160000
226.944183	146.380000
227.036850	146.020000
227.129517	145.800000
227.222183	145.920000
227.314850	145.600000
227.407516	145.840000
227.500198	147.100000
227.592865	146.820000
227.685532	146.360000
227.778214	146.360000
227.870880	146.540000
227.963562	146.300000
228.056229	146.680000
228.148926	146.780000
228.241592	147.520000
228.334274	147.260000
228.426956	146.960000
228.519638	146.760000
228.612305	146.240000
228.704987	146.060000
228.797668	146.100000
228.890350	145.720000
228.983032	145.260000
229.075714	146.060000
229.168396	145.600000
229.261108	145.280000
229.353790	145.540000
229.446472	146.060000
229.539169	145.760000
229.631851	145.400000
229.724533	145.500000
229.817230	145.720000
229.909912	146.580000
230.002609	146.760000
230.095306	147.200000
230.187988	147.400000
230.280685	147.140000
230.373383	145.940000
230.466095	145.720000
230.558792	145.840000
230.651474	145.820000
230.744171	145.820000
230.836868	146.040000
230.929581	146.480000
231.022278	146.500000
231.114975	146.300000
231.207672	146.060000
231.300369	146.540000
231.393082	146.660000
231.485779	146.340000
231.578506	146.340000
231.671204	146.700000
231.763916	146.260000
231.856613	145.640000
231.949326	145.740000
232.042023	145.760000
232.134735	145.400000
232.227448	145.260000
232.320160	145.740000
232.412872	145.580000
232.505585	146.360000
232.598297	146.800000
232.691010	146.800000
232.783722	146.420000
232.876450	147.140000
232.969162	146.580000
233.061874	146.100000
233.154587	145.700000
233.247314	145.900000
233.340027	145.280000
233.432739	145.680000
233.525467	145.720000
233.618179	146.520000
233.710907	146.280000
233.803635	147.100000
233.896347	146.760000
233.989090	147.340000
234.081818	147.140000
234.174545	147.280000
234.267258	146.460000
234.359985	146.700000
234.452713	146.540000
234.545441	146.400000
234.638168	146.220000
234.730896	146.620000
234.823639	146.400000
234.916367	146.780000
235.009094	147.000000
235.101822	147.140000
235.194580	147.020000
235.287308	146.760000
235.380051	146.200000
235.472778	146.360000
235.565521	146.620000
235.658249	146.420000
235.750992	146.680000
235.843719	146.560000
235.936462	146.400000
236.029205	145.860000
236.121948	145.640000
236.214691	145.740000
236.307449	146.400000
236.400192	145.980000
236.492935	146.060000
236.585678	146.240000
236.678421	146.300000
236.771164	146.000000
236.863907	146.760000
236.956665	147.080000
237.049408	148.900000
237.142151	148.300000
237.234909	148.840000
237.327652	148.760000
237.420410	148.560000
237.513153	147.120000
237.605927	147.140000
237.698669	146.380000
237.791428	145.540000
237.884186	146.240000
237.976944	145.780000
238.069702	146.460000
238.162445	146.340000
238.255203	146.620000
238.347961	146.640000
238.440720	146.720000
238.533478	146.320000
238.626266	146.000000
238.719025	146.180000
238.811783	145.640000
238.904541	145.500000
238.997314	145.360000
239.090073	145.440000
239.182831	145.860000
239.275604	146.520000
239.368362	146.400000
239.461136	146.640000
239.553909	146.660000
239.646667	146.220000
239.739441	145.780000
239.832214	146.520000
239.925003	146.580000
240.017761	147.300000
240.110535	148.020000
240.203308	147.500000
240.296082	147.000000
240.388855	146.580000
240.481628	146.260000
240.574417	146.100000
240.667191	146.240000
240.759964	146.220000
240.852737	146.600000
240.945526	146.460000
241.038315	145.880000
241.131088	146.200000
241.223877	146.520000
241.316650	145.920000
241.409439	146.260000
241.502228	145.880000
241.595001	146.260000
241.687790	145.840000
241.780579	146.420000
241.873367	146.260000
241.966141	147.040000
242.058929	146.220000
242.151718	146.580000
242.244507	146.760000
242.337311	146.300000
242.430099	146.500000
242.522903	147.040000
242.615692	146.800000
242.708481	146.480000
242.801270	146.940000
242.894073	146.540000
242.986862	146.240000
243.079651	146.560000
243.172455	146.380000
243.265244	146.160000
243.358063	145.860000
243.450867	146.300000
243.543655	146.100000
243.636459	146.440000
243.729263	146.920000
243.822067	147.260000
243.914856	147.300000
244.007660	147.600000
244.100464	147.480000
244.193268	147.140000
244.286072	146.960000
244.378876	146.320000
244.471680	146.000000
244.564499	146.640000
244.657318	147.220000
244.750122	147.460000
244.842926	147.140000
244.935745	147.460000
245.028549	146.560000
245.121368	146.040000
245.214172	145.600000
245.306992	146.640000
245.399796	146.060000
245.492615	146.560000
245.585434	146.400000
245.678253	146.500000
245.771072	145.980000
245.863892	146.600000
245.956711	146.660000
246.049530	146.760000
246.142349	146.820000
246.235168	146.900000
246.327988	147.140000
246.420807	146.760000
246.513626	146.600000
246.606445	146.300000
246.699280	146.140000
246.792099	145.380000
246.884918	145.200000
246.977753	145.140000
247.070587	145.480000
247.163422	145.600000
247.256241	145.940000
247.349075	146.120000
247.441895	146.160000
247.534729	146.160000
247.627563	145.720000
247.720383	146.420000
247.813217	146.300000
247.906052	146.300000
247.998886	146.320000
248.091736	146.660000
248.184570	146.080000
248.277405	146.260000
248.370239	147.040000
248.463074	147.880000
248.555908	148.240000
248.648743	148.040000
248.741592	148.060000
248.834427	147.560000
248.927261	146.440000
249.020111	146.380000
249.112946	146.980000
249.205795	146.520000
249.298630	146.460000
249.391495	146.380000
249.484344	146.140000
249.577179	145.700000
249.670029	146.240000
249.762878	146.740000
249.855728	147.040000
249.948563	147.080000
250.041412	146.740000
250.134262	146.660000
250.227112	146.280000
250.319962	146.560000
250.412827	146.360000
250.505692	146.120000
250.598541	146.300000
250.691391	145.940000
250.784241	145.620000
250.877106	145.620000
250.969955	145.680000
251.062805	145.760000
251.155670	146.340000
251.248520	146.240000
251.341385	146.620000
251.434235	146.820000
251.527100	146.780000
251.619965	146.340000
251.712814	147.180000
251.805695	147.020000
251.898560	147.060000
251.991425	147.420000
252.084290	147.480000
252.177155	146.560000
252.270020	146.580000
252.362885	146.280000
252.455750	145.820000
252.548615	145.580000
252.641479	145.540000
252.734360	145.360000
252.827240	145.480000
252.920105	145.460000
253.012970	145.340000
253.105850	145.480000
253.198715	145.360000
253.291595	145.560000
253.384460	145.300000
253.477341	145.460000
253.570221	145.680000
253.663086	145.540000
253.755966	146.140000
253.848846	146.380000
253.941727	146.480000
254.034592	146.340000
254.127472	146.120000
254.220367	145.920000
254.313248	146.220000
254.406128	145.880000
254.499008	146.040000
254.591904	147.160000
254.684784	147.480000
254.777664	147.260000
254.870544	147.260000
254.963440	147.180000
255.056335	146.700000
255.149216	145.960000
255.242111	146.120000
255.334991	146.720000
255.427887	146.700000
255.520767	146.600000
255.613663	147.180000
255.706558	146.520000
255.799438	145.960000
255.892334	145.780000
255.985229	145.600000
256.078125	145.000000
256.171021	145.120000
256.263916	145.500000
256.356812	145.800000
256.449707	146.200000
256.542603	146.060000
256.635498	146.840000
256.728394	146.640000
256.821289	146.320000
256.914215	146.180000
257.007080	146.680000
257.100006	146.300000
257.192932	146.760000
257.285828	147.200000
257.378723	147.220000
257.471619	146.640000
257.564545	146.320000
257.657440	146.460000
257.750336	146.640000
257.843262	146.200000
257.936157	147.660000
258.029053	147.940000
258.121979	147.740000
258.214874	147.380000
258.307800	147.320000
258.400696	146.020000
258.493622	145.940000
258.586517	145.080000
258.679443	144.900000
258.772339	144.520000
258.865265	144.600000
258.958160	144.040000
259.051086	145.440000
259.144012	145.500000
259.236938	146.880000
259.329834	146.980000
259.422791	147.400000
259.515717	146.260000
259.608612	146.160000
259.701538	145.680000
259.794464	145.560000
259.887390	145.360000
259.980316	145.680000
260.073212	145.560000
260.166138	144.900000
260.259064	144.980000
260.351990	145.660000
260.444916	145.320000
260.537842	145.960000
260.630768	146.660000
260.723694	146.740000
260.816620	146.260000
260.909546	146.560000
261.002472	145.860000
261.095398	145.300000
261.188354	145.240000
261.281281	144.900000
261.374207	144.880000
261.467133	145.660000
261.560089	146.000000
261.653015	145.700000
261.745972	146.720000
261.838867	147.280000
261.931824	147.300000
262.024780	146.900000
262.117706	147.280000
262.210663	147.120000
262.303589	146.900000
262.396515	147.000000
262.489471	147.840000
262.582397	147.760000
262.675354	146.920000
262.768280	146.440000
262.861237	146.260000
262.954163	145.960000
263.047119	146.160000
263.140045	146.560000
263.233002	146.760000
263.325958	146.440000
263.418884	146.080000
263.511841	146.080000
263.604797	145.920000
263.697723	146.200000
263.790680	146.200000
263.883636	146.780000
263.976593	146.380000
264.069550	146.600000
264.162476	146.220000
264.255463	146.260000
264.348419	145.800000
264.441376	146.160000
264.534332	145.720000
264.627289	146.040000
264.720245	146.600000
264.813202	146.060000
264.906158	146.060000
264.999115	146.700000
265.092072	146.460000
265.185028	146.420000
265.277985	147.040000
265.370941	147.100000
265.463898	146.600000
265.556854	146.260000
265.649811	145.480000
265.742798	145.360000
265.835754	145.220000
265.928711	145.920000
266.021667	146.200000
266.114655	146.540000
266.207611	146.940000
266.300568	146.500000
266.393585	145.720000
266.486511	146.060000
266.579498	145.260000
266.672485	145.180000
266.765442	145.420000
266.858429	146.140000
266.951385	145.640000
267.044342	146.400000
267.137329	145.960000
267.230316	146.300000
267.323273	145.500000
267.416260	146.220000
267.509216	145.860000
267.602203	146.220000
267.695160	146.100000
267.788147	146.540000
267.881134	146.180000
267.974091	146.560000
268.067078	146.180000
268.160065	146.100000
268.253052	145.700000
268.346008	145.400000
268.438995	145.180000
268.531982	145.380000
268.624969	145.220000
268.717987	145.700000
268.810944	145.680000
268.903961	145.920000
268.996948	145.760000
269.089905	146.420000
269.182892	146.540000
269.275879	146.920000
269.368866	146.340000
269.461853	146.560000
269.554871	145.900000
269.647858	145.620000
269.740845	145.880000
269.833832	146.340000
269.926819	146.220000
270.019806	146.580000
270.112793	146.200000
270.205811	146.100000
270.298798	146.140000
270.391785	146.940000
270.484772	146.720000
270.577789	146.920000
270.670776	146.260000
270.763763	145.960000
270.856750	145.100000
270.949768	144.700000
271.042786	144.920000
271.135773	145.360000
271.228790	145.740000
271.321808	145.620000
271.414795	145.560000
271.507782	145.220000
271.600800	144.820000
271.693817	144.840000
271.786804	145.440000
271.879822	145.860000
271.972809	145.800000
272.065826	146.620000
272.158844	145.860000
272.251831	146.080000
272.344849	146.020000
272.437866	146.040000
272.530853	145.640000
272.623871	146.420000
272.716888	145.320000
272.809906	145.660000
272.902893	145.820000
272.995911	145.380000
273.088928	145.200000
273.181946	146.120000
273.274963	145.780000
273.367981	145.980000
273.460999	146.440000
273.554047	146.620000
273.647003	146.960000
273.740051	147.060000
273.833069	147.240000
273.926086	147.360000
274.019135	147.140000
274.112152	146.740000
274.205170	146.700000
274.298187	146.720000
274.391205	146.120000
274.484222	146.260000
274.577240	146.000000
274.670258	145.800000
274.763306	145.460000
274.856323	145.840000
274.949341	146.000000
275.042358	146.280000
275.135406	146.360000
275.228424	146.260000
275.321442	146.420000
275.414490	145.980000
275.507507	145.880000
275.600525	146.200000
275.693573	146.060000
275.786591	145.420000
275.879669	145.300000
275.972656	145.160000
276.065735	145.040000
276.158752	145.780000
276.251801	146.820000
276.344818	147.080000
276.437866	147.000000
276.530884	146.760000
276.623932	145.700000
276.716980	145.320000
276.809998	145.200000
276.903046	145.400000
276.996094	146.160000
277.089111	146.980000
277.182159	147.440000
277.275208	147.100000
277.368256	147.240000
277.461304	146.580000
277.554321	145.880000
277.647369	145.620000
277.740417	146.020000
277.833466	145.580000
277.926514	145.720000
278.019562	146.900000
278.112610	146.240000
278.205688	146.360000
278.298706	146.820000
278.391785	146.580000
278.484833	145.660000
278.577881	145.760000
278.670929	145.980000
278.763977	145.960000
278.857025	146.540000
278.950073	146.520000
279.043121	146.640000
279.136169	146.420000
279.229248	146.060000
279.322296	145.940000
279.415344	145.880000
279.508392	145.400000
279.601440	145.400000
279.694519	145.300000
279.787567	145.120000
279.880615	145.220000
279.973694	145.700000
280.066742	145.640000
280.159790	146.040000
280.252869	145.620000
280.345917	145.880000
280.438995	145.740000
280.532074	145.840000
280.625122	145.900000
280.718201	146.700000
280.811279	146.600000
280.904327	146.620000
280.997406	146.740000
281.090454	146.880000
281.183533	146.100000
281.276581	145.880000
281.369659	145.840000
281.462738	145.660000
281.555786	145.300000
281.648865	145.620000
281.741943	145.820000
281.835022	146.500000
281.928070	146.480000
282.021149	146.480000
282.114227	146.380000
282.207306	146.200000
282.300385	145.760000
282.393433	145.800000
282.486511	145.800000
282.579590	146.180000
282.672668	146.780000
282.765747	146.520000
282.858856	146.360000
282.951904	146.600000
283.045013	146.740000
283.138062	146.480000
283.231171	146.880000
283.324249	147.100000
283.417328	146.920000
283.510406	146.260000
283.603485	146.080000
283.696564	146.000000
283.789642	146.360000
283.882751	146.040000
283.975830	146.880000
284.068909	146.800000
284.161987	147.280000
284.255066	146.480000
284.348175	146.740000
284.441254	146.460000
284.534332	147.020000
284.627441	146.440000
284.720520	146.240000
284.813599	146.460000
284.906708	146.520000
284.999786	145.740000
285.092896	145.400000
285.185974	146.680000
285.279053	146.100000
285.372192	145.960000
285.465240	146.720000
285.558380	146.760000
285.651459	146.160000
285.744568	147.240000
285.837677	146.980000
285.930756	146.740000
286.023865	146.960000
286.116943	146.640000
286.210052	146.160000
286.303162	146.080000
286.396240	145.980000
286.489349	145.880000
286.582458	146.420000
286.675568	146.140000
286.768646	146.200000
286.861755	146.580000
286.954865	147.260000
287.047974	146.520000
287.141083	146.420000
287.234161	146.260000
287.327271	145.900000
287.420380	145.980000
287.513519	146.100000
287.606598	146.180000
287.699738	146.560000
287.792816	146.380000
287.885956	145.940000
287.979034	146.080000
288.072174	146.400000
288.165283	146.080000
288.258392	146.460000
288.351501	146.000000
288.444611	146.120000
288.537720	146.180000
288.630859	146.220000
288.723969	146.240000
288.817078	146.860000
288.910187	146.940000
289.003296	146.500000
289.096436	146.420000
289.189545	146.160000
289.282654	145.480000
289.375763	145.760000
289.468903	146.200000
289.562012	146.140000
289.655121	146.120000
289.748260	146.340000
289.841400	146.320000
289.934509	146.380000
290.027649	146.560000
290.120728	146.300000
290.213898	146.480000
290.306976	146.120000
290.400146	145.640000
290.493256	145.420000
290.586395	145.720000
290.679535	145.940000
290.772644	145.980000
290.865784	145.420000
290.958893	145.380000
291.052032	145.240000
291.145172	144.900000
291.238281	144.480000
291.331421	144.980000
291.424561	145.580000
291.517670	145.660000
291.610809	145.820000
291.703949	145.900000
291.797089	146.140000
291.890228	145.820000
291.983337	146.000000
292.076477	145.840000
292.169617	146.220000
292.262756	146.340000
292.355927	146.260000
292.449036	145.880000
292.542206	146.060000
292.635315	145.900000
292.728485	145.980000
292.821625	145.800000
292.914764	147.040000
293.007904	147.080000
293.101044	147.140000
293.194183	147.040000
293.287323	147.260000
293.380463	146.580000
293.473602	146.260000
293.566742	146.620000
293.659882	146.980000
293.753021	147.220000
293.846191	147.080000
293.939331	146.980000
294.032471	146.600000
294.125610	146.040000
294.218781	146.160000
294.311920	145.960000
294.405060	146.320000
294.498230	146.320000
294.591370	146.460000
294.684540	145.620000
294.777679	145.520000
294.870850	145.640000
294.963959	145.440000
295.057159	145.100000
295.150299	145.880000
295.243469	146.020000
295.336609	145.660000
295.429779	145.920000
295.522919	146.640000
295.616089	146.420000
295.709229	147.140000
295.802399	147.400000
295.895569	147.040000
295.988708	146.720000
296.081879	146.780000
296.175018	145.880000
296.268188	145.740000
296.361359	146.540000
296.454529	146.400000
296.547668	146.360000
296.640839	146.880000
296.734009	146.680000
296.827179	146.300000
296.920319	146.800000
297.013519	146.620000
297.106659	146.460000
297.199860	146.540000
297.292999	146.440000
297.386200	145.820000
297.479309	145.920000
297.572510	145.820000
297.665680	145.820000
297.758850	145.840000
297.852020	145.940000
297.945190	145.700000
298.038361	145.400000
298.131531	146.440000
298.224701	146.340000
298.317871	145.980000
298.411072	145.600000
298.504242	145.460000
298.597412	144.800000
298.690582	145.360000
298.783752	145.760000
298.876923	146.460000
298.970093	146.740000
299.063293	146.800000
299.156464	146.920000
299.249634	147.140000
299.342834	147.440000
299.436005	147.800000
299.529205	147.680000
299.622345	147.620000
299.715576	146.960000
299.808716	146.460000
299.901917	146.340000
299.995117	146.480000
300.088287	146.260000
300.181488	146.100000
300.274658	146.340000
300.367828	146.320000
300.461029	146.120000
300.554199	146.600000
300.647400	147.120000
300.740601	147.360000
300.833771	147.080000
300.926971	147.420000
301.020142	146.640000
301.113342	146.640000
301.206512	146.440000
301.299713	146.680000
301.392914	146.560000
301.486084	146.980000
301.579285	146.760000
301.672516	147.240000
301.765686	147.340000
301.858887	147.120000
301.952057	146.820000
302.045288	146.820000
302.138458	146.460000
302.231659	146.140000
302.324860	146.260000
302.418060	145.980000
302.511261	145.940000
302.604462	146.080000
302.697662	145.900000
302.790863	145.340000
302.884064	145.260000
302.977264	145.460000
303.070465	145.500000
303.163666	146.240000
303.256866	146.680000
303.350067	147.240000
303.443268	147.160000
303.536469	147.120000
303.629669	146.440000
303.722870	146.620000
303.816071	145.980000
303.909271	146.100000
304.002472	145.120000
304.095673	144.980000
304.188934	144.300000
304.282104	145.380000
304.375336	145.420000
304.468506	145.900000
304.561768	145.900000
304.654968	146.880000
304.748169	146.340000
304.841370	146.000000
304.934601	146.300000
305.027802	146.460000
305.121002	146.000000
305.214233	145.940000
305.307434	146.200000
305.400665	146.840000
305.493866	146.580000
