Model Number: SPM-002-B   
Serial Number: 70087108
Firmware Version: 004.15.4
Exposure Time: 100000.000000us
Data Taken on: 11-12-2020 18:53:09.348
Wavelength	Amplitude
221.570786	0.000000
221.663406	0.000000
221.756027	0.000000
221.848648	0.000000
221.941269	0.000000
222.033905	0.000000
222.126526	0.000000
222.219162	0.000000
222.311798	0.000000
222.404419	0.000000
222.497055	0.000000
222.589676	0.000000
222.682312	0.000000
222.774933	0.000000
222.867569	0.000000
222.960205	0.000000
223.052841	0.000000
223.145462	0.000000
223.238098	0.000000
223.330734	0.000000
223.423386	0.000000
223.516022	0.000000
223.608658	0.000000
223.701309	0.000000
223.793945	0.000000
223.886581	0.000000
223.979218	0.000000
224.071869	0.000000
224.164505	0.000000
224.257156	0.000000
224.349792	0.000000
224.442444	0.000000
224.535095	0.000000
224.627747	0.000000
224.720398	0.000000
224.813034	0.000000
224.905685	0.000000
224.998337	145.860000
225.090988	145.540000
225.183640	145.820000
225.276291	145.820000
225.368942	146.320000
225.461594	147.180000
225.554245	147.360000
225.646912	147.000000
225.739578	147.400000
225.832230	147.460000
225.924896	146.440000
226.017548	146.720000
226.110199	147.460000
226.202866	146.620000
226.295532	146.680000
226.388184	146.760000
226.480850	146.440000
226.573517	146.020000
226.666168	146.740000
226.758835	146.820000
226.851501	147.460000
226.944183	147.540000
227.036850	147.240000
227.129517	146.940000
227.222183	146.980000
227.314850	146.940000
227.407516	147.360000
227.500198	148.140000
227.592865	147.780000
227.685532	147.400000
227.778214	146.780000
227.870880	146.820000
227.963562	146.920000
228.056229	147.540000
228.148926	147.740000
228.241592	148.880000
228.334274	148.480000
228.426956	147.920000
228.519638	147.900000
228.612305	147.400000
228.704987	147.140000
228.797668	147.220000
228.890350	147.280000
228.983032	146.540000
229.075714	147.380000
229.168396	146.740000
229.261108	146.280000
229.353790	146.220000
229.446472	146.500000
229.539169	146.020000
229.631851	145.760000
229.724533	145.980000
229.817230	146.300000
229.909912	147.120000
230.002609	147.280000
230.095306	147.460000
230.187988	147.900000
230.280685	147.520000
230.373383	146.340000
230.466095	146.400000
230.558792	146.680000
230.651474	146.620000
230.744171	146.680000
230.836868	146.860000
230.929581	146.720000
231.022278	146.760000
231.114975	146.460000
231.207672	146.280000
231.300369	146.700000
231.393082	146.840000
231.485779	146.400000
231.578506	146.740000
231.671204	146.920000
231.763916	147.000000
231.856613	147.000000
231.949326	147.460000
232.042023	146.940000
232.134735	147.040000
232.227448	146.440000
232.320160	146.440000
232.412872	146.360000
232.505585	147.220000
232.598297	147.500000
232.691010	147.920000
232.783722	147.420000
232.876450	147.980000
232.969162	147.640000
233.061874	147.120000
233.154587	146.720000
233.247314	147.240000
233.340027	146.660000
233.432739	146.860000
233.525467	146.900000
233.618179	147.360000
233.710907	147.200000
233.803635	147.660000
233.896347	147.200000
233.989090	147.740000
234.081818	147.640000
234.174545	147.880000
234.267258	147.200000
234.359985	147.480000
234.452713	147.260000
234.545441	147.080000
234.638168	146.820000
234.730896	147.500000
234.823639	147.420000
234.916367	148.000000
235.009094	148.220000
235.101822	148.360000
235.194580	148.260000
235.287308	148.200000
235.380051	147.340000
235.472778	147.480000
235.565521	147.320000
235.658249	146.600000
235.750992	146.560000
235.843719	146.420000
235.936462	146.580000
236.029205	146.280000
236.121948	146.500000
236.214691	147.040000
236.307449	147.980000
236.400192	147.440000
236.492935	147.440000
236.585678	147.840000
236.678421	147.560000
236.771164	147.280000
236.863907	148.200000
236.956665	148.700000
237.049408	149.900000
237.142151	149.580000
237.234909	149.900000
237.327652	149.520000
237.420410	149.160000
237.513153	147.820000
237.605927	148.040000
237.698669	147.580000
237.791428	147.000000
237.884186	147.700000
237.976944	147.260000
238.069702	147.240000
238.162445	146.820000
238.255203	146.960000
238.347961	146.740000
238.440720	147.080000
238.533478	147.100000
238.626266	146.700000
238.719025	146.820000
238.811783	146.680000
238.904541	146.500000
238.997314	146.160000
239.090073	146.360000
239.182831	146.500000
239.275604	147.220000
239.368362	147.260000
239.461136	147.420000
239.553909	147.420000
239.646667	147.420000
239.739441	146.940000
239.832214	147.220000
239.925003	147.580000
240.017761	148.340000
240.110535	148.700000
240.203308	148.000000
240.296082	148.060000
240.388855	147.720000
240.481628	147.400000
240.574417	147.160000
240.667191	147.540000
240.759964	147.060000
240.852737	147.060000
240.945526	146.960000
241.038315	146.700000
241.131088	146.780000
241.223877	147.060000
241.316650	146.540000
241.409439	146.740000
241.502228	146.340000
241.595001	146.760000
241.687790	146.640000
241.780579	146.940000
241.873367	147.080000
241.966141	147.600000
242.058929	147.040000
242.151718	147.320000
242.244507	147.580000
242.337311	146.700000
242.430099	146.980000
242.522903	147.380000
242.615692	147.000000
242.708481	147.080000
242.801270	147.800000
242.894073	147.620000
242.986862	147.440000
243.079651	147.860000
243.172455	147.660000
243.265244	147.780000
243.358063	147.060000
243.450867	146.900000
243.543655	146.920000
243.636459	147.120000
243.729263	147.040000
243.822067	147.480000
243.914856	148.060000
244.007660	147.760000
244.100464	147.500000
244.193268	147.280000
244.286072	147.060000
244.378876	146.380000
244.471680	146.200000
244.564499	146.460000
244.657318	147.000000
244.750122	147.420000
244.842926	146.740000
244.935745	147.220000
245.028549	147.060000
245.121368	146.180000
245.214172	146.100000
245.306992	146.920000
245.399796	146.600000
245.492615	146.520000
245.585434	146.960000
245.678253	146.820000
245.771072	146.580000
245.863892	146.860000
245.956711	147.180000
246.049530	146.760000
246.142349	146.780000
246.235168	147.120000
246.327988	147.500000
246.420807	146.960000
246.513626	147.200000
246.606445	146.960000
246.699280	146.760000
246.792099	146.120000
246.884918	146.300000
246.977753	145.940000
247.070587	146.300000
247.163422	146.320000
247.256241	146.560000
247.349075	146.740000
247.441895	147.160000
247.534729	146.760000
247.627563	146.460000
247.720383	147.040000
247.813217	146.800000
247.906052	146.660000
247.998886	146.900000
248.091736	147.140000
248.184570	146.480000
248.277405	146.580000
248.370239	147.620000
248.463074	148.360000
248.555908	148.700000
248.648743	148.500000
248.741592	148.860000
248.834427	148.000000
248.927261	147.060000
249.020111	147.200000
249.112946	147.880000
249.205795	147.440000
249.298630	147.260000
249.391495	147.460000
249.484344	146.900000
249.577179	146.660000
249.670029	146.760000
249.762878	147.480000
249.855728	147.620000
249.948563	147.720000
250.041412	147.220000
250.134262	147.520000
250.227112	147.160000
250.319962	146.980000
250.412827	146.900000
250.505692	146.880000
250.598541	146.880000
250.691391	146.600000
250.784241	146.700000
250.877106	146.960000
250.969955	146.840000
251.062805	147.020000
251.155670	147.380000
251.248520	146.940000
251.341385	146.920000
251.434235	147.100000
251.527100	146.720000
251.619965	146.160000
251.712814	147.200000
251.805695	147.200000
251.898560	147.200000
251.991425	147.300000
252.084290	147.740000
252.177155	147.160000
252.270020	146.900000
252.362885	146.800000
252.455750	146.800000
252.548615	146.640000
252.641479	146.480000
252.734360	146.420000
252.827240	146.480000
252.920105	146.700000
253.012970	146.440000
253.105850	146.340000
253.198715	146.220000
253.291595	146.500000
253.384460	146.060000
253.477341	146.260000
253.570221	146.720000
253.663086	146.700000
253.755966	147.040000
253.848846	147.300000
253.941727	147.420000
254.034592	147.200000
254.127472	147.060000
254.220367	146.960000
254.313248	146.720000
254.406128	146.320000
254.499008	146.300000
254.591904	147.060000
254.684784	147.300000
254.777664	147.400000
254.870544	147.360000
254.963440	147.240000
255.056335	146.820000
255.149216	146.560000
255.242111	146.980000
255.334991	147.340000
255.427887	147.520000
255.520767	147.940000
255.613663	147.920000
255.706558	147.020000
255.799438	146.640000
255.892334	146.420000
255.985229	146.040000
256.078125	146.080000
256.171021	146.500000
256.263916	147.240000
256.356812	147.420000
256.449707	147.640000
256.542603	147.280000
256.635498	147.520000
256.728394	147.320000
256.821289	147.180000
256.914215	147.400000
257.007080	147.780000
257.100006	147.880000
257.192932	147.960000
257.285828	148.060000
257.378723	147.700000
257.471619	147.400000
257.564545	146.980000
257.657440	146.640000
257.750336	147.160000
257.843262	147.060000
257.936157	148.260000
258.029053	148.600000
258.121979	148.740000
258.214874	148.280000
258.307800	148.280000
258.400696	146.840000
258.493622	146.680000
258.586517	146.240000
258.679443	146.440000
258.772339	146.120000
258.865265	146.620000
258.958160	146.260000
259.051086	146.920000
259.144012	146.720000
259.236938	147.740000
259.329834	147.300000
259.422791	147.360000
259.515717	146.880000
259.608612	146.600000
259.701538	146.560000
259.794464	146.480000
259.887390	146.480000
259.980316	146.600000
260.073212	146.640000
260.166138	145.240000
260.259064	145.820000
260.351990	146.260000
260.444916	146.040000
260.537842	146.380000
260.630768	147.480000
260.723694	147.260000
260.816620	147.240000
260.909546	147.480000
261.002472	146.940000
261.095398	146.240000
261.188354	146.140000
261.281281	145.600000
261.374207	145.680000
261.467133	146.480000
261.560089	147.020000
261.653015	146.800000
261.745972	147.580000
261.838867	147.680000
261.931824	148.000000
262.024780	147.240000
262.117706	147.580000
262.210663	147.520000
262.303589	147.560000
262.396515	147.060000
262.489471	148.200000
262.582397	147.840000
262.675354	147.200000
262.768280	146.920000
262.861237	147.080000
262.954163	146.680000
263.047119	146.960000
263.140045	146.740000
263.233002	146.720000
263.325958	146.320000
263.418884	145.860000
263.511841	146.000000
263.604797	146.620000
263.697723	146.920000
263.790680	146.920000
263.883636	147.600000
263.976593	147.380000
264.069550	147.320000
264.162476	147.000000
264.255463	147.220000
264.348419	146.840000
264.441376	146.880000
264.534332	146.540000
264.627289	146.680000
264.720245	146.880000
264.813202	146.600000
264.906158	147.020000
264.999115	147.340000
265.092072	147.340000
265.185028	147.780000
265.277985	148.060000
265.370941	147.700000
265.463898	147.620000
265.556854	147.460000
265.649811	146.300000
265.742798	146.380000
265.835754	146.380000
265.928711	147.000000
266.021667	146.740000
266.114655	147.320000
266.207611	147.480000
266.300568	146.860000
266.393585	146.080000
266.486511	146.700000
266.579498	145.960000
266.672485	145.700000
266.765442	146.120000
266.858429	146.720000
266.951385	146.100000
267.044342	146.460000
267.137329	146.480000
267.230316	146.520000
267.323273	145.840000
267.416260	146.540000
267.509216	146.460000
267.602203	146.480000
267.695160	147.060000
267.788147	147.300000
267.881134	146.900000
267.974091	147.080000
268.067078	146.640000
268.160065	146.120000
268.253052	145.980000
268.346008	146.380000
268.438995	146.260000
268.531982	146.820000
268.624969	146.780000
268.717987	147.040000
268.810944	146.620000
268.903961	146.820000
268.996948	146.580000
269.089905	146.840000
269.182892	146.900000
269.275879	147.180000
269.368866	146.740000
269.461853	146.920000
269.554871	146.960000
269.647858	147.020000
269.740845	147.380000
269.833832	147.940000
269.926819	147.500000
270.019806	147.640000
270.112793	147.100000
270.205811	146.880000
270.298798	146.580000
270.391785	147.300000
270.484772	146.780000
270.577789	147.320000
270.670776	146.780000
270.763763	146.940000
270.856750	146.820000
270.949768	146.740000
271.042786	146.560000
271.135773	146.760000
271.228790	146.920000
271.321808	146.300000
271.414795	146.080000
271.507782	145.620000
271.600800	145.620000
271.693817	145.540000
271.786804	146.120000
271.879822	146.620000
271.972809	146.900000
272.065826	146.960000
272.158844	146.460000
272.251831	146.980000
272.344849	146.940000
272.437866	146.580000
272.530853	146.800000
272.623871	147.200000
272.716888	145.920000
272.809906	146.120000
272.902893	146.480000
272.995911	145.980000
273.088928	145.920000
273.181946	146.660000
273.274963	146.200000
273.367981	146.060000
273.460999	146.420000
273.554047	146.880000
273.647003	147.140000
273.740051	147.300000
273.833069	147.720000
273.926086	147.880000
274.019135	147.340000
274.112152	146.740000
274.205170	146.700000
274.298187	146.780000
274.391205	146.160000
274.484222	146.360000
274.577240	146.420000
274.670258	146.260000
274.763306	145.860000
274.856323	146.380000
274.949341	146.440000
275.042358	146.940000
275.135406	147.020000
275.228424	147.360000
275.321442	147.300000
275.414490	146.880000
275.507507	146.840000
275.600525	147.360000
275.693573	147.080000
275.786591	146.580000
275.879669	147.040000
275.972656	146.580000
276.065735	146.020000
276.158752	146.200000
276.251801	147.120000
276.344818	147.100000
276.437866	147.420000
276.530884	147.340000
276.623932	146.540000
276.716980	146.200000
276.809998	146.160000
276.903046	146.220000
276.996094	147.020000
277.089111	147.880000
277.182159	148.680000
277.275208	148.460000
277.368256	148.180000
277.461304	147.860000
277.554321	147.200000
277.647369	146.680000
277.740417	146.800000
277.833466	147.000000
277.926514	146.600000
278.019562	147.360000
278.112610	147.040000
278.205688	147.240000
278.298706	147.000000
278.391785	146.780000
278.484833	146.380000
278.577881	146.080000
278.670929	146.140000
278.763977	146.380000
278.857025	147.240000
278.950073	147.300000
279.043121	147.300000
279.136169	147.060000
279.229248	146.800000
279.322296	146.440000
279.415344	146.200000
279.508392	146.120000
279.601440	146.020000
279.694519	145.980000
279.787567	145.980000
279.880615	146.100000
279.973694	146.080000
280.066742	146.340000
280.159790	146.700000
280.252869	146.200000
280.345917	146.480000
280.438995	146.620000
280.532074	146.340000
280.625122	146.480000
280.718201	147.820000
280.811279	147.520000
280.904327	147.500000
280.997406	147.740000
281.090454	147.400000
281.183533	146.360000
281.276581	146.380000
281.369659	146.460000
281.462738	146.320000
281.555786	146.760000
281.648865	146.920000
281.741943	146.960000
281.835022	147.120000
281.928070	147.040000
282.021149	146.600000
282.114227	146.420000
282.207306	146.100000
282.300385	146.440000
282.393433	146.600000
282.486511	146.620000
282.579590	147.160000
282.672668	147.780000
282.765747	147.160000
282.858856	146.700000
282.951904	146.820000
283.045013	146.780000
283.138062	147.020000
283.231171	147.440000
283.324249	148.180000
283.417328	148.480000
283.510406	147.960000
283.603485	147.280000
283.696564	146.900000
283.789642	146.540000
283.882751	146.060000
283.975830	146.700000
284.068909	146.560000
284.161987	147.360000
284.255066	147.180000
284.348175	147.400000
284.441254	147.240000
284.534332	147.840000
284.627441	147.160000
284.720520	146.860000
284.813599	146.760000
284.906708	146.540000
284.999786	145.500000
285.092896	145.520000
285.185974	146.740000
285.279053	146.160000
285.372192	146.180000
285.465240	147.260000
285.558380	147.080000
285.651459	146.320000
285.744568	147.460000
285.837677	147.300000
285.930756	147.200000
286.023865	147.180000
286.116943	146.820000
286.210052	146.660000
286.303162	146.780000
286.396240	146.540000
286.489349	146.280000
286.582458	146.960000
286.675568	146.640000
286.768646	146.560000
286.861755	147.100000
286.954865	147.940000
287.047974	147.120000
287.141083	147.040000
287.234161	146.800000
287.327271	146.060000
287.420380	146.240000
287.513519	146.440000
287.606598	146.340000
287.699738	146.660000
287.792816	146.860000
287.885956	146.260000
287.979034	146.200000
288.072174	146.360000
288.165283	146.140000
288.258392	146.300000
288.351501	146.220000
288.444611	146.760000
288.537720	146.800000
288.630859	146.680000
288.723969	146.880000
288.817078	147.140000
288.910187	146.840000
289.003296	146.560000
289.096436	146.480000
289.189545	146.120000
289.282654	145.280000
289.375763	145.940000
289.468903	146.400000
289.562012	146.760000
289.655121	147.040000
289.748260	147.600000
289.841400	147.440000
289.934509	146.980000
290.027649	147.120000
290.120728	146.720000
290.213898	147.020000
290.306976	146.540000
290.400146	146.940000
290.493256	146.720000
290.586395	146.960000
290.679535	146.960000
290.772644	146.620000
290.865784	145.880000
290.958893	146.020000
291.052032	145.600000
291.145172	145.500000
291.238281	145.520000
291.331421	146.020000
291.424561	146.060000
291.517670	146.260000
291.610809	146.320000
291.703949	146.400000
291.797089	146.700000
291.890228	146.700000
291.983337	146.740000
292.076477	146.540000
292.169617	146.800000
292.262756	146.540000
292.355927	146.300000
292.449036	146.280000
292.542206	146.440000
292.635315	146.520000
292.728485	146.700000
292.821625	146.340000
292.914764	147.320000
293.007904	147.260000
293.101044	147.340000
293.194183	146.900000
293.287323	147.400000
293.380463	146.680000
293.473602	146.580000
293.566742	146.460000
293.659882	147.120000
293.753021	147.140000
293.846191	146.820000
293.939331	146.340000
294.032471	146.300000
294.125610	145.700000
294.218781	145.880000
294.311920	146.540000
294.405060	147.200000
294.498230	147.080000
294.591370	147.460000
294.684540	146.860000
294.777679	146.220000
294.870850	146.680000
294.963959	146.700000
295.057159	146.400000
295.150299	146.740000
295.243469	146.760000
295.336609	145.840000
295.429779	146.040000
295.522919	146.400000
295.616089	146.180000
295.709229	147.000000
295.802399	147.120000
295.895569	146.680000
295.988708	146.540000
296.081879	146.980000
296.175018	146.160000
296.268188	146.340000
296.361359	147.120000
296.454529	147.100000
296.547668	146.840000
296.640839	147.220000
296.734009	146.780000
296.827179	146.580000
296.920319	146.580000
297.013519	146.760000
297.106659	146.700000
297.199860	147.220000
297.292999	146.980000
297.386200	146.880000
297.479309	146.300000
297.572510	146.140000
297.665680	145.820000
297.758850	145.900000
297.852020	145.860000
297.945190	146.000000
298.038361	145.720000
298.131531	146.880000
298.224701	146.760000
298.317871	146.440000
298.411072	146.380000
298.504242	146.580000
298.597412	145.600000
298.690582	146.000000
298.783752	146.200000
298.876923	146.580000
298.970093	146.820000
299.063293	147.220000
299.156464	147.420000
299.249634	147.880000
299.342834	148.040000
299.436005	147.880000
299.529205	147.720000
299.622345	147.380000
299.715576	146.540000
299.808716	146.080000
299.901917	146.060000
299.995117	146.240000
300.088287	146.460000
300.181488	146.500000
300.274658	146.580000
300.367828	146.760000
300.461029	146.780000
300.554199	146.720000
300.647400	146.800000
300.740601	147.180000
300.833771	147.120000
300.926971	147.080000
301.020142	146.480000
301.113342	146.520000
301.206512	146.340000
301.299713	146.340000
301.392914	146.220000
301.486084	146.800000
301.579285	146.780000
301.672516	147.280000
301.765686	147.220000
301.858887	147.140000
301.952057	146.860000
302.045288	147.140000
302.138458	146.780000
302.231659	146.360000
302.324860	146.180000
302.418060	146.400000
302.511261	146.360000
302.604462	146.520000
302.697662	146.580000
302.790863	146.680000
302.884064	146.060000
302.977264	145.740000
303.070465	145.820000
303.163666	146.620000
303.256866	146.720000
303.350067	146.900000
303.443268	147.120000
303.536469	147.060000
303.629669	146.140000
303.722870	146.140000
303.816071	146.060000
303.909271	146.120000
304.002472	145.600000
304.095673	145.640000
304.188934	145.000000
304.282104	146.020000
304.375336	145.920000
304.468506	146.120000
304.561768	146.060000
304.654968	146.720000
304.748169	145.700000
304.841370	145.640000
304.934601	145.740000
305.027802	145.740000
305.121002	145.500000
305.214233	145.940000
305.307434	146.060000
305.400665	146.240000
305.493866	146.140000
