Model Number: SPM-002-B   
Serial Number: 70087108
Firmware Version: 004.15.4
Exposure Time: 100000.000000us
Data Taken on: 11-12-2020 18:53:14.395
Wavelength	Amplitude
221.570786	0.000000
221.663406	0.000000
221.756027	0.000000
221.848648	0.000000
221.941269	0.000000
222.033905	0.000000
222.126526	0.000000
222.219162	0.000000
222.311798	0.000000
222.404419	0.000000
222.497055	0.000000
222.589676	0.000000
222.682312	0.000000
222.774933	0.000000
222.867569	0.000000
222.960205	0.000000
223.052841	0.000000
223.145462	0.000000
223.238098	0.000000
223.330734	0.000000
223.423386	0.000000
223.516022	0.000000
223.608658	0.000000
223.701309	0.000000
223.793945	0.000000
223.886581	0.000000
223.979218	0.000000
224.071869	0.000000
224.164505	0.000000
224.257156	0.000000
224.349792	0.000000
224.442444	0.000000
224.535095	0.000000
224.627747	0.000000
224.720398	0.000000
224.813034	0.000000
224.905685	0.000000
224.998337	146.060000
225.090988	145.640000
225.183640	145.320000
225.276291	144.860000
225.368942	145.260000
225.461594	145.920000
225.554245	146.300000
225.646912	146.700000
225.739578	147.500000
225.832230	148.020000
225.924896	147.120000
226.017548	147.380000
226.110199	147.600000
226.202866	146.900000
226.295532	146.420000
226.388184	146.640000
226.480850	146.140000
226.573517	145.440000
226.666168	145.560000
226.758835	145.840000
226.851501	146.420000
226.944183	146.580000
227.036850	146.400000
227.129517	146.320000
227.222183	146.480000
227.314850	146.240000
227.407516	146.380000
227.500198	147.480000
227.592865	147.160000
227.685532	146.560000
227.778214	146.200000
227.870880	146.640000
227.963562	146.820000
228.056229	147.460000
228.148926	147.580000
228.241592	148.700000
228.334274	148.060000
228.426956	147.560000
228.519638	147.380000
228.612305	147.020000
228.704987	146.460000
228.797668	146.580000
228.890350	146.220000
228.983032	145.560000
229.075714	146.520000
229.168396	146.180000
229.261108	145.900000
229.353790	146.240000
229.446472	146.980000
229.539169	146.760000
229.631851	146.400000
229.724533	146.540000
229.817230	146.420000
229.909912	147.240000
230.002609	146.760000
230.095306	146.920000
230.187988	146.960000
230.280685	146.940000
230.373383	145.660000
230.466095	145.820000
230.558792	146.180000
230.651474	146.380000
230.744171	146.320000
230.836868	146.240000
230.929581	146.340000
231.022278	146.320000
231.114975	146.420000
231.207672	146.100000
231.300369	146.760000
231.393082	146.820000
231.485779	146.400000
231.578506	146.440000
231.671204	146.620000
231.763916	146.580000
231.856613	146.300000
231.949326	146.820000
232.042023	146.400000
232.134735	146.600000
232.227448	146.140000
232.320160	146.760000
232.412872	146.600000
232.505585	147.660000
232.598297	148.060000
232.691010	148.260000
232.783722	147.720000
232.876450	148.320000
232.969162	147.460000
233.061874	146.980000
233.154587	146.460000
233.247314	146.460000
233.340027	145.720000
233.432739	146.220000
233.525467	145.840000
233.618179	146.580000
233.710907	146.420000
233.803635	146.960000
233.896347	146.300000
233.989090	147.300000
234.081818	146.860000
234.174545	147.180000
234.267258	146.800000
234.359985	146.940000
234.452713	146.620000
234.545441	146.720000
234.638168	146.640000
234.730896	146.880000
234.823639	146.660000
234.916367	146.820000
235.009094	146.840000
235.101822	146.660000
235.194580	146.640000
235.287308	146.860000
235.380051	146.300000
235.472778	146.580000
235.565521	146.880000
235.658249	146.380000
235.750992	146.460000
235.843719	146.540000
235.936462	146.820000
236.029205	146.620000
236.121948	146.760000
236.214691	147.080000
236.307449	147.640000
236.400192	147.100000
236.492935	146.820000
236.585678	147.000000
236.678421	146.820000
236.771164	146.620000
236.863907	147.240000
236.956665	147.600000
237.049408	149.240000
237.142151	148.660000
237.234909	149.040000
237.327652	148.740000
237.420410	148.380000
237.513153	146.940000
237.605927	147.120000
237.698669	146.480000
237.791428	145.700000
237.884186	146.480000
237.976944	146.180000
238.069702	146.540000
238.162445	146.160000
238.255203	146.620000
238.347961	146.740000
238.440720	146.800000
238.533478	146.480000
238.626266	146.160000
238.719025	146.180000
238.811783	145.740000
238.904541	145.580000
238.997314	145.340000
239.090073	145.700000
239.182831	146.040000
239.275604	146.680000
239.368362	146.580000
239.461136	147.220000
239.553909	147.460000
239.646667	147.120000
239.739441	146.540000
239.832214	147.100000
239.925003	147.080000
240.017761	147.520000
240.110535	148.160000
240.203308	147.700000
240.296082	147.580000
240.388855	147.460000
240.481628	147.260000
240.574417	147.220000
240.667191	147.360000
240.759964	146.780000
240.852737	146.620000
240.945526	146.200000
241.038315	145.800000
241.131088	146.060000
241.223877	146.380000
241.316650	146.240000
241.409439	146.860000
241.502228	146.480000
241.595001	146.780000
241.687790	146.720000
241.780579	146.940000
241.873367	146.960000
241.966141	147.560000
242.058929	146.900000
242.151718	147.060000
242.244507	147.480000
242.337311	146.480000
242.430099	146.680000
242.522903	146.880000
242.615692	146.660000
242.708481	146.360000
242.801270	147.080000
242.894073	146.620000
242.986862	146.880000
243.079651	147.460000
243.172455	147.260000
243.265244	147.360000
243.358063	147.020000
243.450867	147.120000
243.543655	146.820000
243.636459	146.980000
243.729263	147.400000
243.822067	147.620000
243.914856	147.900000
244.007660	148.100000
244.100464	147.880000
244.193268	147.260000
244.286072	147.360000
244.378876	146.680000
244.471680	146.120000
244.564499	146.240000
244.657318	146.700000
244.750122	147.020000
244.842926	146.680000
244.935745	147.200000
245.028549	146.880000
245.121368	146.460000
245.214172	146.140000
245.306992	146.920000
245.399796	146.700000
245.492615	147.120000
245.585434	147.200000
245.678253	147.200000
245.771072	146.820000
245.863892	146.960000
245.956711	147.100000
246.049530	146.860000
246.142349	146.820000
246.235168	147.320000
246.327988	147.780000
246.420807	147.420000
246.513626	147.660000
246.606445	147.620000
246.699280	147.000000
246.792099	146.440000
246.884918	146.280000
246.977753	145.880000
247.070587	146.180000
247.163422	146.600000
247.256241	146.520000
247.349075	147.280000
247.441895	147.320000
247.534729	147.040000
247.627563	146.640000
247.720383	147.240000
247.813217	146.880000
247.906052	146.900000
247.998886	146.760000
248.091736	146.460000
248.184570	145.920000
248.277405	145.960000
248.370239	146.660000
248.463074	147.480000
248.555908	148.100000
248.648743	148.020000
248.741592	147.840000
248.834427	147.140000
248.927261	146.260000
249.020111	146.440000
249.112946	147.380000
249.205795	147.240000
249.298630	147.420000
249.391495	147.420000
249.484344	147.160000
249.577179	146.340000
249.670029	146.600000
249.762878	147.000000
249.855728	147.380000
249.948563	147.320000
250.041412	147.080000
250.134262	147.240000
250.227112	147.080000
250.319962	146.960000
250.412827	146.960000
250.505692	146.940000
250.598541	146.960000
250.691391	146.620000
250.784241	146.700000
250.877106	146.960000
250.969955	146.960000
251.062805	147.120000
251.155670	147.780000
251.248520	147.640000
251.341385	147.720000
251.434235	147.760000
251.527100	147.320000
251.619965	146.660000
251.712814	147.240000
251.805695	147.160000
251.898560	147.200000
251.991425	147.440000
252.084290	148.180000
252.177155	147.520000
252.270020	147.200000
252.362885	147.240000
252.455750	147.040000
252.548615	146.380000
252.641479	146.460000
252.734360	146.400000
252.827240	146.160000
252.920105	146.240000
253.012970	146.180000
253.105850	146.060000
253.198715	145.780000
253.291595	145.800000
253.384460	145.420000
253.477341	145.620000
253.570221	145.920000
253.663086	145.760000
253.755966	146.680000
253.848846	146.780000
253.941727	146.720000
254.034592	146.480000
254.127472	146.440000
254.220367	145.940000
254.313248	146.380000
254.406128	146.040000
254.499008	146.300000
254.591904	147.280000
254.684784	147.760000
254.777664	147.760000
254.870544	147.640000
254.963440	147.340000
255.056335	147.300000
255.149216	146.820000
255.242111	146.860000
255.334991	147.280000
255.427887	147.420000
255.520767	147.000000
255.613663	147.140000
255.706558	146.500000
255.799438	146.580000
255.892334	146.160000
255.985229	146.340000
256.078125	146.300000
256.171021	146.500000
256.263916	146.960000
256.356812	147.340000
256.449707	147.200000
256.542603	146.820000
256.635498	147.580000
256.728394	146.880000
256.821289	146.600000
256.914215	146.620000
257.007080	146.900000
257.100006	146.580000
257.192932	147.000000
257.285828	147.560000
257.378723	147.260000
257.471619	147.120000
257.564545	146.660000
257.657440	146.340000
257.750336	146.500000
257.843262	146.700000
257.936157	147.800000
258.029053	148.140000
258.121979	148.380000
258.214874	148.040000
258.307800	147.980000
258.400696	146.520000
258.493622	146.300000
258.586517	145.520000
258.679443	145.800000
258.772339	145.320000
258.865265	145.620000
258.958160	145.420000
259.051086	146.460000
259.144012	146.160000
259.236938	146.980000
259.329834	147.140000
259.422791	147.120000
259.515717	146.440000
259.608612	146.100000
259.701538	146.540000
259.794464	146.240000
259.887390	146.260000
259.980316	146.640000
260.073212	146.740000
260.166138	145.620000
260.259064	146.360000
260.351990	147.100000
260.444916	147.020000
260.537842	147.440000
260.630768	148.060000
260.723694	147.660000
260.816620	147.200000
260.909546	146.860000
261.002472	146.320000
261.095398	146.060000
261.188354	146.020000
261.281281	145.700000
261.374207	146.000000
261.467133	146.680000
261.560089	146.960000
261.653015	146.880000
261.745972	147.560000
261.838867	147.920000
261.931824	147.760000
262.024780	147.180000
262.117706	147.480000
262.210663	147.760000
262.303589	147.360000
262.396515	147.520000
262.489471	148.200000
262.582397	147.680000
262.675354	146.780000
262.768280	146.960000
262.861237	146.860000
262.954163	146.740000
263.047119	147.200000
263.140045	147.240000
263.233002	147.020000
263.325958	146.840000
263.418884	146.220000
263.511841	146.240000
263.604797	146.040000
263.697723	146.140000
263.790680	146.040000
263.883636	146.660000
263.976593	146.320000
264.069550	146.820000
264.162476	146.580000
264.255463	146.700000
264.348419	146.320000
264.441376	146.600000
264.534332	145.920000
264.627289	146.020000
264.720245	146.520000
264.813202	146.280000
264.906158	146.420000
264.999115	147.280000
265.092072	147.360000
265.185028	147.600000
265.277985	147.880000
265.370941	147.740000
265.463898	147.600000
265.556854	147.340000
265.649811	146.200000
265.742798	146.380000
265.835754	146.460000
265.928711	146.540000
266.021667	146.680000
266.114655	147.200000
266.207611	147.320000
266.300568	146.580000
266.393585	145.980000
266.486511	146.360000
266.579498	145.540000
266.672485	145.340000
266.765442	145.600000
266.858429	146.340000
266.951385	145.760000
267.044342	146.200000
267.137329	146.260000
267.230316	146.560000
267.323273	146.020000
267.416260	147.040000
267.509216	147.080000
267.602203	147.100000
267.695160	147.400000
267.788147	147.720000
267.881134	146.920000
267.974091	147.000000
268.067078	146.760000
268.160065	146.240000
268.253052	146.000000
268.346008	146.100000
268.438995	145.800000
268.531982	145.900000
268.624969	146.000000
268.717987	146.460000
268.810944	146.220000
268.903961	146.700000
268.996948	146.680000
269.089905	147.060000
269.182892	146.800000
269.275879	147.680000
269.368866	147.200000
269.461853	147.400000
269.554871	146.940000
269.647858	147.160000
269.740845	147.080000
269.833832	147.640000
269.926819	147.280000
270.019806	147.540000
270.112793	146.960000
270.205811	146.620000
270.298798	146.380000
270.391785	147.040000
270.484772	146.660000
270.577789	146.700000
270.670776	146.260000
270.763763	146.500000
270.856750	146.580000
270.949768	146.540000
271.042786	146.760000
271.135773	147.040000
271.228790	147.100000
271.321808	146.420000
271.414795	146.240000
271.507782	145.820000
271.600800	145.700000
271.693817	145.600000
271.786804	146.140000
271.879822	146.760000
271.972809	146.920000
272.065826	147.080000
272.158844	146.680000
272.251831	146.620000
272.344849	146.480000
272.437866	146.320000
272.530853	146.540000
272.623871	146.800000
272.716888	146.260000
272.809906	146.420000
272.902893	146.340000
272.995911	145.820000
273.088928	145.800000
273.181946	146.000000
273.274963	145.620000
273.367981	145.960000
273.460999	146.180000
273.554047	146.700000
273.647003	147.360000
273.740051	147.340000
273.833069	147.400000
273.926086	147.500000
274.019135	146.860000
274.112152	146.100000
274.205170	146.480000
274.298187	146.760000
274.391205	146.540000
274.484222	146.560000
274.577240	146.860000
274.670258	146.340000
274.763306	146.100000
274.856323	146.480000
274.949341	146.700000
275.042358	146.980000
275.135406	147.080000
275.228424	147.180000
275.321442	147.100000
275.414490	146.700000
275.507507	146.960000
275.600525	147.520000
275.693573	147.320000
275.786591	146.920000
275.879669	147.420000
275.972656	146.880000
276.065735	146.560000
276.158752	147.040000
276.251801	147.760000
276.344818	147.580000
276.437866	147.680000
276.530884	147.380000
276.623932	146.480000
276.716980	146.520000
276.809998	146.600000
276.903046	146.380000
276.996094	147.260000
277.089111	148.120000
277.182159	148.320000
277.275208	148.040000
277.368256	148.200000
277.461304	147.660000
277.554321	146.460000
277.647369	145.960000
277.740417	145.860000
277.833466	145.560000
277.926514	145.400000
278.019562	146.640000
278.112610	146.100000
278.205688	146.180000
278.298706	146.460000
278.391785	146.260000
278.484833	145.760000
278.577881	145.980000
278.670929	146.380000
278.763977	146.440000
278.857025	147.140000
278.950073	147.060000
279.043121	146.920000
279.136169	146.700000
279.229248	146.120000
279.322296	145.820000
279.415344	146.020000
279.508392	146.040000
279.601440	146.020000
279.694519	146.280000
279.787567	146.080000
279.880615	145.960000
279.973694	145.880000
280.066742	145.920000
280.159790	146.180000
280.252869	145.980000
280.345917	145.940000
280.438995	146.020000
280.532074	146.120000
280.625122	146.380000
280.718201	147.540000
280.811279	147.660000
280.904327	147.720000
280.997406	147.920000
281.090454	147.660000
281.183533	146.700000
281.276581	146.600000
281.369659	146.600000
281.462738	146.540000
281.555786	146.740000
281.648865	146.800000
281.741943	146.900000
281.835022	147.380000
281.928070	146.860000
282.021149	146.480000
282.114227	146.160000
282.207306	146.160000
282.300385	146.280000
282.393433	146.820000
282.486511	146.980000
282.579590	147.860000
282.672668	147.940000
282.765747	147.060000
282.858856	146.780000
282.951904	146.840000
283.045013	146.460000
283.138062	146.700000
283.231171	147.180000
283.324249	147.420000
283.417328	147.300000
283.510406	146.860000
283.603485	146.460000
283.696564	146.360000
283.789642	146.360000
283.882751	146.140000
283.975830	146.980000
284.068909	146.940000
284.161987	147.560000
284.255066	147.020000
284.348175	147.280000
284.441254	147.200000
284.534332	147.560000
284.627441	146.960000
284.720520	147.060000
284.813599	146.960000
284.906708	146.460000
284.999786	145.700000
285.092896	145.480000
285.185974	146.520000
285.279053	146.440000
285.372192	146.600000
285.465240	147.200000
285.558380	147.340000
285.651459	146.540000
285.744568	147.260000
285.837677	146.960000
285.930756	147.060000
286.023865	147.040000
286.116943	146.620000
286.210052	146.440000
286.303162	146.360000
286.396240	146.060000
286.489349	145.900000
286.582458	146.300000
286.675568	145.940000
286.768646	146.420000
286.861755	146.760000
286.954865	147.340000
287.047974	147.120000
287.141083	146.900000
287.234161	146.520000
287.327271	146.180000
287.420380	146.500000
287.513519	146.480000
287.606598	146.680000
287.699738	147.180000
287.792816	147.420000
287.885956	147.040000
287.979034	147.100000
288.072174	147.340000
288.165283	146.880000
288.258392	147.020000
288.351501	146.260000
288.444611	146.640000
288.537720	146.800000
288.630859	146.840000
288.723969	146.860000
288.817078	147.600000
288.910187	147.500000
289.003296	146.880000
289.096436	146.800000
289.189545	146.360000
289.282654	145.720000
289.375763	145.780000
289.468903	146.300000
289.562012	146.620000
289.655121	146.800000
289.748260	147.240000
289.841400	147.300000
289.934509	146.960000
290.027649	147.120000
290.120728	146.940000
290.213898	146.840000
290.306976	146.700000
290.400146	147.060000
290.493256	146.440000
290.586395	146.880000
290.679535	147.160000
290.772644	147.060000
290.865784	146.080000
290.958893	146.300000
291.052032	145.800000
291.145172	145.660000
291.238281	145.420000
291.331421	145.920000
291.424561	146.440000
291.517670	146.440000
291.610809	146.700000
291.703949	146.640000
291.797089	147.040000
291.890228	146.460000
291.983337	146.400000
292.076477	146.200000
292.169617	146.600000
292.262756	146.540000
292.355927	146.480000
292.449036	146.520000
292.542206	146.480000
292.635315	146.320000
292.728485	146.360000
292.821625	146.220000
292.914764	147.160000
293.007904	147.160000
293.101044	147.220000
293.194183	146.960000
293.287323	146.960000
293.380463	146.280000
293.473602	146.300000
293.566742	146.660000
293.659882	147.260000
293.753021	147.900000
293.846191	147.980000
293.939331	147.640000
294.032471	147.440000
294.125610	146.660000
294.218781	146.560000
294.311920	146.900000
294.405060	147.140000
294.498230	146.740000
294.591370	147.300000
294.684540	146.800000
294.777679	146.100000
294.870850	146.500000
294.963959	146.820000
295.057159	146.400000
295.150299	146.980000
295.243469	147.300000
295.336609	146.880000
295.429779	147.000000
295.522919	147.640000
295.616089	147.680000
295.709229	148.120000
295.802399	148.280000
295.895569	147.800000
295.988708	147.400000
296.081879	147.320000
296.175018	146.660000
296.268188	146.500000
296.361359	147.040000
296.454529	147.020000
296.547668	146.820000
296.640839	147.160000
296.734009	146.700000
296.827179	146.440000
296.920319	146.880000
297.013519	146.780000
297.106659	146.980000
297.199860	147.340000
297.292999	147.440000
297.386200	146.840000
297.479309	146.740000
297.572510	146.560000
297.665680	146.460000
297.758850	146.240000
297.852020	146.040000
297.945190	146.000000
298.038361	145.400000
298.131531	146.240000
298.224701	146.280000
298.317871	146.300000
298.411072	145.940000
298.504242	146.060000
298.597412	145.380000
298.690582	145.900000
298.783752	145.960000
298.876923	146.560000
298.970093	146.840000
299.063293	147.360000
299.156464	147.420000
299.249634	147.700000
299.342834	148.140000
299.436005	148.440000
299.529205	148.240000
299.622345	147.840000
299.715576	147.340000
299.808716	146.620000
299.901917	146.420000
299.995117	146.740000
300.088287	146.800000
300.181488	146.660000
300.274658	146.840000
300.367828	146.680000
300.461029	146.360000
300.554199	146.580000
300.647400	146.760000
300.740601	147.200000
300.833771	147.100000
300.926971	147.240000
301.020142	146.280000
301.113342	146.280000
301.206512	145.660000
301.299713	145.940000
301.392914	145.860000
301.486084	146.840000
301.579285	146.940000
301.672516	147.600000
301.765686	147.340000
301.858887	146.980000
301.952057	146.700000
302.045288	146.760000
302.138458	146.500000
302.231659	146.500000
302.324860	146.540000
302.418060	146.240000
302.511261	145.960000
302.604462	146.140000
302.697662	145.840000
302.790863	145.560000
302.884064	145.520000
302.977264	146.000000
303.070465	145.960000
303.163666	146.820000
303.256866	147.280000
303.350067	147.500000
303.443268	147.460000
303.536469	147.520000
303.629669	146.860000
303.722870	147.100000
303.816071	146.840000
303.909271	146.560000
304.002472	145.760000
304.095673	145.820000
304.188934	144.980000
304.282104	145.900000
304.375336	146.080000
304.468506	146.300000
304.561768	146.280000
304.654968	147.180000
304.748169	146.540000
304.841370	146.560000
304.934601	146.800000
305.027802	146.520000
305.121002	145.960000
305.214233	145.840000
305.307434	145.640000
305.400665	146.160000
305.493866	146.260000
