Model Number: SPM-002-B   
Serial Number: 70087108
Firmware Version: 004.15.4
Exposure Time: 100000.000000us
Data Taken on: 11-12-2020 18:53:20.219
Wavelength	Amplitude
221.570786	0.000000
221.663406	0.000000
221.756027	0.000000
221.848648	0.000000
221.941269	0.000000
222.033905	0.000000
222.126526	0.000000
222.219162	0.000000
222.311798	0.000000
222.404419	0.000000
222.497055	0.000000
222.589676	0.000000
222.682312	0.000000
222.774933	0.000000
222.867569	0.000000
222.960205	0.000000
223.052841	0.000000
223.145462	0.000000
223.238098	0.000000
223.330734	0.000000
223.423386	0.000000
223.516022	0.000000
223.608658	0.000000
223.701309	0.000000
223.793945	0.000000
223.886581	0.000000
223.979218	0.000000
224.071869	0.000000
224.164505	0.000000
224.257156	0.000000
224.349792	0.000000
224.442444	0.000000
224.535095	0.000000
224.627747	0.000000
224.720398	0.000000
224.813034	0.000000
224.905685	0.000000
224.998337	146.200000
225.090988	145.920000
225.183640	145.840000
225.276291	145.660000
225.368942	146.020000
225.461594	146.860000
225.554245	146.920000
225.646912	147.100000
225.739578	147.940000
225.832230	148.160000
225.924896	147.260000
226.017548	147.660000
226.110199	147.960000
226.202866	146.940000
226.295532	146.980000
226.388184	146.920000
226.480850	146.560000
226.573517	145.920000
226.666168	146.360000
226.758835	146.680000
226.851501	147.400000
226.944183	147.420000
227.036850	147.040000
227.129517	147.060000
227.222183	146.880000
227.314850	146.840000
227.407516	147.280000
227.500198	148.380000
227.592865	147.980000
227.685532	147.520000
227.778214	147.100000
227.870880	147.100000
227.963562	147.380000
228.056229	148.020000
228.148926	148.300000
228.241592	149.020000
228.334274	148.440000
228.426956	147.880000
228.519638	147.700000
228.612305	147.140000
228.704987	147.100000
228.797668	147.180000
228.890350	146.900000
228.983032	146.400000
229.075714	147.100000
229.168396	146.420000
229.261108	146.280000
229.353790	146.620000
229.446472	146.620000
229.539169	146.500000
229.631851	146.360000
229.724533	146.600000
229.817230	146.440000
229.909912	147.840000
230.002609	147.740000
230.095306	147.780000
230.187988	148.000000
230.280685	148.060000
230.373383	146.820000
230.466095	146.780000
230.558792	147.100000
230.651474	146.900000
230.744171	146.620000
230.836868	146.740000
230.929581	146.800000
231.022278	146.900000
231.114975	146.860000
231.207672	146.840000
231.300369	147.080000
231.393082	147.200000
231.485779	146.940000
231.578506	146.940000
231.671204	147.020000
231.763916	147.080000
231.856613	147.000000
231.949326	146.980000
232.042023	146.860000
232.134735	146.580000
232.227448	146.040000
232.320160	146.340000
232.412872	146.560000
232.505585	147.300000
232.598297	147.720000
232.691010	147.980000
232.783722	147.320000
232.876450	147.680000
232.969162	146.860000
233.061874	146.200000
233.154587	145.720000
233.247314	145.980000
233.340027	145.280000
233.432739	145.780000
233.525467	145.920000
233.618179	146.580000
233.710907	146.420000
233.803635	147.220000
233.896347	147.220000
233.989090	148.320000
234.081818	148.100000
234.174545	148.360000
234.267258	147.620000
234.359985	147.740000
234.452713	147.160000
234.545441	147.000000
234.638168	146.720000
234.730896	147.200000
234.823639	146.920000
234.916367	147.360000
235.009094	147.660000
235.101822	147.620000
235.194580	147.540000
235.287308	147.800000
235.380051	147.040000
235.472778	147.180000
235.565521	147.440000
235.658249	147.200000
235.750992	147.200000
235.843719	147.340000
235.936462	147.240000
236.029205	146.960000
236.121948	146.560000
236.214691	146.540000
236.307449	147.180000
236.400192	146.660000
236.492935	146.640000
236.585678	146.900000
236.678421	146.700000
236.771164	146.280000
236.863907	147.040000
236.956665	147.240000
237.049408	148.800000
237.142151	148.680000
237.234909	149.200000
237.327652	148.780000
237.420410	148.340000
237.513153	147.280000
237.605927	147.060000
237.698669	146.800000
237.791428	146.340000
237.884186	147.200000
237.976944	146.700000
238.069702	147.160000
238.162445	146.360000
238.255203	146.740000
238.347961	146.740000
238.440720	146.700000
238.533478	146.320000
238.626266	146.340000
238.719025	146.620000
238.811783	146.460000
238.904541	146.320000
238.997314	146.160000
239.090073	145.980000
239.182831	145.840000
239.275604	146.540000
239.368362	146.500000
239.461136	146.900000
239.553909	146.940000
239.646667	146.920000
239.739441	146.200000
239.832214	146.380000
239.925003	146.380000
240.017761	147.320000
240.110535	147.860000
240.203308	147.480000
240.296082	147.840000
240.388855	147.900000
240.481628	147.700000
240.574417	147.600000
240.667191	147.900000
240.759964	147.440000
240.852737	147.100000
240.945526	146.800000
241.038315	146.480000
241.131088	146.440000
241.223877	146.600000
241.316650	146.400000
241.409439	146.820000
241.502228	146.320000
241.595001	146.800000
241.687790	146.540000
241.780579	146.740000
241.873367	146.980000
241.966141	147.340000
242.058929	146.820000
242.151718	147.420000
242.244507	148.100000
242.337311	147.020000
242.430099	147.780000
242.522903	147.800000
242.615692	147.120000
242.708481	147.040000
242.801270	147.540000
242.894073	147.160000
242.986862	147.360000
243.079651	148.060000
243.172455	147.800000
243.265244	147.920000
243.358063	147.100000
243.450867	147.040000
243.543655	146.700000
243.636459	146.500000
243.729263	146.660000
243.822067	147.220000
243.914856	147.460000
244.007660	147.600000
244.100464	147.600000
244.193268	147.260000
244.286072	147.200000
244.378876	146.700000
244.471680	146.660000
244.564499	146.980000
244.657318	147.500000
244.750122	147.600000
244.842926	147.240000
244.935745	147.460000
245.028549	147.120000
245.121368	146.740000
245.214172	146.900000
245.306992	147.420000
245.399796	146.740000
245.492615	146.780000
245.585434	146.580000
245.678253	146.140000
245.771072	146.200000
245.863892	146.860000
245.956711	147.180000
246.049530	147.220000
246.142349	147.100000
246.235168	147.000000
246.327988	147.380000
246.420807	146.640000
246.513626	146.700000
246.606445	146.480000
246.699280	146.540000
246.792099	146.020000
246.884918	146.140000
246.977753	145.800000
247.070587	146.160000
247.163422	146.300000
247.256241	146.340000
247.349075	146.620000
247.441895	146.960000
247.534729	146.960000
247.627563	146.500000
247.720383	147.280000
247.813217	147.320000
247.906052	147.160000
247.998886	147.520000
248.091736	147.640000
248.184570	146.780000
248.277405	146.940000
248.370239	147.860000
248.463074	148.400000
248.555908	148.700000
248.648743	148.920000
248.741592	148.680000
248.834427	147.960000
248.927261	146.600000
249.020111	146.600000
249.112946	146.860000
249.205795	146.540000
249.298630	146.480000
249.391495	147.060000
249.484344	146.700000
249.577179	146.680000
249.670029	147.240000
249.762878	147.860000
249.855728	147.860000
249.948563	148.220000
250.041412	147.780000
250.134262	147.940000
250.227112	147.880000
250.319962	147.920000
250.412827	147.680000
250.505692	147.280000
250.598541	146.940000
250.691391	146.300000
250.784241	146.320000
250.877106	146.680000
250.969955	146.600000
251.062805	146.960000
251.155670	147.480000
251.248520	147.100000
251.341385	147.260000
251.434235	147.680000
251.527100	147.500000
251.619965	147.100000
251.712814	148.000000
251.805695	147.740000
251.898560	147.800000
251.991425	147.620000
252.084290	147.660000
252.177155	146.880000
252.270020	146.560000
252.362885	146.620000
252.455750	147.140000
252.548615	147.040000
252.641479	146.880000
252.734360	146.840000
252.827240	146.640000
252.920105	146.340000
253.012970	146.180000
253.105850	146.420000
253.198715	146.100000
253.291595	146.200000
253.384460	146.000000
253.477341	146.300000
253.570221	146.660000
253.663086	146.940000
253.755966	147.580000
253.848846	147.580000
253.941727	147.780000
254.034592	147.680000
254.127472	147.160000
254.220367	146.780000
254.313248	146.860000
254.406128	146.380000
254.499008	146.520000
254.591904	147.460000
254.684784	147.840000
254.777664	147.840000
254.870544	147.640000
254.963440	147.120000
255.056335	147.240000
255.149216	146.720000
255.242111	147.080000
255.334991	147.500000
255.427887	147.740000
255.520767	147.580000
255.613663	147.820000
255.706558	147.240000
255.799438	147.180000
255.892334	147.040000
255.985229	146.940000
256.078125	146.920000
256.171021	147.240000
256.263916	147.800000
256.356812	148.080000
256.449707	148.220000
256.542603	147.800000
256.635498	148.220000
256.728394	147.780000
256.821289	147.620000
256.914215	147.740000
257.007080	148.040000
257.100006	147.820000
257.192932	148.160000
257.285828	148.200000
257.378723	147.960000
257.471619	147.840000
257.564545	147.260000
257.657440	147.140000
257.750336	147.400000
257.843262	147.040000
257.936157	147.980000
258.029053	148.440000
258.121979	148.600000
258.214874	148.120000
258.307800	148.220000
258.400696	146.720000
258.493622	146.540000
258.586517	145.820000
258.679443	146.280000
258.772339	146.040000
258.865265	146.500000
258.958160	146.320000
259.051086	146.960000
259.144012	146.740000
259.236938	147.460000
259.329834	147.680000
259.422791	147.720000
259.515717	146.920000
259.608612	146.780000
259.701538	146.940000
259.794464	146.720000
259.887390	146.720000
259.980316	146.960000
260.073212	147.100000
260.166138	145.940000
260.259064	146.220000
260.351990	146.800000
260.444916	147.220000
260.537842	147.380000
260.630768	148.360000
260.723694	148.240000
260.816620	147.740000
260.909546	147.440000
261.002472	146.980000
261.095398	146.200000
261.188354	146.360000
261.281281	146.080000
261.374207	146.060000
261.467133	146.680000
261.560089	147.200000
261.653015	146.800000
261.745972	147.660000
261.838867	148.340000
261.931824	148.740000
262.024780	148.280000
262.117706	148.600000
262.210663	148.580000
262.303589	148.260000
262.396515	148.060000
262.489471	149.080000
262.582397	149.240000
262.675354	148.540000
262.768280	148.200000
262.861237	147.900000
262.954163	147.260000
263.047119	147.040000
263.140045	146.940000
263.233002	147.140000
263.325958	147.100000
263.418884	146.920000
263.511841	147.060000
263.604797	147.280000
263.697723	147.380000
263.790680	147.160000
263.883636	147.600000
263.976593	147.260000
264.069550	147.300000
264.162476	146.940000
264.255463	147.280000
264.348419	146.840000
264.441376	147.020000
264.534332	146.560000
264.627289	146.760000
264.720245	147.060000
264.813202	146.720000
264.906158	146.640000
264.999115	147.420000
265.092072	147.180000
265.185028	147.400000
265.277985	148.280000
265.370941	148.220000
265.463898	147.760000
265.556854	147.740000
265.649811	146.660000
265.742798	146.260000
265.835754	146.420000
265.928711	146.840000
266.021667	147.140000
266.114655	147.780000
266.207611	148.200000
266.300568	147.640000
266.393585	147.280000
266.486511	147.660000
266.579498	146.980000
266.672485	146.380000
266.765442	146.760000
266.858429	147.100000
266.951385	146.320000
267.044342	146.540000
267.137329	146.660000
267.230316	146.800000
267.323273	146.420000
267.416260	147.260000
267.509216	147.120000
267.602203	147.120000
267.695160	147.300000
267.788147	147.460000
267.881134	146.660000
267.974091	147.060000
268.067078	147.000000
268.160065	146.740000
268.253052	146.820000
268.346008	147.040000
268.438995	146.560000
268.531982	146.700000
268.624969	146.740000
268.717987	146.780000
268.810944	146.740000
268.903961	146.980000
268.996948	146.660000
269.089905	146.720000
269.182892	146.680000
269.275879	146.840000
269.368866	146.520000
269.461853	146.980000
269.554871	146.820000
269.647858	146.500000
269.740845	146.660000
269.833832	147.240000
269.926819	146.960000
270.019806	146.960000
270.112793	146.920000
270.205811	146.980000
270.298798	146.620000
270.391785	147.500000
270.484772	147.340000
270.577789	147.480000
270.670776	147.100000
270.763763	147.100000
270.856750	146.920000
270.949768	147.060000
271.042786	147.140000
271.135773	147.200000
271.228790	147.580000
271.321808	146.660000
271.414795	146.280000
271.507782	146.000000
271.600800	145.680000
271.693817	145.560000
271.786804	146.380000
271.879822	146.920000
271.972809	147.100000
272.065826	147.880000
272.158844	147.460000
272.251831	147.900000
272.344849	147.660000
272.437866	147.480000
272.530853	147.440000
272.623871	147.900000
272.716888	146.740000
272.809906	147.320000
272.902893	147.040000
272.995911	146.300000
273.088928	146.360000
273.181946	146.640000
273.274963	146.120000
273.367981	146.560000
273.460999	146.920000
273.554047	146.800000
273.647003	147.400000
273.740051	147.280000
273.833069	147.680000
273.926086	147.960000
274.019135	147.900000
274.112152	147.500000
274.205170	147.740000
274.298187	147.800000
274.391205	147.200000
274.484222	147.440000
274.577240	147.460000
274.670258	147.320000
274.763306	147.020000
274.856323	147.600000
274.949341	147.360000
275.042358	147.720000
275.135406	147.660000
275.228424	148.000000
275.321442	147.980000
275.414490	148.140000
275.507507	148.080000
275.600525	148.800000
275.693573	148.160000
275.786591	147.720000
275.879669	147.620000
275.972656	147.140000
276.065735	146.720000
276.158752	147.340000
276.251801	147.960000
276.344818	147.920000
276.437866	148.100000
276.530884	147.720000
276.623932	146.780000
276.716980	146.820000
276.809998	146.920000
276.903046	146.900000
276.996094	147.780000
277.089111	148.720000
277.182159	149.040000
277.275208	148.720000
277.368256	148.680000
277.461304	148.160000
277.554321	147.220000
277.647369	146.580000
277.740417	146.700000
277.833466	146.540000
277.926514	146.400000
278.019562	147.100000
278.112610	146.360000
278.205688	146.360000
278.298706	146.580000
278.391785	146.480000
278.484833	146.140000
278.577881	146.440000
278.670929	146.920000
278.763977	146.820000
278.857025	147.160000
278.950073	147.380000
279.043121	147.200000
279.136169	146.860000
279.229248	146.540000
279.322296	146.480000
279.415344	146.240000
279.508392	146.660000
279.601440	146.420000
279.694519	146.360000
279.787567	146.240000
279.880615	146.360000
279.973694	146.440000
280.066742	146.720000
280.159790	147.040000
280.252869	146.520000
280.345917	146.520000
280.438995	146.220000
280.532074	146.040000
280.625122	146.420000
280.718201	147.600000
280.811279	147.720000
280.904327	147.840000
280.997406	147.940000
281.090454	147.740000
281.183533	146.940000
281.276581	146.880000
281.369659	146.720000
281.462738	146.720000
281.555786	146.880000
281.648865	147.100000
281.741943	146.960000
281.835022	147.460000
281.928070	147.240000
282.021149	146.720000
282.114227	146.500000
282.207306	146.440000
282.300385	146.720000
282.393433	147.040000
282.486511	147.240000
282.579590	147.620000
282.672668	147.920000
282.765747	147.360000
282.858856	147.020000
282.951904	147.140000
283.045013	147.120000
283.138062	147.340000
283.231171	147.320000
283.324249	147.600000
283.417328	147.540000
283.510406	147.160000
283.603485	146.860000
283.696564	146.740000
283.789642	146.660000
283.882751	146.360000
283.975830	146.980000
284.068909	146.840000
284.161987	147.780000
284.255066	147.500000
284.348175	147.740000
284.441254	147.420000
284.534332	147.960000
284.627441	147.060000
284.720520	146.980000
284.813599	146.980000
284.906708	147.160000
284.999786	146.300000
285.092896	146.280000
285.185974	147.300000
285.279053	146.760000
285.372192	146.620000
285.465240	147.560000
285.558380	147.640000
285.651459	147.080000
285.744568	148.100000
285.837677	147.560000
285.930756	147.020000
286.023865	147.080000
286.116943	146.660000
286.210052	146.560000
286.303162	146.700000
286.396240	146.760000
286.489349	146.460000
286.582458	146.980000
286.675568	146.760000
286.768646	147.100000
286.861755	147.560000
286.954865	148.260000
287.047974	147.540000
287.141083	147.240000
287.234161	147.020000
287.327271	146.400000
287.420380	146.560000
287.513519	146.560000
287.606598	146.720000
287.699738	146.760000
287.792816	146.880000
287.885956	146.520000
287.979034	147.020000
288.072174	147.080000
288.165283	146.820000
288.258392	147.140000
288.351501	146.680000
288.444611	146.760000
288.537720	147.220000
288.630859	147.300000
288.723969	147.180000
288.817078	147.640000
288.910187	147.600000
289.003296	146.920000
289.096436	146.640000
289.189545	146.580000
289.282654	146.440000
289.375763	146.720000
289.468903	146.960000
289.562012	147.620000
289.655121	147.360000
289.748260	147.400000
289.841400	147.720000
289.934509	147.780000
290.027649	147.600000
290.120728	147.760000
290.213898	147.760000
290.306976	147.340000
290.400146	147.440000
290.493256	147.420000
290.586395	147.480000
290.679535	147.800000
290.772644	147.480000
290.865784	146.880000
290.958893	146.700000
291.052032	146.380000
291.145172	146.160000
291.238281	145.740000
291.331421	145.960000
291.424561	146.480000
291.517670	146.700000
291.610809	146.720000
291.703949	146.940000
291.797089	147.180000
291.890228	146.720000
291.983337	146.660000
292.076477	146.600000
292.169617	146.980000
292.262756	146.860000
292.355927	146.860000
292.449036	146.660000
292.542206	146.740000
292.635315	146.880000
292.728485	147.100000
292.821625	146.880000
292.914764	148.160000
293.007904	148.160000
293.101044	147.780000
293.194183	147.640000
293.287323	147.760000
293.380463	146.720000
293.473602	146.340000
293.566742	146.760000
293.659882	147.140000
293.753021	147.340000
293.846191	147.200000
293.939331	146.980000
294.032471	146.740000
294.125610	146.260000
294.218781	146.860000
294.311920	147.480000
294.405060	147.900000
294.498230	147.860000
294.591370	148.000000
294.684540	147.120000
294.777679	146.520000
294.870850	146.880000
294.963959	147.000000
295.057159	146.820000
295.150299	147.300000
295.243469	147.440000
295.336609	146.720000
295.429779	146.560000
295.522919	146.980000
295.616089	146.920000
295.709229	147.320000
295.802399	147.620000
295.895569	147.340000
295.988708	146.960000
296.081879	146.800000
296.175018	146.280000
296.268188	146.300000
296.361359	146.780000
296.454529	147.080000
296.547668	147.000000
296.640839	147.560000
296.734009	147.380000
296.827179	147.460000
296.920319	147.380000
297.013519	147.280000
297.106659	147.360000
297.199860	147.360000
297.292999	146.940000
297.386200	146.780000
297.479309	146.840000
297.572510	146.240000
297.665680	146.420000
297.758850	146.700000
297.852020	146.520000
297.945190	146.680000
298.038361	146.600000
298.131531	147.340000
298.224701	147.000000
298.317871	146.900000
298.411072	146.340000
298.504242	146.120000
298.597412	145.400000
298.690582	145.760000
298.783752	145.680000
298.876923	146.280000
298.970093	146.680000
299.063293	146.940000
299.156464	147.320000
299.249634	147.580000
299.342834	147.680000
299.436005	148.000000
299.529205	147.520000
299.622345	147.300000
299.715576	146.920000
299.808716	146.460000
299.901917	146.360000
299.995117	146.980000
300.088287	147.040000
300.181488	147.140000
300.274658	147.140000
300.367828	146.740000
300.461029	146.680000
300.554199	146.740000
300.647400	147.100000
300.740601	147.720000
300.833771	147.800000
300.926971	147.880000
301.020142	147.340000
301.113342	147.320000
301.206512	146.980000
301.299713	147.400000
301.392914	147.300000
301.486084	147.800000
301.579285	147.740000
301.672516	148.240000
301.765686	147.720000
301.858887	147.500000
301.952057	147.200000
302.045288	147.140000
302.138458	146.900000
302.231659	146.760000
302.324860	146.720000
302.418060	146.360000
302.511261	146.240000
302.604462	146.200000
302.697662	146.220000
302.790863	146.120000
302.884064	146.060000
302.977264	146.360000
303.070465	146.380000
303.163666	147.520000
303.256866	147.860000
303.350067	148.380000
303.443268	148.440000
303.536469	148.900000
303.629669	147.700000
303.722870	147.800000
303.816071	147.340000
303.909271	147.320000
304.002472	146.520000
304.095673	146.860000
304.188934	145.860000
304.282104	147.020000
304.375336	147.020000
304.468506	146.900000
304.561768	146.700000
304.654968	147.660000
304.748169	146.680000
304.841370	146.180000
304.934601	146.520000
305.027802	146.200000
305.121002	145.820000
305.214233	145.860000
305.307434	146.060000
305.400665	146.500000
305.493866	146.700000
