Model Number: SPM-002-B   
Serial Number: 70087108
Firmware Version: 004.15.4
Exposure Time: 100000.000000us
Data Taken on: 11-12-2020 18:53:42.658
Wavelength	Amplitude
221.570786	0.000000
221.663406	0.000000
221.756027	0.000000
221.848648	0.000000
221.941269	0.000000
222.033905	0.000000
222.126526	0.000000
222.219162	0.000000
222.311798	0.000000
222.404419	0.000000
222.497055	0.000000
222.589676	0.000000
222.682312	0.000000
222.774933	0.000000
222.867569	0.000000
222.960205	0.000000
223.052841	0.000000
223.145462	0.000000
223.238098	0.000000
223.330734	0.000000
223.423386	0.000000
223.516022	0.000000
223.608658	0.000000
223.701309	0.000000
223.793945	0.000000
223.886581	0.000000
223.979218	0.000000
224.071869	0.000000
224.164505	0.000000
224.257156	0.000000
224.349792	0.000000
224.442444	0.000000
224.535095	0.000000
224.627747	0.000000
224.720398	0.000000
224.813034	0.000000
224.905685	0.000000
224.998337	146.400000
225.090988	146.100000
225.183640	145.940000
225.276291	145.720000
225.368942	145.940000
225.461594	146.600000
225.554245	146.700000
225.646912	146.460000
225.739578	146.920000
225.832230	147.180000
225.924896	146.040000
226.017548	146.520000
226.110199	147.340000
226.202866	146.640000
226.295532	146.460000
226.388184	146.760000
226.480850	146.140000
226.573517	145.360000
226.666168	145.880000
226.758835	145.900000
226.851501	146.420000
226.944183	146.460000
227.036850	146.300000
227.129517	146.220000
227.222183	146.480000
227.314850	146.200000
227.407516	146.700000
227.500198	147.520000
227.592865	147.280000
227.685532	146.700000
227.778214	146.600000
227.870880	146.840000
227.963562	147.280000
228.056229	147.640000
228.148926	148.020000
228.241592	148.780000
228.334274	148.200000
228.426956	147.360000
228.519638	147.320000
228.612305	146.760000
228.704987	146.500000
228.797668	146.500000
228.890350	146.320000
228.983032	145.740000
229.075714	146.700000
229.168396	146.160000
229.261108	146.100000
229.353790	146.320000
229.446472	146.660000
229.539169	146.040000
229.631851	145.760000
229.724533	146.060000
229.817230	146.300000
229.909912	147.220000
230.002609	147.280000
230.095306	147.360000
230.187988	147.260000
230.280685	146.960000
230.373383	145.860000
230.466095	145.540000
230.558792	145.920000
230.651474	145.700000
230.744171	145.320000
230.836868	145.500000
230.929581	146.000000
231.022278	146.040000
231.114975	146.060000
231.207672	146.220000
231.300369	146.560000
231.393082	146.360000
231.485779	146.100000
231.578506	145.980000
231.671204	146.280000
231.763916	145.960000
231.856613	145.960000
231.949326	146.160000
232.042023	146.300000
232.134735	146.260000
232.227448	146.240000
232.320160	146.520000
232.412872	146.400000
232.505585	147.080000
232.598297	147.400000
232.691010	147.420000
232.783722	147.060000
232.876450	147.960000
232.969162	147.180000
233.061874	146.580000
233.154587	146.280000
233.247314	146.620000
233.340027	145.860000
233.432739	146.480000
233.525467	146.500000
233.618179	146.840000
233.710907	146.320000
233.803635	146.500000
233.896347	146.320000
233.989090	147.120000
234.081818	147.300000
234.174545	147.760000
234.267258	147.420000
234.359985	147.580000
234.452713	147.360000
234.545441	146.800000
234.638168	146.300000
234.730896	146.840000
234.823639	146.580000
234.916367	146.840000
235.009094	147.020000
235.101822	147.340000
235.194580	147.140000
235.287308	146.960000
235.380051	146.100000
235.472778	146.360000
235.565521	146.700000
235.658249	146.320000
235.750992	146.520000
235.843719	146.780000
235.936462	146.980000
236.029205	146.380000
236.121948	146.300000
236.214691	146.560000
236.307449	147.560000
236.400192	147.100000
236.492935	147.080000
236.585678	147.280000
236.678421	146.960000
236.771164	146.140000
236.863907	146.540000
236.956665	146.740000
237.049408	148.320000
237.142151	147.700000
237.234909	148.260000
237.327652	148.240000
237.420410	148.240000
237.513153	147.100000
237.605927	147.300000
237.698669	146.780000
237.791428	146.320000
237.884186	146.780000
237.976944	146.180000
238.069702	146.480000
238.162445	145.960000
238.255203	146.420000
238.347961	146.420000
238.440720	146.540000
238.533478	146.480000
238.626266	146.440000
238.719025	146.380000
238.811783	146.180000
238.904541	146.080000
238.997314	146.000000
239.090073	146.100000
239.182831	146.220000
239.275604	146.780000
239.368362	146.700000
239.461136	146.880000
239.553909	146.840000
239.646667	146.660000
239.739441	146.240000
239.832214	146.460000
239.925003	146.660000
240.017761	147.480000
240.110535	147.820000
240.203308	147.300000
240.296082	147.420000
240.388855	147.060000
240.481628	147.100000
240.574417	147.060000
240.667191	147.240000
240.759964	146.960000
240.852737	147.200000
240.945526	146.560000
241.038315	146.440000
241.131088	146.880000
241.223877	147.520000
241.316650	147.140000
241.409439	147.340000
241.502228	146.900000
241.595001	147.060000
241.687790	146.600000
241.780579	146.660000
241.873367	146.980000
241.966141	147.140000
242.058929	146.380000
242.151718	146.500000
242.244507	147.120000
242.337311	146.160000
242.430099	146.840000
242.522903	147.300000
242.615692	147.020000
242.708481	146.600000
242.801270	147.140000
242.894073	146.760000
242.986862	146.780000
243.079651	147.240000
243.172455	147.260000
243.265244	147.500000
243.358063	147.060000
243.450867	147.220000
243.543655	147.340000
243.636459	147.640000
243.729263	147.700000
243.822067	148.020000
243.914856	147.940000
244.007660	147.520000
244.100464	147.180000
244.193268	146.660000
244.286072	146.640000
244.378876	146.400000
244.471680	146.280000
244.564499	146.640000
244.657318	147.720000
244.750122	148.120000
244.842926	147.700000
244.935745	148.060000
245.028549	147.340000
245.121368	146.360000
245.214172	146.180000
245.306992	146.840000
245.399796	146.500000
245.492615	147.160000
245.585434	147.360000
245.678253	146.800000
245.771072	146.460000
245.863892	146.800000
245.956711	146.940000
246.049530	146.660000
246.142349	146.780000
246.235168	146.940000
246.327988	147.240000
246.420807	146.600000
246.513626	146.820000
246.606445	147.060000
246.699280	146.840000
246.792099	146.580000
246.884918	146.380000
246.977753	145.940000
247.070587	145.980000
247.163422	146.340000
247.256241	146.280000
247.349075	146.920000
247.441895	147.400000
247.534729	146.980000
247.627563	146.620000
247.720383	147.060000
247.813217	146.880000
247.906052	146.820000
247.998886	147.100000
248.091736	146.960000
248.184570	146.480000
248.277405	146.500000
248.370239	147.420000
248.463074	148.180000
248.555908	148.460000
248.648743	148.300000
248.741592	148.460000
248.834427	147.580000
248.927261	146.660000
249.020111	147.100000
249.112946	147.760000
249.205795	147.240000
249.298630	147.280000
249.391495	147.120000
249.484344	146.780000
249.577179	146.400000
249.670029	146.820000
249.762878	147.360000
249.855728	147.700000
249.948563	147.840000
250.041412	147.320000
250.134262	147.600000
250.227112	147.440000
250.319962	147.760000
250.412827	147.660000
250.505692	147.540000
250.598541	147.360000
250.691391	146.760000
250.784241	146.540000
250.877106	146.660000
250.969955	146.820000
251.062805	147.320000
251.155670	147.860000
251.248520	147.540000
251.341385	147.700000
251.434235	147.640000
251.527100	147.100000
251.619965	146.860000
251.712814	147.820000
251.805695	147.360000
251.898560	147.800000
251.991425	148.020000
252.084290	148.340000
252.177155	147.580000
252.270020	147.500000
252.362885	147.320000
252.455750	147.260000
252.548615	146.900000
252.641479	146.780000
252.734360	146.860000
252.827240	146.660000
252.920105	146.680000
253.012970	146.520000
253.105850	146.620000
253.198715	146.360000
253.291595	146.560000
253.384460	146.020000
253.477341	146.080000
253.570221	146.160000
253.663086	146.100000
253.755966	146.800000
253.848846	147.300000
253.941727	147.460000
254.034592	147.700000
254.127472	147.240000
254.220367	146.800000
254.313248	146.660000
254.406128	146.380000
254.499008	146.200000
254.591904	147.400000
254.684784	148.060000
254.777664	148.180000
254.870544	148.080000
254.963440	147.960000
255.056335	147.880000
255.149216	147.000000
255.242111	147.560000
255.334991	147.980000
255.427887	147.880000
255.520767	147.660000
255.613663	148.140000
255.706558	147.240000
255.799438	146.960000
255.892334	146.920000
255.985229	146.880000
256.078125	146.480000
256.171021	146.660000
256.263916	147.260000
256.356812	147.400000
256.449707	147.560000
256.542603	147.520000
256.635498	148.000000
256.728394	147.400000
256.821289	147.060000
256.914215	147.380000
257.007080	147.480000
257.100006	147.300000
257.192932	147.880000
257.285828	148.300000
257.378723	147.880000
257.471619	147.760000
257.564545	147.300000
257.657440	147.160000
257.750336	147.420000
257.843262	147.060000
257.936157	147.900000
258.029053	148.280000
258.121979	148.160000
258.214874	147.740000
258.307800	147.880000
258.400696	146.800000
258.493622	146.560000
258.586517	145.900000
258.679443	146.380000
258.772339	145.940000
258.865265	146.180000
258.958160	146.080000
259.051086	147.140000
259.144012	146.800000
259.236938	147.640000
259.329834	147.700000
259.422791	147.580000
259.515717	146.920000
259.608612	146.700000
259.701538	146.760000
259.794464	146.480000
259.887390	146.620000
259.980316	146.320000
260.073212	146.380000
260.166138	145.300000
260.259064	145.820000
260.351990	146.060000
260.444916	146.220000
260.537842	146.360000
260.630768	147.240000
260.723694	147.060000
260.816620	147.060000
260.909546	147.140000
261.002472	146.880000
261.095398	146.320000
261.188354	146.060000
261.281281	145.480000
261.374207	145.520000
261.467133	146.180000
261.560089	146.600000
261.653015	146.580000
261.745972	147.400000
261.838867	147.620000
261.931824	147.480000
262.024780	147.000000
262.117706	147.080000
262.210663	146.980000
262.303589	146.820000
262.396515	146.800000
262.489471	147.480000
262.582397	147.520000
262.675354	147.000000
262.768280	147.100000
262.861237	146.980000
262.954163	146.760000
263.047119	146.760000
263.140045	146.660000
263.233002	146.380000
263.325958	146.400000
263.418884	146.160000
263.511841	145.960000
263.604797	146.120000
263.697723	146.120000
263.790680	146.080000
263.883636	146.620000
263.976593	146.460000
264.069550	146.480000
264.162476	146.320000
264.255463	146.280000
264.348419	145.980000
264.441376	146.740000
264.534332	146.440000
264.627289	146.440000
264.720245	146.820000
264.813202	146.100000
264.906158	145.940000
264.999115	146.800000
265.092072	147.100000
265.185028	147.220000
265.277985	147.800000
265.370941	147.460000
265.463898	146.780000
265.556854	146.300000
265.649811	145.340000
265.742798	145.560000
265.835754	145.880000
265.928711	146.320000
266.021667	146.640000
266.114655	147.180000
266.207611	147.340000
266.300568	146.700000
266.393585	146.280000
266.486511	146.680000
266.579498	145.880000
266.672485	145.600000
266.765442	145.600000
266.858429	146.120000
266.951385	145.620000
267.044342	146.200000
267.137329	146.220000
267.230316	146.820000
267.323273	146.360000
267.416260	146.980000
267.509216	146.940000
267.602203	146.740000
267.695160	146.740000
267.788147	146.780000
267.881134	146.160000
267.974091	146.460000
268.067078	146.560000
268.160065	146.200000
268.253052	145.900000
268.346008	146.360000
268.438995	145.940000
268.531982	146.080000
268.624969	146.100000
268.717987	146.500000
268.810944	146.080000
268.903961	146.240000
268.996948	145.800000
269.089905	146.340000
269.182892	146.700000
269.275879	146.960000
269.368866	146.400000
269.461853	146.900000
269.554871	146.820000
269.647858	146.500000
269.740845	146.840000
269.833832	147.480000
269.926819	146.740000
270.019806	146.720000
270.112793	146.640000
270.205811	146.460000
270.298798	146.360000
270.391785	147.500000
270.484772	146.860000
270.577789	146.800000
270.670776	146.420000
270.763763	146.120000
270.856750	145.680000
270.949768	145.840000
271.042786	145.760000
271.135773	146.080000
271.228790	146.460000
271.321808	146.080000
271.414795	145.840000
271.507782	145.540000
271.600800	144.980000
271.693817	144.800000
271.786804	145.420000
271.879822	145.880000
271.972809	146.300000
272.065826	146.920000
272.158844	146.700000
272.251831	146.800000
272.344849	146.800000
272.437866	146.300000
272.530853	146.120000
272.623871	146.620000
272.716888	145.680000
272.809906	145.960000
272.902893	146.300000
272.995911	146.060000
273.088928	145.780000
273.181946	146.160000
273.274963	145.800000
273.367981	145.880000
273.460999	146.020000
273.554047	146.140000
273.647003	146.740000
273.740051	146.860000
273.833069	147.060000
273.926086	147.120000
274.019135	147.160000
274.112152	146.740000
274.205170	146.780000
274.298187	146.880000
274.391205	146.340000
274.484222	146.420000
274.577240	146.200000
274.670258	145.880000
274.763306	145.660000
274.856323	146.360000
274.949341	146.360000
275.042358	146.920000
275.135406	147.020000
275.228424	146.940000
275.321442	146.880000
275.414490	146.420000
275.507507	146.500000
275.600525	146.780000
275.693573	146.800000
275.786591	146.360000
275.879669	146.860000
275.972656	146.360000
276.065735	146.280000
276.158752	146.540000
276.251801	147.280000
276.344818	147.260000
276.437866	147.400000
276.530884	147.100000
276.623932	146.460000
276.716980	146.460000
276.809998	146.560000
276.903046	146.540000
276.996094	147.280000
277.089111	147.920000
277.182159	148.160000
277.275208	147.600000
277.368256	147.500000
277.461304	147.380000
277.554321	146.800000
277.647369	146.500000
277.740417	146.980000
277.833466	146.940000
277.926514	146.480000
278.019562	147.300000
278.112610	146.560000
278.205688	146.500000
278.298706	146.640000
278.391785	146.240000
278.484833	145.580000
278.577881	145.680000
278.670929	145.900000
278.763977	145.980000
278.857025	146.620000
278.950073	146.840000
279.043121	146.780000
279.136169	146.600000
279.229248	146.440000
279.322296	146.600000
279.415344	146.440000
279.508392	146.440000
279.601440	146.140000
279.694519	146.040000
279.787567	145.920000
279.880615	145.880000
279.973694	145.900000
280.066742	146.020000
280.159790	146.000000
280.252869	145.540000
280.345917	145.760000
280.438995	146.020000
280.532074	146.240000
280.625122	146.780000
280.718201	147.580000
280.811279	147.380000
280.904327	147.280000
280.997406	147.000000
281.090454	146.760000
281.183533	146.100000
281.276581	146.020000
281.369659	145.900000
281.462738	146.200000
281.555786	146.360000
281.648865	146.200000
281.741943	146.160000
281.835022	146.640000
281.928070	146.420000
282.021149	146.080000
282.114227	146.400000
282.207306	146.680000
282.300385	147.060000
282.393433	147.220000
282.486511	147.400000
282.579590	147.820000
282.672668	147.880000
282.765747	147.240000
282.858856	147.020000
282.951904	147.000000
283.045013	146.860000
283.138062	147.120000
283.231171	147.340000
283.324249	147.780000
283.417328	147.800000
283.510406	147.460000
283.603485	147.200000
283.696564	147.120000
283.789642	147.100000
283.882751	146.880000
283.975830	147.400000
284.068909	147.000000
284.161987	147.380000
284.255066	146.540000
284.348175	146.720000
284.441254	146.440000
284.534332	147.220000
284.627441	146.960000
284.720520	147.120000
284.813599	147.160000
284.906708	147.240000
284.999786	146.400000
285.092896	146.200000
285.185974	147.340000
285.279053	146.860000
285.372192	147.060000
285.465240	148.040000
285.558380	147.660000
285.651459	147.040000
285.744568	148.040000
285.837677	147.480000
285.930756	147.080000
286.023865	147.640000
286.116943	147.400000
286.210052	147.140000
286.303162	147.520000
286.396240	147.080000
286.489349	146.720000
286.582458	146.900000
286.675568	146.480000
286.768646	146.060000
286.861755	146.740000
286.954865	147.420000
287.047974	147.060000
287.141083	146.900000
287.234161	146.860000
287.327271	146.600000
287.420380	146.860000
287.513519	146.920000
287.606598	147.080000
287.699738	147.340000
287.792816	147.080000
287.885956	146.500000
287.979034	146.420000
288.072174	146.460000
288.165283	146.400000
288.258392	146.660000
288.351501	146.160000
288.444611	146.480000
288.537720	146.700000
288.630859	146.620000
288.723969	146.780000
288.817078	147.280000
288.910187	146.980000
289.003296	146.580000
289.096436	146.360000
289.189545	146.160000
289.282654	145.620000
289.375763	145.900000
289.468903	146.180000
289.562012	146.480000
289.655121	146.340000
289.748260	146.620000
289.841400	146.920000
289.934509	147.200000
290.027649	147.280000
290.120728	147.180000
290.213898	147.140000
290.306976	146.920000
290.400146	146.620000
290.493256	146.160000
290.586395	146.480000
290.679535	147.080000
290.772644	146.740000
290.865784	146.240000
290.958893	146.480000
291.052032	146.180000
291.145172	145.960000
291.238281	145.900000
291.331421	146.080000
291.424561	146.460000
291.517670	146.220000
291.610809	146.120000
291.703949	146.360000
291.797089	146.720000
291.890228	146.260000
291.983337	146.340000
292.076477	146.420000
292.169617	146.540000
292.262756	146.540000
292.355927	146.560000
292.449036	146.460000
292.542206	146.380000
292.635315	146.520000
292.728485	146.500000
292.821625	146.080000
292.914764	147.500000
293.007904	147.500000
293.101044	147.460000
293.194183	147.340000
293.287323	147.800000
293.380463	146.680000
293.473602	146.320000
293.566742	146.540000
293.659882	147.120000
293.753021	147.220000
293.846191	146.920000
293.939331	146.520000
294.032471	146.220000
294.125610	145.540000
294.218781	145.880000
294.311920	146.600000
294.405060	147.120000
294.498230	147.020000
294.591370	147.200000
294.684540	146.560000
294.777679	145.960000
294.870850	146.360000
294.963959	146.240000
295.057159	146.000000
295.150299	146.480000
295.243469	146.640000
295.336609	146.040000
295.429779	146.140000
295.522919	146.360000
295.616089	146.300000
295.709229	146.720000
295.802399	147.060000
295.895569	147.040000
295.988708	146.880000
296.081879	146.840000
296.175018	146.240000
296.268188	146.200000
296.361359	146.820000
296.454529	147.020000
296.547668	146.920000
296.640839	147.400000
296.734009	147.320000
296.827179	147.120000
296.920319	147.360000
297.013519	147.060000
297.106659	147.000000
297.199860	146.760000
297.292999	146.380000
297.386200	146.000000
297.479309	146.180000
297.572510	146.260000
297.665680	146.220000
297.758850	146.140000
297.852020	146.160000
297.945190	145.780000
298.038361	145.260000
298.131531	146.420000
298.224701	146.260000
298.317871	145.920000
298.411072	145.800000
298.504242	145.840000
298.597412	144.980000
298.690582	145.460000
298.783752	145.640000
298.876923	146.340000
298.970093	146.240000
299.063293	146.460000
299.156464	146.420000
299.249634	146.580000
299.342834	146.860000
299.436005	147.280000
299.529205	147.160000
299.622345	147.160000
299.715576	146.880000
299.808716	146.160000
299.901917	146.200000
299.995117	146.540000
300.088287	146.620000
300.181488	146.740000
300.274658	146.680000
300.367828	146.320000
300.461029	146.080000
300.554199	146.180000
300.647400	146.040000
300.740601	146.740000
300.833771	146.740000
300.926971	147.120000
301.020142	146.680000
301.113342	146.820000
301.206512	146.440000
301.299713	146.940000
301.392914	146.660000
301.486084	147.020000
301.579285	146.920000
301.672516	147.340000
301.765686	146.880000
301.858887	146.720000
301.952057	146.540000
302.045288	146.600000
302.138458	146.440000
302.231659	146.460000
302.324860	146.020000
302.418060	145.820000
302.511261	145.680000
302.604462	145.840000
302.697662	145.600000
302.790863	145.760000
302.884064	145.700000
302.977264	146.000000
303.070465	146.180000
303.163666	147.220000
303.256866	147.780000
303.350067	147.920000
303.443268	147.940000
303.536469	147.820000
303.629669	147.140000
303.722870	146.960000
303.816071	146.640000
303.909271	146.720000
304.002472	145.820000
304.095673	145.520000
304.188934	144.860000
304.282104	145.960000
304.375336	145.800000
304.468506	146.180000
304.561768	145.900000
304.654968	146.740000
304.748169	146.080000
304.841370	146.040000
304.934601	146.280000
305.027802	146.380000
305.121002	145.980000
305.214233	146.000000
305.307434	146.140000
305.400665	146.660000
305.493866	146.680000
