Model Number: SPM-001-M   
Serial Number: 10090201
Firmware Version: 004.17.6
Exposure Time: 500000.000000us
Data Taken on: 10-03-2021 10:33:22.998
Wavelength	Amplitude
733.770752	0.000000
733.808716	0.000000
733.846619	0.000000
733.884583	0.000000
733.922546	0.000000
733.960449	0.000000
733.998413	0.000000
734.036377	0.000000
734.074219	0.000000
734.112183	0.000000
734.150085	0.000000
734.188049	0.000000
734.226013	0.000000
734.263916	0.000000
734.301819	0.000000
734.339783	0.000000
734.377686	0.000000
734.415588	0.000000
734.453552	0.000000
734.491455	0.000000
734.529419	0.000000
734.567322	0.000000
734.605225	0.000000
734.643127	0.000000
734.681091	0.000000
734.718994	0.000000
734.756897	0.000000
734.794800	0.000000
734.832703	0.000000
734.870667	0.000000
734.908508	0.000000
734.946472	0.000000
734.984375	0.000000
735.022278	0.000000
735.060181	0.000000
735.098083	0.000000
735.135986	0.000000
735.173889	0.000000
735.211792	0.000000
735.249695	0.000000
735.287598	0.000000
735.325439	0.000000
735.363403	0.000000
735.401306	0.000000
735.439148	0.000000
735.477051	0.000000
735.515015	0.000000
735.552856	0.000000
735.590759	0.000000
735.628662	0.000000
735.666504	0.000000
735.704407	0.000000
735.742310	0.000000
735.780212	0.000000
735.818115	0.000000
735.856018	0.000000
735.893860	0.000000
735.931763	0.000000
735.969604	0.000000
736.007507	0.000000
736.045410	0.000000
736.083252	0.000000
736.121094	0.000000
736.158997	0.000000
736.196838	0.000000
736.234741	0.000000
736.272644	0.000000
736.310486	0.000000
736.348389	0.000000
736.386230	0.000000
736.424072	0.000000
736.461975	0.000000
736.499878	0.000000
736.537720	0.000000
736.575562	0.000000
736.613403	0.000000
736.651306	0.000000
736.689148	0.000000
736.726990	0.000000
736.764893	0.000000
736.802734	0.000000
736.840576	0.000000
736.878418	0.000000
736.916321	0.000000
736.954102	0.000000
736.992004	0.000000
737.029846	0.000000
737.067688	0.000000
737.105530	0.000000
737.143372	0.000000
737.181213	0.000000
737.219116	0.000000
737.256897	0.000000
737.294739	0.000000
737.332642	0.000000
737.370422	0.000000
737.408325	0.000000
737.446167	0.000000
737.483948	0.000000
737.521790	0.000000
737.559692	0.000000
737.597473	0.000000
737.635315	0.000000
737.673157	0.000000
737.710999	0.000000
737.748840	0.000000
737.786621	0.000000
737.824463	0.000000
737.862305	0.000000
737.900085	0.000000
737.937927	0.000000
737.975769	0.000000
738.013550	0.000000
738.051392	0.000000
738.089233	0.000000
738.127014	0.000000
738.164856	0.000000
738.202698	0.000000
738.240479	0.000000
738.278320	0.000000
738.316162	0.000000
738.353943	0.000000
738.391785	0.000000
738.429565	0.000000
738.467407	0.000000
738.505188	0.000000
738.542969	0.000000
738.580811	0.000000
738.618652	0.000000
738.656372	0.000000
738.694214	0.000000
738.732056	0.000000
738.769836	0.000000
738.807617	0.000000
738.845459	0.000000
738.883240	0.000000
738.921021	0.000000
738.958862	0.000000
738.996582	0.000000
739.034424	0.000000
739.072205	0.000000
739.109985	0.000000
739.147827	0.000000
739.185547	0.000000
739.223389	0.000000
739.261169	0.000000
739.298889	0.000000
739.336731	0.000000
739.374512	0.000000
739.412292	0.000000
739.450073	0.000000
739.487854	0.000000
739.525635	0.000000
739.563416	0.000000
739.601135	0.000000
739.638977	0.000000
739.676758	0.000000
739.714478	0.000000
739.752258	0.000000
739.790100	0.000000
739.827820	0.000000
739.865601	0.000000
739.903381	0.000000
739.941101	0.000000
739.978882	196.300000
740.016724	191.800000
740.054443	198.100000
740.092224	188.800000
740.130005	189.400000
740.167725	189.400000
740.205505	190.600000
740.243225	199.600000
740.281006	193.900000
740.318787	183.900000
740.356506	199.100000
740.394287	195.800000
740.432068	187.400000
740.469727	187.400000
740.507507	196.100000
740.545288	192.100000
740.583008	195.600000
740.620789	193.300000
740.658569	184.400000
740.696228	191.100000
740.734009	198.800000
740.771790	180.000000
740.809509	196.600000
740.847229	187.600000
740.884949	189.900000
740.922729	185.200000
740.960449	190.800000
740.998169	187.100000
741.035950	190.200000
741.073669	194.400000
741.111389	192.500000
741.149170	201.400000
741.186890	202.700000
741.224609	196.700000
741.262329	193.700000
741.300110	202.900000
741.337769	188.000000
741.375549	186.600000
741.413208	194.600000
741.450989	188.400000
741.488708	190.900000
741.526367	192.200000
741.564148	197.200000
741.601868	197.600000
741.639526	192.300000
741.677307	193.900000
741.715027	195.700000
741.752686	189.000000
741.790466	201.000000
741.828186	194.900000
741.865845	188.500000
741.903564	183.200000
741.941345	192.800000
741.979004	188.500000
742.016724	195.500000
742.054382	194.300000
742.092102	198.800000
742.129822	186.100000
742.167480	190.800000
742.205200	192.400000
742.242920	194.300000
742.280640	198.400000
742.318359	189.000000
742.356079	190.400000
742.393738	196.300000
742.431396	192.900000
742.469116	195.800000
742.506775	182.200000
742.544495	194.700000
742.582214	197.800000
742.619873	191.900000
742.657593	201.000000
742.695251	196.500000
742.732971	192.500000
742.770630	195.500000
742.808289	192.400000
742.846008	192.400000
742.883728	195.900000
742.921326	192.800000
742.959045	190.800000
742.996765	193.200000
743.034424	193.200000
743.072083	191.200000
743.109802	193.000000
743.147400	186.000000
743.185120	193.000000
743.222839	192.200000
743.260437	197.700000
743.298157	196.100000
743.335754	185.000000
743.373474	189.800000
743.411133	184.200000
743.448792	192.300000
743.486450	193.500000
743.524170	185.700000
743.561768	193.100000
743.599487	199.200000
743.637146	204.100000
743.674744	192.100000
743.712463	189.700000
743.750122	193.500000
743.787720	195.200000
743.825439	189.100000
743.863037	190.600000
743.900696	192.400000
743.938416	216.800000
743.976013	192.000000
744.013672	200.700000
744.051331	197.500000
744.088928	200.000000
744.126587	198.900000
744.164307	193.300000
744.201904	189.400000
744.239563	196.200000
744.277222	195.000000
744.314819	191.800000
744.352478	201.600000
744.390137	194.900000
744.427734	195.600000
744.465393	191.100000
744.502991	187.900000
744.540649	195.200000
744.578308	194.100000
744.615906	187.000000
744.653564	183.200000
744.691223	197.600000
744.728821	185.900000
744.766418	191.600000
744.804077	197.100000
744.841675	190.500000
744.879333	185.500000
744.916992	192.700000
744.954529	189.300000
744.992187	198.500000
745.029785	191.200000
745.067444	189.300000
745.105042	193.700000
745.142639	195.600000
745.180298	201.100000
745.217896	188.900000
745.255493	191.600000
745.293152	197.700000
745.330750	197.500000
745.368347	202.800000
745.405945	196.800000
745.443604	194.700000
745.481140	195.900000
745.518799	191.300000
745.556396	196.700000
745.593994	197.800000
745.631592	193.100000
745.669189	188.400000
745.706787	195.000000
745.744385	189.300000
745.781982	193.900000
745.819580	191.300000
745.857178	192.200000
745.894775	193.200000
745.932373	194.300000
745.969971	193.400000
746.007568	184.100000
746.045166	201.900000
746.082764	198.900000
746.120300	196.200000
746.157898	196.200000
746.195557	191.900000
746.233093	185.800000
746.270691	196.400000
746.308228	194.800000
746.345825	198.000000
746.383423	196.500000
746.420959	189.300000
746.458557	189.500000
746.496155	190.100000
746.533691	191.800000
746.571289	187.100000
746.608887	192.700000
746.646423	194.400000
746.684021	193.700000
746.721619	191.400000
746.759155	195.300000
746.796753	186.800000
746.834351	186.000000
746.871826	189.300000
746.909424	199.200000
746.946960	195.100000
746.984558	191.900000
747.022156	189.800000
747.059631	200.700000
747.097229	195.000000
747.134827	192.800000
747.172363	201.400000
747.209900	194.400000
747.247498	188.200000
747.285034	200.600000
747.322571	200.500000
747.360168	192.500000
747.397644	187.100000
747.435242	195.800000
747.472778	199.500000
747.510315	191.500000
747.547913	189.100000
747.585388	200.600000
747.622925	193.000000
747.660522	183.600000
747.697998	188.200000
747.735596	192.500000
747.773132	190.200000
747.810669	192.600000
747.848206	195.900000
747.885742	186.200000
747.923279	186.700000
747.960815	195.500000
747.998352	192.300000
748.035889	197.600000
748.073425	198.700000
748.110901	190.400000
748.148437	187.900000
748.185974	194.800000
748.223511	203.800000
748.261047	195.800000
748.298584	195.400000
748.336060	192.200000
748.373596	197.200000
748.411133	212.100000
748.448608	188.500000
748.486145	196.500000
748.523682	199.600000
748.561218	200.300000
748.598755	193.400000
748.636292	197.300000
748.673706	191.800000
748.711243	198.900000
748.748718	195.400000
748.786255	192.700000
748.823792	193.300000
748.861267	188.200000
748.898804	195.400000
748.936340	196.000000
748.973816	191.800000
749.011292	198.400000
749.048828	194.800000
749.086304	196.500000
749.123840	204.700000
749.161316	188.600000
749.198792	203.200000
749.236328	199.200000
749.273743	194.400000
749.311279	190.000000
749.348816	195.500000
749.386230	194.100000
749.423767	181.300000
749.461304	194.200000
749.498718	194.600000
749.536255	199.600000
749.573730	205.000000
749.611206	198.600000
749.648682	193.000000
749.686218	192.800000
749.723633	197.100000
749.761169	191.300000
749.798645	188.500000
749.836060	192.500000
749.873596	189.300000
749.911011	193.000000
749.948547	200.100000
749.986023	194.300000
750.023437	191.800000
750.060913	186.500000
750.098450	187.500000
750.135864	191.800000
750.173340	194.300000
750.210815	198.700000
750.248291	188.000000
750.285767	193.900000
750.323242	199.900000
750.360657	195.200000
750.398132	189.600000
750.435608	198.300000
750.473022	189.700000
750.510498	188.700000
750.547974	188.900000
750.585449	191.000000
750.622925	183.100000
750.660339	202.100000
750.697815	193.000000
750.735291	191.500000
750.772644	194.500000
750.810120	195.300000
750.847595	195.500000
750.885010	189.500000
750.922485	202.000000
750.959961	191.900000
750.997375	199.300000
751.034851	196.600000
751.072266	198.100000
751.109680	187.500000
751.147156	198.800000
751.184570	196.600000
751.221985	195.300000
751.259460	185.500000
751.296875	193.600000
751.334290	194.500000
751.371765	197.600000
751.409180	195.500000
751.446594	198.700000
751.484070	195.700000
751.521423	194.500000
751.558899	195.000000
751.596375	201.600000
751.633728	200.500000
751.671204	206.000000
751.708618	188.800000
751.746033	194.100000
751.783447	187.800000
751.820801	188.500000
751.858276	196.800000
751.895691	192.900000
751.933105	192.300000
751.970520	189.700000
752.007935	191.900000
752.045349	197.300000
752.082764	194.000000
752.120178	191.700000
752.157532	189.900000
752.195007	191.400000
752.232422	197.200000
752.269775	198.500000
752.307190	196.100000
752.344543	189.900000
752.382019	193.000000
752.419434	193.600000
752.456787	195.300000
752.494202	197.000000
752.531616	196.000000
752.568970	198.300000
752.606384	194.600000
752.643799	195.100000
752.681152	202.500000
752.718567	197.500000
752.755981	185.200000
752.793335	195.900000
752.830750	185.000000
752.868164	199.300000
752.905518	188.400000
752.942932	198.800000
752.980225	188.500000
753.017639	197.100000
753.055054	190.600000
753.092407	196.400000
753.129822	199.200000
753.167175	202.500000
753.204529	191.800000
753.241943	191.400000
753.279358	187.000000
753.316650	198.700000
753.354065	195.300000
753.391479	198.000000
753.428772	201.100000
753.466187	197.200000
753.503479	188.300000
753.540894	192.300000
753.578308	188.900000
753.615601	188.600000
753.653015	193.800000
753.690369	191.600000
753.727722	188.800000
753.765076	187.000000
753.802490	188.800000
753.839783	185.600000
753.877136	191.300000
753.914551	209.300000
753.951843	187.900000
753.989258	197.100000
754.026611	195.100000
754.063904	194.700000
754.101257	189.900000
754.138611	186.200000
754.175964	195.000000
754.213318	205.900000
754.250610	186.500000
754.288025	190.700000
754.325378	187.900000
754.362671	199.600000
754.400024	191.700000
754.437378	202.300000
754.474670	203.500000
754.512085	189.500000
754.549438	194.800000
754.586731	191.600000
754.624084	193.100000
754.661438	189.200000
754.698730	202.300000
754.736084	191.100000
754.773376	191.800000
754.810730	195.200000
754.848083	192.400000
754.885315	196.900000
754.922668	186.500000
754.960022	186.800000
754.997314	197.600000
755.034668	193.600000
755.072021	193.800000
755.109253	190.100000
755.146606	201.300000
755.183960	191.500000
755.221252	202.500000
755.258545	199.300000
755.295898	199.700000
755.333191	201.000000
755.370544	197.900000
755.407776	193.100000
755.445129	196.200000
755.482422	199.700000
755.519714	191.600000
755.557068	187.500000
755.594360	186.200000
755.631653	198.800000
755.668945	204.800000
755.706299	197.800000
755.743530	207.100000
755.780884	204.600000
755.818176	201.200000
755.855408	200.800000
755.892761	197.300000
755.930054	196.200000
755.967346	198.600000
756.004639	199.600000
756.041870	196.600000
756.079224	201.300000
756.116516	193.200000
756.153748	201.100000
756.191040	204.600000
756.228394	198.500000
756.265625	191.500000
756.302917	197.400000
756.340210	193.200000
756.377441	202.600000
756.414795	205.300000
756.452087	196.700000
756.489319	189.600000
756.526611	199.500000
756.563843	196.400000
756.601135	209.000000
756.638428	204.400000
756.675659	198.300000
756.712952	202.400000
756.750244	200.600000
756.787476	198.900000
756.824768	207.000000
756.862061	195.400000
756.899292	244.900000
756.936584	203.300000
756.973816	209.300000
757.011047	210.200000
757.048340	201.500000
757.085632	199.300000
757.122864	215.100000
757.160156	197.200000
757.197327	203.400000
757.234619	203.600000
757.271912	198.500000
757.309082	204.300000
757.346375	198.700000
757.383667	206.000000
757.420837	201.800000
757.458130	201.000000
757.495422	200.100000
757.532593	203.600000
757.569885	193.000000
757.607117	198.200000
757.644348	202.700000
757.681580	215.300000
757.718811	188.900000
757.756042	201.100000
757.793335	199.500000
757.830505	206.100000
757.867798	199.000000
757.905029	198.500000
757.942200	203.000000
757.979492	198.800000
758.016724	199.800000
758.053894	199.700000
758.091187	221.200000
758.128418	203.300000
758.165588	201.000000
758.202820	213.800000
758.240112	200.800000
758.277283	214.600000
758.314514	204.000000
758.351685	200.000000
758.388916	212.400000
758.426147	211.200000
758.463379	213.700000
758.500610	208.200000
758.537842	204.400000
758.575012	212.100000
758.612244	200.200000
758.649475	217.600000
758.686646	198.400000
758.723877	214.100000
758.761108	213.000000
758.798279	205.300000
758.835510	208.200000
758.872742	212.200000
758.909851	207.800000
758.947083	209.400000
758.984253	208.200000
759.021484	212.500000
759.058716	210.400000
759.095886	211.200000
759.133057	206.300000
759.170288	210.300000
759.207458	202.400000
759.244690	218.200000
759.281860	216.700000
759.319031	208.200000
759.356262	206.400000
759.393433	206.200000
759.430603	207.300000
759.467773	206.800000
759.505005	215.100000
759.542175	213.400000
759.579346	207.200000
759.616516	208.800000
759.653687	212.000000
759.690918	205.100000
759.728027	211.300000
759.765259	209.200000
759.802429	213.300000
759.839539	212.000000
759.876770	215.700000
759.913940	219.600000
759.951111	210.300000
759.988281	210.700000
760.025452	207.500000
760.062561	205.500000
760.099792	218.800000
760.136963	214.300000
760.174072	209.400000
760.211243	202.800000
760.248413	206.200000
760.285583	206.100000
760.322754	221.800000
760.359863	218.000000
760.397034	219.000000
760.434204	210.900000
760.471375	212.200000
760.508545	211.000000
760.545715	211.200000
760.582825	206.800000
760.619995	218.500000
760.657166	204.800000
760.694275	219.700000
760.731445	215.100000
760.768555	216.100000
760.805664	216.500000
760.842834	216.800000
760.879944	218.700000
760.917114	217.000000
760.954285	213.800000
760.991394	210.000000
761.028564	221.800000
761.065674	218.200000
761.102783	211.500000
761.139954	220.700000
761.177124	220.700000
761.214172	223.800000
761.251343	217.100000
761.288452	217.200000
761.325562	221.800000
761.362732	215.300000
761.399841	217.900000
761.436951	220.600000
761.474121	214.000000
761.511169	218.900000
761.548340	225.400000
761.585449	224.300000
761.622559	224.200000
761.659668	221.300000
761.696838	227.900000
761.733887	221.800000
761.771057	220.100000
761.808167	222.500000
761.845276	227.000000
761.882385	236.200000
761.919434	224.000000
761.956604	243.000000
761.993713	222.000000
762.030762	230.300000
762.067871	224.000000
762.105042	223.600000
762.142090	233.500000
762.179199	227.300000
762.216309	231.600000
762.253418	243.300000
762.290527	238.600000
762.327637	233.700000
762.364685	223.900000
762.401794	234.900000
762.438904	235.300000
762.475952	226.300000
762.513062	225.100000
762.550110	226.000000
762.587219	243.000000
762.624329	240.700000
762.661377	234.300000
762.698486	232.000000
762.735596	232.200000
762.772644	227.500000
762.809753	225.100000
762.846863	233.300000
762.883911	236.000000
762.921021	237.700000
762.958069	233.000000
762.995117	242.900000
763.032227	243.300000
763.069336	234.500000
763.106323	229.900000
763.143433	229.700000
763.180481	237.700000
763.217590	239.100000
763.254639	234.300000
763.291687	236.400000
763.328735	244.100000
763.365845	237.000000
763.402893	234.500000
763.439941	239.300000
763.477051	241.600000
763.514038	243.900000
763.551147	236.000000
763.588196	240.900000
763.625244	237.500000
763.662292	246.400000
763.699402	248.400000
763.736389	243.700000
763.773499	252.600000
763.810486	246.600000
763.847534	243.800000
763.884644	247.000000
763.921631	242.900000
763.958679	254.500000
763.995728	244.000000
764.032776	253.600000
764.069824	239.000000
764.106873	250.200000
764.143860	255.100000
764.180969	244.800000
764.218018	253.900000
764.255005	245.700000
764.292053	248.200000
764.329102	258.800000
764.366089	257.300000
764.403137	257.100000
764.440125	246.200000
764.477173	251.600000
764.514221	255.300000
764.551208	251.600000
764.588257	245.900000
764.625305	255.700000
764.662292	262.000000
764.699341	265.100000
764.736389	256.600000
764.773376	272.100000
764.810425	259.800000
764.847473	265.100000
764.884399	261.700000
764.921448	269.300000
764.958435	266.700000
764.995483	257.700000
765.032532	274.200000
765.069458	260.000000
765.106506	262.200000
765.143555	258.200000
765.180481	264.700000
765.217529	271.500000
765.254578	256.000000
765.291504	266.200000
765.328552	263.400000
765.365540	260.900000
765.402527	277.800000
765.439575	260.600000
765.476501	258.100000
765.513550	257.900000
765.550537	264.000000
765.587463	271.200000
765.624512	261.300000
765.661499	253.200000
765.698486	272.300000
765.735474	260.700000
765.772461	264.000000
765.809448	271.700000
765.846436	272.000000
765.883423	273.500000
765.920410	269.000000
765.957397	264.100000
765.994385	270.100000
766.031311	280.000000
766.068359	273.400000
766.105286	271.400000
766.142273	278.600000
766.179260	274.100000
766.216187	267.600000
766.253174	265.000000
766.290161	274.400000
766.327148	275.500000
766.364136	275.200000
766.401123	293.700000
766.438049	271.300000
766.475037	286.600000
766.512024	281.800000
766.548950	295.800000
766.585937	288.500000
766.622864	286.200000
766.659790	283.400000
766.696777	273.400000
766.733704	289.900000
766.770691	280.400000
766.807678	294.900000
766.844604	288.600000
766.881531	288.000000
766.918518	294.700000
766.955444	297.000000
766.992432	289.600000
767.029358	291.800000
767.066284	295.900000
767.103271	293.100000
767.140198	322.800000
767.177124	308.700000
767.214050	299.600000
767.251038	302.100000
767.287964	299.300000
767.324890	292.800000
767.361816	300.900000
767.398743	305.800000
767.435730	300.200000
767.472595	305.100000
767.509583	310.600000
767.546509	298.500000
767.583374	305.100000
767.620361	298.100000
767.657288	304.800000
767.694214	306.500000
767.731140	305.300000
767.768066	306.000000
767.804993	313.700000
767.841919	304.500000
767.878845	310.400000
767.915710	318.200000
767.952698	311.600000
767.989563	315.800000
768.026489	319.400000
