Model Number: SPM-001-M   
Serial Number: 10090201
Firmware Version: 004.17.6
Exposure Time: 500000.000000us
Data Taken on: 10-03-2021 11:29:51.477
Wavelength	Amplitude
733.770752	0.000000
733.808716	0.000000
733.846619	0.000000
733.884583	0.000000
733.922546	0.000000
733.960449	0.000000
733.998413	0.000000
734.036377	0.000000
734.074219	0.000000
734.112183	0.000000
734.150085	0.000000
734.188049	0.000000
734.226013	0.000000
734.263916	0.000000
734.301819	0.000000
734.339783	0.000000
734.377686	0.000000
734.415588	0.000000
734.453552	0.000000
734.491455	0.000000
734.529419	0.000000
734.567322	0.000000
734.605225	0.000000
734.643127	0.000000
734.681091	0.000000
734.718994	0.000000
734.756897	0.000000
734.794800	0.000000
734.832703	0.000000
734.870667	0.000000
734.908508	0.000000
734.946472	0.000000
734.984375	0.000000
735.022278	0.000000
735.060181	0.000000
735.098083	0.000000
735.135986	0.000000
735.173889	0.000000
735.211792	0.000000
735.249695	0.000000
735.287598	0.000000
735.325439	0.000000
735.363403	0.000000
735.401306	0.000000
735.439148	0.000000
735.477051	0.000000
735.515015	0.000000
735.552856	0.000000
735.590759	0.000000
735.628662	0.000000
735.666504	0.000000
735.704407	0.000000
735.742310	0.000000
735.780212	0.000000
735.818115	0.000000
735.856018	0.000000
735.893860	0.000000
735.931763	0.000000
735.969604	0.000000
736.007507	0.000000
736.045410	0.000000
736.083252	0.000000
736.121094	0.000000
736.158997	0.000000
736.196838	0.000000
736.234741	0.000000
736.272644	0.000000
736.310486	0.000000
736.348389	0.000000
736.386230	0.000000
736.424072	0.000000
736.461975	0.000000
736.499878	0.000000
736.537720	0.000000
736.575562	0.000000
736.613403	0.000000
736.651306	0.000000
736.689148	0.000000
736.726990	0.000000
736.764893	0.000000
736.802734	0.000000
736.840576	0.000000
736.878418	0.000000
736.916321	0.000000
736.954102	0.000000
736.992004	0.000000
737.029846	0.000000
737.067688	0.000000
737.105530	0.000000
737.143372	0.000000
737.181213	0.000000
737.219116	0.000000
737.256897	0.000000
737.294739	0.000000
737.332642	0.000000
737.370422	0.000000
737.408325	0.000000
737.446167	0.000000
737.483948	0.000000
737.521790	0.000000
737.559692	0.000000
737.597473	0.000000
737.635315	0.000000
737.673157	0.000000
737.710999	0.000000
737.748840	0.000000
737.786621	0.000000
737.824463	0.000000
737.862305	0.000000
737.900085	0.000000
737.937927	0.000000
737.975769	0.000000
738.013550	0.000000
738.051392	0.000000
738.089233	0.000000
738.127014	0.000000
738.164856	0.000000
738.202698	0.000000
738.240479	0.000000
738.278320	0.000000
738.316162	0.000000
738.353943	0.000000
738.391785	0.000000
738.429565	0.000000
738.467407	0.000000
738.505188	0.000000
738.542969	0.000000
738.580811	0.000000
738.618652	0.000000
738.656372	0.000000
738.694214	0.000000
738.732056	0.000000
738.769836	0.000000
738.807617	0.000000
738.845459	0.000000
738.883240	0.000000
738.921021	0.000000
738.958862	0.000000
738.996582	0.000000
739.034424	0.000000
739.072205	0.000000
739.109985	0.000000
739.147827	0.000000
739.185547	0.000000
739.223389	0.000000
739.261169	0.000000
739.298889	0.000000
739.336731	0.000000
739.374512	0.000000
739.412292	0.000000
739.450073	0.000000
739.487854	0.000000
739.525635	0.000000
739.563416	0.000000
739.601135	0.000000
739.638977	0.000000
739.676758	0.000000
739.714478	0.000000
739.752258	0.000000
739.790100	0.000000
739.827820	0.000000
739.865601	0.000000
739.903381	0.000000
739.941101	0.000000
739.978882	194.000000
740.016724	191.800000
740.054443	195.900000
740.092224	190.400000
740.130005	187.700000
740.167725	189.800000
740.205505	188.800000
740.243225	199.500000
740.281006	192.700000
740.318787	186.300000
740.356506	198.600000
740.394287	197.700000
740.432068	187.700000
740.469727	186.400000
740.507507	196.600000
740.545288	192.300000
740.583008	195.800000
740.620789	193.400000
740.658569	184.900000
740.696228	193.300000
740.734009	199.200000
740.771790	181.000000
740.809509	197.400000
740.847229	187.800000
740.884949	190.100000
740.922729	186.400000
740.960449	192.300000
740.998169	186.500000
741.035950	189.100000
741.073669	193.100000
741.111389	193.700000
741.149170	201.300000
741.186890	204.600000
741.224609	195.900000
741.262329	195.900000
741.300110	201.100000
741.337769	188.700000
741.375549	185.600000
741.413208	194.600000
741.450989	188.200000
741.488708	191.700000
741.526367	190.000000
741.564148	196.400000
741.601868	197.300000
741.639526	194.800000
741.677307	193.300000
741.715027	195.100000
741.752686	188.500000
741.790466	201.100000
741.828186	195.900000
741.865845	188.000000
741.903564	182.900000
741.941345	194.600000
741.979004	189.300000
742.016724	196.300000
742.054382	193.100000
742.092102	199.100000
742.129822	185.200000
742.167480	192.200000
742.205200	191.400000
742.242920	196.000000
742.280640	197.700000
742.318359	188.800000
742.356079	189.800000
742.393738	197.600000
742.431396	191.500000
742.469116	197.600000
742.506775	183.100000
742.544495	195.700000
742.582214	197.000000
742.619873	192.500000
742.657593	200.400000
742.695251	197.000000
742.732971	193.100000
742.770630	193.800000
742.808289	193.900000
742.846008	191.900000
742.883728	196.100000
742.921326	192.300000
742.959045	191.000000
742.996765	192.500000
743.034424	193.000000
743.072083	188.200000
743.109802	195.200000
743.147400	185.300000
743.185120	195.900000
743.222839	190.900000
743.260437	199.200000
743.298157	193.900000
743.335754	185.800000
743.373474	190.800000
743.411133	186.100000
743.448792	191.800000
743.486450	193.400000
743.524170	183.300000
743.561768	193.700000
743.599487	198.700000
743.637146	204.700000
743.674744	191.400000
743.712463	191.200000
743.750122	192.400000
743.787720	196.400000
743.825439	189.100000
743.863037	190.700000
743.900696	193.200000
743.938416	217.700000
743.976013	191.900000
744.013672	202.900000
744.051331	197.300000
744.088928	202.300000
744.126587	200.700000
744.164307	193.700000
744.201904	191.700000
744.239563	195.900000
744.277222	195.800000
744.314819	192.800000
744.352478	199.900000
744.390137	194.600000
744.427734	195.700000
744.465393	191.200000
744.502991	189.000000
744.540649	197.300000
744.578308	195.700000
744.615906	186.100000
744.653564	183.700000
744.691223	195.700000
744.728821	186.900000
744.766418	192.900000
744.804077	196.700000
744.841675	190.500000
744.879333	187.200000
744.916992	190.500000
744.954529	190.300000
744.992187	197.800000
745.029785	192.500000
745.067444	188.900000
745.105042	195.000000
745.142639	195.700000
745.180298	203.400000
745.217896	190.400000
745.255493	192.700000
745.293152	197.800000
745.330750	198.100000
745.368347	200.000000
745.405945	197.200000
745.443604	193.200000
745.481140	199.100000
745.518799	190.500000
745.556396	197.200000
745.593994	197.300000
745.631592	192.700000
745.669189	187.300000
745.706787	194.800000
745.744385	188.900000
745.781982	196.000000
745.819580	190.900000
745.857178	191.700000
745.894775	193.400000
745.932373	194.400000
745.969971	194.900000
746.007568	184.000000
746.045166	202.700000
746.082764	198.700000
746.120300	196.400000
746.157898	197.900000
746.195557	193.000000
746.233093	187.000000
746.270691	195.700000
746.308228	195.900000
746.345825	199.900000
746.383423	196.000000
746.420959	189.300000
746.458557	190.100000
746.496155	191.900000
746.533691	192.100000
746.571289	189.100000
746.608887	191.700000
746.646423	194.900000
746.684021	192.000000
746.721619	191.700000
746.759155	194.500000
746.796753	188.100000
746.834351	184.800000
746.871826	189.800000
746.909424	200.200000
746.946960	193.900000
746.984558	190.900000
747.022156	191.700000
747.059631	199.000000
747.097229	195.300000
747.134827	191.600000
747.172363	199.800000
747.209900	192.900000
747.247498	188.200000
747.285034	200.400000
747.322571	201.800000
747.360168	191.800000
747.397644	185.700000
747.435242	196.300000
747.472778	199.600000
747.510315	190.400000
747.547913	190.400000
747.585388	200.500000
747.622925	193.100000
747.660522	184.000000
747.697998	188.900000
747.735596	192.900000
747.773132	190.500000
747.810669	193.600000
747.848206	197.400000
747.885742	187.900000
747.923279	187.500000
747.960815	196.000000
747.998352	194.700000
748.035889	199.700000
748.073425	198.600000
748.110901	189.000000
748.148437	188.500000
748.185974	194.400000
748.223511	203.900000
748.261047	194.500000
748.298584	194.300000
748.336060	194.000000
748.373596	195.500000
748.411133	213.500000
748.448608	189.100000
748.486145	198.200000
748.523682	200.800000
748.561218	201.100000
748.598755	193.100000
748.636292	197.400000
748.673706	190.300000
748.711243	199.700000
748.748718	194.700000
748.786255	193.400000
748.823792	193.000000
748.861267	188.300000
748.898804	194.400000
748.936340	196.400000
748.973816	190.800000
749.011292	199.500000
749.048828	194.100000
749.086304	196.500000
749.123840	203.700000
749.161316	188.700000
749.198792	203.900000
749.236328	200.400000
749.273743	193.700000
749.311279	192.000000
749.348816	195.600000
749.386230	194.300000
749.423767	181.700000
749.461304	196.000000
749.498718	194.500000
749.536255	200.600000
749.573730	206.100000
749.611206	199.300000
749.648682	193.300000
749.686218	193.400000
749.723633	197.700000
749.761169	191.100000
749.798645	188.900000
749.836060	193.000000
749.873596	189.700000
749.911011	193.400000
749.948547	202.800000
749.986023	193.900000
750.023437	192.700000
750.060913	186.100000
750.098450	188.500000
750.135864	192.800000
750.173340	193.900000
750.210815	196.800000
750.248291	188.000000
750.285767	191.800000
750.323242	201.300000
750.360657	193.100000
750.398132	189.300000
750.435608	196.000000
750.473022	189.200000
750.510498	188.300000
750.547974	189.800000
750.585449	190.200000
750.622925	183.200000
750.660339	202.500000
750.697815	193.500000
750.735291	192.900000
750.772644	194.600000
750.810120	189.800000
750.847595	195.800000
750.885010	188.500000
750.922485	202.600000
750.959961	191.300000
750.997375	200.400000
751.034851	195.600000
751.072266	199.100000
751.109680	187.000000
751.147156	200.500000
751.184570	196.800000
751.221985	195.200000
751.259460	183.500000
751.296875	194.800000
751.334290	194.500000
751.371765	197.900000
751.409180	197.400000
751.446594	200.200000
751.484070	195.900000
751.521423	195.100000
751.558899	195.200000
751.596375	201.500000
751.633728	201.600000
751.671204	207.200000
751.708618	188.800000
751.746033	195.000000
751.783447	188.200000
751.820801	188.400000
751.858276	196.700000
751.895691	191.600000
751.933105	191.500000
751.970520	187.700000
752.007935	191.800000
752.045349	197.400000
752.082764	194.500000
752.120178	191.400000
752.157532	190.900000
752.195007	190.300000
752.232422	197.200000
752.269775	197.400000
752.307190	196.900000
752.344543	188.300000
752.382019	193.100000
752.419434	191.200000
752.456787	195.800000
752.494202	195.500000
752.531616	196.700000
752.568970	197.800000
752.606384	194.100000
752.643799	195.700000
752.681152	203.600000
752.718567	196.100000
752.755981	186.200000
752.793335	196.500000
752.830750	184.600000
752.868164	199.100000
752.905518	187.500000
752.942932	197.800000
752.980225	188.500000
753.017639	200.100000
753.055054	192.000000
753.092407	196.100000
753.129822	200.100000
753.167175	204.200000
753.204529	192.700000
753.241943	191.200000
753.279358	188.000000
753.316650	197.900000
753.354065	194.100000
753.391479	197.400000
753.428772	203.100000
753.466187	197.600000
753.503479	187.900000
753.540894	193.800000
753.578308	188.200000
753.615601	187.800000
753.653015	193.800000
753.690369	193.100000
753.727722	189.500000
753.765076	188.300000
753.802490	187.600000
753.839783	186.600000
753.877136	189.300000
753.914551	210.100000
753.951843	187.800000
753.989258	198.700000
754.026611	195.400000
754.063904	198.200000
754.101257	188.500000
754.138611	186.800000
754.175964	193.600000
754.213318	205.900000
754.250610	186.300000
754.288025	191.700000
754.325378	186.900000
754.362671	200.100000
754.400024	190.500000
754.437378	205.300000
754.474670	202.700000
754.512085	190.300000
754.549438	193.500000
754.586731	192.000000
754.624084	193.600000
754.661438	188.900000
754.698730	201.900000
754.736084	193.200000
754.773376	193.000000
754.810730	196.700000
754.848083	192.600000
754.885315	198.400000
754.922668	186.600000
754.960022	189.700000
754.997314	199.800000
755.034668	195.700000
755.072021	195.600000
755.109253	192.200000
755.146606	203.200000
755.183960	194.000000
755.221252	205.800000
755.258545	199.600000
755.295898	201.500000
755.333191	202.200000
755.370544	201.300000
755.407776	194.800000
755.445129	197.000000
755.482422	198.700000
755.519714	193.900000
755.557068	187.000000
755.594360	189.100000
755.631653	200.200000
755.668945	204.900000
755.706299	199.500000
755.743530	209.800000
755.780884	204.700000
755.818176	203.600000
755.855408	201.700000
755.892761	200.300000
755.930054	199.000000
755.967346	200.700000
756.004639	201.800000
756.041870	198.500000
756.079224	202.500000
756.116516	195.800000
756.153748	203.400000
756.191040	206.500000
756.228394	201.700000
756.265625	195.000000
756.302917	198.500000
756.340210	194.800000
756.377441	204.800000
756.414795	206.500000
756.452087	200.100000
756.489319	193.100000
756.526611	202.900000
756.563843	203.000000
756.601135	212.600000
756.638428	210.400000
756.675659	202.000000
756.712952	206.500000
756.750244	204.100000
756.787476	201.600000
756.824768	210.500000
756.862061	200.100000
756.899292	249.200000
756.936584	206.800000
756.973816	214.900000
757.011047	214.500000
757.048340	205.500000
757.085632	201.100000
757.122864	218.000000
757.160156	201.600000
757.197327	207.300000
757.234619	207.500000
757.271912	205.000000
757.309082	209.100000
757.346375	202.100000
757.383667	209.100000
757.420837	206.700000
757.458130	203.800000
757.495422	204.700000
757.532593	205.900000
757.569885	198.500000
757.607117	201.000000
757.644348	207.700000
757.681580	217.900000
757.718811	195.500000
757.756042	204.900000
757.793335	203.900000
757.830505	210.100000
757.867798	203.200000
757.905029	202.400000
757.942200	210.300000
757.979492	202.600000
758.016724	207.200000
758.053894	206.000000
758.091187	224.800000
758.128418	208.100000
758.165588	207.200000
758.202820	219.100000
758.240112	209.600000
758.277283	219.900000
758.314514	211.600000
758.351685	206.600000
758.388916	218.900000
758.426147	218.700000
758.463379	218.700000
758.500610	213.500000
758.537842	210.500000
758.575012	217.800000
758.612244	205.600000
758.649475	224.400000
758.686646	204.800000
758.723877	218.300000
758.761108	219.900000
758.798279	211.600000
758.835510	212.600000
758.872742	220.300000
758.909851	214.400000
758.947083	216.200000
758.984253	213.800000
759.021484	219.400000
759.058716	218.600000
759.095886	217.500000
759.133057	212.800000
759.170288	218.900000
759.207458	210.100000
759.244690	227.700000
759.281860	223.500000
759.319031	215.400000
759.356262	213.200000
759.393433	214.900000
759.430603	212.500000
759.467773	215.000000
759.505005	221.300000
759.542175	222.600000
759.579346	213.500000
759.616516	216.400000
759.653687	218.000000
759.690918	213.400000
759.728027	218.000000
759.765259	216.600000
759.802429	220.700000
759.839539	220.900000
759.876770	222.900000
759.913940	228.000000
759.951111	218.100000
759.988281	220.500000
760.025452	216.500000
760.062561	212.600000
760.099792	227.000000
760.136963	220.400000
760.174072	220.200000
760.211243	212.500000
760.248413	214.900000
760.285583	213.600000
760.322754	230.900000
760.359863	226.600000
760.397034	229.300000
760.434204	218.100000
760.471375	222.500000
760.508545	218.700000
760.545715	220.900000
760.582825	215.500000
760.619995	226.200000
760.657166	214.300000
760.694275	228.700000
760.731445	223.000000
760.768555	226.500000
760.805664	224.900000
760.842834	226.100000
760.879944	227.000000
760.917114	226.900000
760.954285	223.100000
760.991394	218.800000
761.028564	229.500000
761.065674	229.900000
761.102783	221.700000
761.139954	230.900000
761.177124	230.400000
761.214172	234.400000
761.251343	224.200000
761.288452	227.500000
761.325562	232.000000
761.362732	226.200000
761.399841	228.400000
761.436951	231.000000
761.474121	226.500000
761.511169	230.900000
761.548340	236.200000
761.585449	235.600000
761.622559	235.900000
761.659668	233.700000
761.696838	240.300000
761.733887	236.500000
761.771057	232.400000
761.808167	235.200000
761.845276	241.200000
761.882385	248.800000
761.919434	237.000000
761.956604	256.800000
761.993713	234.200000
762.030762	246.000000
762.067871	238.700000
762.105042	237.600000
762.142090	246.800000
762.179199	239.400000
762.216309	247.900000
762.253418	257.100000
762.290527	252.200000
762.327637	247.900000
762.364685	238.000000
762.401794	246.500000
762.438904	245.500000
762.475952	240.200000
762.513062	241.100000
762.550110	239.600000
762.587219	257.500000
762.624329	256.300000
762.661377	250.600000
762.698486	246.900000
762.735596	249.300000
762.772644	239.500000
762.809753	241.200000
762.846863	249.200000
762.883911	253.300000
762.921021	251.900000
762.958069	249.800000
762.995117	258.500000
763.032227	259.500000
763.069336	251.500000
763.106323	248.600000
763.143433	245.600000
763.180481	253.600000
763.217590	254.700000
763.254639	251.000000
763.291687	253.900000
763.328735	264.100000
763.365845	255.300000
763.402893	254.400000
763.439941	258.200000
763.477051	260.900000
763.514038	262.600000
763.551147	254.800000
763.588196	257.800000
763.625244	255.900000
763.662292	266.100000
763.699402	269.200000
763.736389	265.900000
763.773499	272.300000
763.810486	267.300000
763.847534	264.600000
763.884644	267.700000
763.921631	262.000000
763.958679	277.300000
763.995728	263.200000
764.032776	275.700000
764.069824	259.100000
764.106873	270.200000
764.143860	276.300000
764.180969	269.700000
764.218018	277.900000
764.255005	269.400000
764.292053	270.100000
764.329102	284.700000
764.366089	280.700000
764.403137	280.300000
764.440125	269.100000
764.477173	272.900000
764.514221	275.900000
764.551208	273.600000
764.588257	267.900000
764.625305	280.200000
764.662292	285.700000
764.699341	290.800000
764.736389	283.500000
764.773376	299.600000
764.810425	283.900000
764.847473	294.100000
764.884399	288.100000
764.921448	295.700000
764.958435	295.400000
764.995483	283.700000
765.032532	299.800000
765.069458	285.500000
765.106506	285.600000
765.143555	285.800000
765.180481	290.800000
765.217529	298.300000
765.254578	283.100000
765.291504	294.300000
765.328552	289.700000
765.365540	285.700000
765.402527	302.900000
765.439575	288.300000
765.476501	285.400000
765.513550	285.000000
765.550537	290.300000
765.587463	297.800000
765.624512	290.500000
765.661499	282.500000
765.698486	300.700000
765.735474	288.800000
765.772461	292.200000
765.809448	301.100000
765.846436	301.600000
765.883423	302.600000
765.920410	298.200000
765.957397	292.000000
765.994385	298.600000
766.031311	306.100000
766.068359	302.200000
766.105286	300.600000
766.142273	309.500000
766.179260	304.400000
766.216187	297.400000
766.253174	294.400000
766.290161	303.600000
766.327148	304.600000
766.364136	310.000000
766.401123	323.300000
766.438049	302.800000
766.475037	316.000000
766.512024	312.800000
766.548950	326.300000
766.585937	322.500000
766.622864	319.100000
766.659790	317.700000
766.696777	307.000000
766.733704	324.800000
766.770691	314.200000
766.807678	331.100000
766.844604	324.400000
766.881531	325.100000
766.918518	331.800000
766.955444	333.900000
766.992432	328.600000
767.029358	331.900000
767.066284	336.600000
767.103271	331.900000
767.140198	360.200000
767.177124	347.600000
767.214050	341.100000
767.251038	339.800000
767.287964	339.300000
767.324890	335.300000
767.361816	344.200000
767.398743	347.500000
767.435730	343.400000
767.472595	345.100000
767.509583	355.100000
767.546509	341.900000
767.583374	349.500000
767.620361	341.100000
767.657288	349.800000
767.694214	348.600000
767.731140	349.000000
767.768066	351.900000
767.804993	356.400000
767.841919	344.800000
767.878845	358.300000
767.915710	361.700000
767.952698	359.200000
767.989563	360.100000
768.026489	362.300000
