Model Number: SPM-001-M   
Serial Number: 10090201
Firmware Version: 004.17.6
Exposure Time: 500000.000000us
Data Taken on: 10-03-2021 11:31:25.978
Wavelength	Amplitude
733.770752	0.000000
733.808716	0.000000
733.846619	0.000000
733.884583	0.000000
733.922546	0.000000
733.960449	0.000000
733.998413	0.000000
734.036377	0.000000
734.074219	0.000000
734.112183	0.000000
734.150085	0.000000
734.188049	0.000000
734.226013	0.000000
734.263916	0.000000
734.301819	0.000000
734.339783	0.000000
734.377686	0.000000
734.415588	0.000000
734.453552	0.000000
734.491455	0.000000
734.529419	0.000000
734.567322	0.000000
734.605225	0.000000
734.643127	0.000000
734.681091	0.000000
734.718994	0.000000
734.756897	0.000000
734.794800	0.000000
734.832703	0.000000
734.870667	0.000000
734.908508	0.000000
734.946472	0.000000
734.984375	0.000000
735.022278	0.000000
735.060181	0.000000
735.098083	0.000000
735.135986	0.000000
735.173889	0.000000
735.211792	0.000000
735.249695	0.000000
735.287598	0.000000
735.325439	0.000000
735.363403	0.000000
735.401306	0.000000
735.439148	0.000000
735.477051	0.000000
735.515015	0.000000
735.552856	0.000000
735.590759	0.000000
735.628662	0.000000
735.666504	0.000000
735.704407	0.000000
735.742310	0.000000
735.780212	0.000000
735.818115	0.000000
735.856018	0.000000
735.893860	0.000000
735.931763	0.000000
735.969604	0.000000
736.007507	0.000000
736.045410	0.000000
736.083252	0.000000
736.121094	0.000000
736.158997	0.000000
736.196838	0.000000
736.234741	0.000000
736.272644	0.000000
736.310486	0.000000
736.348389	0.000000
736.386230	0.000000
736.424072	0.000000
736.461975	0.000000
736.499878	0.000000
736.537720	0.000000
736.575562	0.000000
736.613403	0.000000
736.651306	0.000000
736.689148	0.000000
736.726990	0.000000
736.764893	0.000000
736.802734	0.000000
736.840576	0.000000
736.878418	0.000000
736.916321	0.000000
736.954102	0.000000
736.992004	0.000000
737.029846	0.000000
737.067688	0.000000
737.105530	0.000000
737.143372	0.000000
737.181213	0.000000
737.219116	0.000000
737.256897	0.000000
737.294739	0.000000
737.332642	0.000000
737.370422	0.000000
737.408325	0.000000
737.446167	0.000000
737.483948	0.000000
737.521790	0.000000
737.559692	0.000000
737.597473	0.000000
737.635315	0.000000
737.673157	0.000000
737.710999	0.000000
737.748840	0.000000
737.786621	0.000000
737.824463	0.000000
737.862305	0.000000
737.900085	0.000000
737.937927	0.000000
737.975769	0.000000
738.013550	0.000000
738.051392	0.000000
738.089233	0.000000
738.127014	0.000000
738.164856	0.000000
738.202698	0.000000
738.240479	0.000000
738.278320	0.000000
738.316162	0.000000
738.353943	0.000000
738.391785	0.000000
738.429565	0.000000
738.467407	0.000000
738.505188	0.000000
738.542969	0.000000
738.580811	0.000000
738.618652	0.000000
738.656372	0.000000
738.694214	0.000000
738.732056	0.000000
738.769836	0.000000
738.807617	0.000000
738.845459	0.000000
738.883240	0.000000
738.921021	0.000000
738.958862	0.000000
738.996582	0.000000
739.034424	0.000000
739.072205	0.000000
739.109985	0.000000
739.147827	0.000000
739.185547	0.000000
739.223389	0.000000
739.261169	0.000000
739.298889	0.000000
739.336731	0.000000
739.374512	0.000000
739.412292	0.000000
739.450073	0.000000
739.487854	0.000000
739.525635	0.000000
739.563416	0.000000
739.601135	0.000000
739.638977	0.000000
739.676758	0.000000
739.714478	0.000000
739.752258	0.000000
739.790100	0.000000
739.827820	0.000000
739.865601	0.000000
739.903381	0.000000
739.941101	0.000000
739.978882	195.700000
740.016724	190.800000
740.054443	197.500000
740.092224	189.800000
740.130005	189.600000
740.167725	190.000000
740.205505	189.100000
740.243225	199.800000
740.281006	194.100000
740.318787	184.800000
740.356506	198.700000
740.394287	197.700000
740.432068	189.000000
740.469727	186.600000
740.507507	197.900000
740.545288	193.500000
740.583008	195.700000
740.620789	193.200000
740.658569	184.300000
740.696228	193.300000
740.734009	198.300000
740.771790	181.200000
740.809509	197.000000
740.847229	188.200000
740.884949	190.100000
740.922729	185.300000
740.960449	189.800000
740.998169	188.400000
741.035950	188.000000
741.073669	193.900000
741.111389	193.400000
741.149170	202.600000
741.186890	203.700000
741.224609	195.600000
741.262329	195.100000
741.300110	203.200000
741.337769	188.700000
741.375549	186.800000
741.413208	195.400000
741.450989	186.600000
741.488708	190.200000
741.526367	190.900000
741.564148	196.700000
741.601868	198.400000
741.639526	193.000000
741.677307	194.600000
741.715027	195.800000
741.752686	188.800000
741.790466	198.800000
741.828186	195.600000
741.865845	188.900000
741.903564	184.200000
741.941345	193.100000
741.979004	188.700000
742.016724	195.700000
742.054382	194.000000
742.092102	198.400000
742.129822	184.700000
742.167480	190.800000
742.205200	192.000000
742.242920	194.500000
742.280640	198.200000
742.318359	188.900000
742.356079	189.400000
742.393738	196.900000
742.431396	192.500000
742.469116	196.400000
742.506775	182.600000
742.544495	196.300000
742.582214	195.900000
742.619873	192.000000
742.657593	199.800000
742.695251	196.200000
742.732971	191.700000
742.770630	193.700000
742.808289	191.600000
742.846008	192.000000
742.883728	196.100000
742.921326	193.900000
742.959045	189.900000
742.996765	193.400000
743.034424	193.600000
743.072083	189.900000
743.109802	192.700000
743.147400	186.700000
743.185120	194.500000
743.222839	191.200000
743.260437	198.400000
743.298157	195.000000
743.335754	185.100000
743.373474	189.900000
743.411133	184.000000
743.448792	192.600000
743.486450	192.500000
743.524170	184.000000
743.561768	193.500000
743.599487	199.500000
743.637146	204.400000
743.674744	191.400000
743.712463	190.800000
743.750122	193.400000
743.787720	195.400000
743.825439	189.100000
743.863037	190.500000
743.900696	192.500000
743.938416	217.600000
743.976013	191.500000
744.013672	201.600000
744.051331	197.200000
744.088928	201.600000
744.126587	200.400000
744.164307	194.500000
744.201904	190.300000
744.239563	196.500000
744.277222	195.600000
744.314819	192.900000
744.352478	199.600000
744.390137	195.100000
744.427734	196.600000
744.465393	190.400000
744.502991	188.900000
744.540649	196.300000
744.578308	194.900000
744.615906	186.900000
744.653564	183.200000
744.691223	197.800000
744.728821	184.800000
744.766418	192.000000
744.804077	196.400000
744.841675	190.300000
744.879333	186.000000
744.916992	191.300000
744.954529	190.400000
744.992187	198.400000
745.029785	191.100000
745.067444	188.300000
745.105042	192.700000
745.142639	195.000000
745.180298	202.800000
745.217896	190.400000
745.255493	192.800000
745.293152	197.800000
745.330750	198.500000
745.368347	201.000000
745.405945	196.500000
745.443604	193.400000
745.481140	197.600000
745.518799	191.300000
745.556396	198.600000
745.593994	198.000000
745.631592	193.000000
745.669189	187.100000
745.706787	196.100000
745.744385	189.500000
745.781982	196.600000
745.819580	190.400000
745.857178	191.500000
745.894775	193.600000
745.932373	194.800000
745.969971	193.800000
746.007568	184.600000
746.045166	202.700000
746.082764	197.600000
746.120300	195.900000
746.157898	197.300000
746.195557	192.800000
746.233093	186.400000
746.270691	197.100000
746.308228	195.500000
746.345825	198.900000
746.383423	196.900000
746.420959	189.600000
746.458557	191.000000
746.496155	190.800000
746.533691	192.600000
746.571289	187.600000
746.608887	192.500000
746.646423	194.600000
746.684021	194.400000
746.721619	191.100000
746.759155	194.200000
746.796753	185.800000
746.834351	186.800000
746.871826	190.200000
746.909424	199.800000
746.946960	195.100000
746.984558	191.500000
747.022156	191.300000
747.059631	199.900000
747.097229	195.100000
747.134827	191.000000
747.172363	201.300000
747.209900	194.900000
747.247498	188.700000
747.285034	200.200000
747.322571	201.000000
747.360168	191.700000
747.397644	186.700000
747.435242	196.900000
747.472778	201.100000
747.510315	189.400000
747.547913	190.000000
747.585388	201.000000
747.622925	191.800000
747.660522	184.800000
747.697998	190.100000
747.735596	193.200000
747.773132	190.500000
747.810669	192.100000
747.848206	197.000000
747.885742	187.200000
747.923279	186.500000
747.960815	195.000000
747.998352	193.400000
748.035889	197.700000
748.073425	197.100000
748.110901	189.600000
748.148437	188.700000
748.185974	194.000000
748.223511	202.500000
748.261047	193.500000
748.298584	195.400000
748.336060	192.500000
748.373596	195.800000
748.411133	211.800000
748.448608	188.200000
748.486145	196.700000
748.523682	201.800000
748.561218	200.000000
748.598755	194.600000
748.636292	196.200000
748.673706	191.100000
748.711243	199.700000
748.748718	196.200000
748.786255	193.100000
748.823792	193.100000
748.861267	188.500000
748.898804	195.000000
748.936340	194.900000
748.973816	191.000000
749.011292	199.800000
749.048828	194.800000
749.086304	197.200000
749.123840	206.300000
749.161316	188.800000
749.198792	203.800000
749.236328	200.200000
749.273743	191.900000
749.311279	192.100000
749.348816	195.100000
749.386230	194.000000
749.423767	182.200000
749.461304	196.300000
749.498718	194.500000
749.536255	199.200000
749.573730	206.700000
749.611206	199.800000
749.648682	192.800000
749.686218	192.600000
749.723633	196.600000
749.761169	190.600000
749.798645	189.300000
749.836060	192.500000
749.873596	190.300000
749.911011	193.000000
749.948547	201.000000
749.986023	192.200000
750.023437	192.500000
750.060913	187.000000
750.098450	187.200000
750.135864	192.000000
750.173340	194.100000
750.210815	196.700000
750.248291	186.600000
750.285767	193.700000
750.323242	200.200000
750.360657	194.800000
750.398132	190.000000
750.435608	197.000000
750.473022	189.500000
750.510498	189.000000
750.547974	188.600000
750.585449	190.500000
750.622925	181.700000
750.660339	202.800000
750.697815	192.800000
750.735291	191.900000
750.772644	194.800000
750.810120	190.800000
750.847595	194.700000
750.885010	189.700000
750.922485	202.300000
750.959961	191.800000
750.997375	200.800000
751.034851	198.100000
751.072266	199.700000
751.109680	186.000000
751.147156	199.600000
751.184570	197.200000
751.221985	195.300000
751.259460	184.000000
751.296875	193.500000
751.334290	195.200000
751.371765	199.600000
751.409180	198.100000
751.446594	199.100000
751.484070	196.600000
751.521423	195.900000
751.558899	194.900000
751.596375	201.800000
751.633728	200.000000
751.671204	207.200000
751.708618	189.000000
751.746033	194.300000
751.783447	187.500000
751.820801	189.300000
751.858276	195.200000
751.895691	193.700000
751.933105	191.100000
751.970520	188.100000
752.007935	191.000000
752.045349	198.400000
752.082764	193.700000
752.120178	193.000000
752.157532	190.300000
752.195007	190.600000
752.232422	198.800000
752.269775	198.200000
752.307190	196.600000
752.344543	188.600000
752.382019	192.300000
752.419434	192.000000
752.456787	195.000000
752.494202	198.400000
752.531616	196.500000
752.568970	197.600000
752.606384	195.700000
752.643799	195.700000
752.681152	202.000000
752.718567	196.100000
752.755981	185.800000
752.793335	197.100000
752.830750	186.600000
752.868164	199.700000
752.905518	189.100000
752.942932	197.500000
752.980225	188.800000
753.017639	198.600000
753.055054	192.400000
753.092407	196.200000
753.129822	198.800000
753.167175	204.100000
753.204529	193.300000
753.241943	191.000000
753.279358	188.000000
753.316650	198.400000
753.354065	196.200000
753.391479	197.700000
753.428772	202.800000
753.466187	198.300000
753.503479	186.400000
753.540894	191.500000
753.578308	188.400000
753.615601	187.400000
753.653015	193.800000
753.690369	190.500000
753.727722	189.000000
753.765076	185.400000
753.802490	188.000000
753.839783	184.500000
753.877136	190.900000
753.914551	209.400000
753.951843	188.500000
753.989258	197.500000
754.026611	194.600000
754.063904	195.800000
754.101257	188.200000
754.138611	185.000000
754.175964	196.300000
754.213318	205.400000
754.250610	186.500000
754.288025	189.900000
754.325378	188.500000
754.362671	199.900000
754.400024	192.600000
754.437378	203.500000
754.474670	203.800000
754.512085	190.600000
754.549438	194.300000
754.586731	191.100000
754.624084	192.500000
754.661438	190.100000
754.698730	202.700000
754.736084	191.600000
754.773376	192.200000
754.810730	196.400000
754.848083	190.400000
754.885315	198.600000
754.922668	185.300000
754.960022	187.600000
754.997314	198.600000
755.034668	194.900000
755.072021	195.700000
755.109253	192.300000
755.146606	202.700000
755.183960	193.000000
755.221252	205.300000
755.258545	201.600000
755.295898	200.700000
755.333191	202.700000
755.370544	198.400000
755.407776	193.700000
755.445129	196.000000
755.482422	199.800000
755.519714	192.200000
755.557068	188.300000
755.594360	187.500000
755.631653	200.400000
755.668945	206.200000
755.706299	198.500000
755.743530	210.200000
755.780884	205.400000
755.818176	202.700000
755.855408	203.500000
755.892761	199.400000
755.930054	199.800000
755.967346	201.500000
756.004639	202.300000
756.041870	198.500000
756.079224	203.700000
756.116516	195.100000
756.153748	204.200000
756.191040	205.700000
756.228394	202.800000
756.265625	195.500000
756.302917	198.700000
756.340210	195.900000
756.377441	206.600000
756.414795	207.200000
756.452087	199.300000
756.489319	193.600000
756.526611	203.100000
756.563843	200.700000
756.601135	212.100000
756.638428	208.900000
756.675659	201.400000
756.712952	205.900000
756.750244	205.600000
756.787476	202.500000
756.824768	210.000000
756.862061	200.400000
756.899292	247.700000
756.936584	206.300000
756.973816	215.000000
757.011047	214.800000
757.048340	205.300000
757.085632	203.500000
757.122864	219.100000
757.160156	200.900000
757.197327	207.200000
757.234619	207.400000
757.271912	203.100000
757.309082	209.400000
757.346375	201.200000
757.383667	211.800000
757.420837	206.600000
757.458130	206.200000
757.495422	204.400000
757.532593	207.600000
757.569885	197.400000
757.607117	201.500000
757.644348	207.300000
757.681580	218.200000
757.718811	194.600000
757.756042	205.300000
757.793335	203.500000
757.830505	208.900000
757.867798	202.800000
757.905029	202.600000
757.942200	209.700000
757.979492	203.900000
758.016724	204.800000
758.053894	205.100000
758.091187	226.100000
758.128418	207.400000
758.165588	205.800000
758.202820	219.300000
758.240112	210.500000
758.277283	219.000000
758.314514	210.400000
758.351685	206.000000
758.388916	219.400000
758.426147	216.900000
758.463379	220.400000
758.500610	213.800000
758.537842	211.000000
758.575012	218.300000
758.612244	206.600000
758.649475	223.000000
758.686646	204.500000
758.723877	218.700000
758.761108	219.000000
758.798279	211.500000
758.835510	214.500000
758.872742	219.600000
758.909851	214.700000
758.947083	217.100000
758.984253	215.000000
759.021484	219.300000
759.058716	216.900000
759.095886	219.700000
759.133057	213.000000
759.170288	217.200000
759.207458	209.300000
759.244690	227.000000
759.281860	225.800000
759.319031	214.200000
759.356262	213.200000
759.393433	214.100000
759.430603	215.000000
759.467773	214.000000
759.505005	223.000000
759.542175	222.000000
759.579346	215.000000
759.616516	216.400000
759.653687	218.600000
759.690918	214.600000
759.728027	218.200000
759.765259	218.400000
759.802429	220.900000
759.839539	219.700000
759.876770	223.400000
759.913940	227.700000
759.951111	219.600000
759.988281	218.000000
760.025452	215.300000
760.062561	214.600000
760.099792	227.900000
760.136963	222.100000
760.174072	218.200000
760.211243	212.900000
760.248413	214.300000
760.285583	216.100000
760.322754	230.900000
760.359863	225.600000
760.397034	225.700000
760.434204	218.700000
760.471375	222.200000
760.508545	218.700000
760.545715	220.700000
760.582825	215.900000
760.619995	226.000000
760.657166	215.100000
760.694275	228.000000
760.731445	223.700000
760.768555	225.200000
760.805664	226.100000
760.842834	226.600000
760.879944	226.800000
760.917114	224.100000
760.954285	222.900000
760.991394	218.100000
761.028564	231.900000
761.065674	229.400000
761.102783	222.100000
761.139954	232.300000
761.177124	232.100000
761.214172	233.200000
761.251343	226.100000
761.288452	228.900000
761.325562	231.600000
761.362732	226.200000
761.399841	228.200000
761.436951	230.900000
761.474121	226.800000
761.511169	231.000000
761.548340	234.400000
761.585449	235.100000
761.622559	235.200000
761.659668	234.500000
761.696838	239.700000
761.733887	237.200000
761.771057	231.800000
761.808167	236.500000
761.845276	241.300000
761.882385	249.500000
761.919434	238.300000
761.956604	257.900000
761.993713	234.500000
762.030762	247.100000
762.067871	238.700000
762.105042	237.300000
762.142090	248.400000
762.179199	241.800000
762.216309	246.100000
762.253418	257.900000
762.290527	251.000000
762.327637	247.800000
762.364685	237.600000
762.401794	249.500000
762.438904	247.000000
762.475952	241.900000
762.513062	239.600000
762.550110	241.600000
762.587219	256.900000
762.624329	256.300000
762.661377	251.900000
762.698486	247.600000
762.735596	249.300000
762.772644	242.500000
762.809753	241.300000
762.846863	248.800000
762.883911	252.600000
762.921021	253.000000
762.958069	251.000000
762.995117	259.600000
763.032227	259.000000
763.069336	252.300000
763.106323	247.400000
763.143433	245.200000
763.180481	254.600000
763.217590	255.600000
763.254639	251.900000
763.291687	254.000000
763.328735	263.100000
763.365845	255.600000
763.402893	254.300000
763.439941	259.300000
763.477051	261.800000
763.514038	262.000000
763.551147	256.500000
763.588196	256.400000
763.625244	257.100000
763.662292	263.700000
763.699402	268.600000
763.736389	267.100000
763.773499	273.800000
763.810486	267.500000
763.847534	266.500000
763.884644	264.100000
763.921631	261.100000
763.958679	276.200000
763.995728	265.600000
764.032776	275.900000
764.069824	261.200000
764.106873	269.000000
764.143860	277.900000
764.180969	268.400000
764.218018	277.100000
764.255005	268.100000
764.292053	272.500000
764.329102	283.700000
764.366089	282.100000
764.403137	281.000000
764.440125	269.800000
764.477173	273.600000
764.514221	277.500000
764.551208	274.200000
764.588257	269.200000
764.625305	280.200000
764.662292	286.700000
764.699341	290.500000
764.736389	282.100000
764.773376	298.400000
764.810425	284.300000
764.847473	294.100000
764.884399	287.000000
764.921448	295.600000
764.958435	293.600000
764.995483	281.900000
765.032532	301.400000
765.069458	285.500000
765.106506	286.700000
765.143555	286.100000
765.180481	291.000000
765.217529	298.700000
765.254578	282.100000
765.291504	292.000000
765.328552	290.900000
765.365540	286.700000
765.402527	303.000000
765.439575	286.600000
765.476501	283.400000
765.513550	285.200000
765.550537	290.100000
765.587463	297.600000
765.624512	291.700000
765.661499	283.400000
765.698486	299.400000
765.735474	291.000000
765.772461	292.900000
765.809448	300.800000
765.846436	298.700000
765.883423	303.200000
765.920410	297.900000
765.957397	294.400000
765.994385	299.700000
766.031311	307.700000
766.068359	302.600000
766.105286	303.400000
766.142273	309.800000
766.179260	305.300000
766.216187	297.700000
766.253174	294.900000
766.290161	304.100000
766.327148	306.900000
766.364136	307.000000
766.401123	323.600000
766.438049	302.100000
766.475037	316.400000
766.512024	314.400000
766.548950	327.000000
766.585937	321.900000
766.622864	318.900000
766.659790	315.800000
766.696777	305.600000
766.733704	325.600000
766.770691	315.100000
766.807678	329.600000
766.844604	325.500000
766.881531	324.500000
766.918518	333.000000
766.955444	331.700000
766.992432	326.500000
767.029358	330.000000
767.066284	334.000000
767.103271	331.600000
767.140198	359.400000
767.177124	348.400000
767.214050	338.300000
767.251038	341.000000
767.287964	337.200000
767.324890	335.500000
767.361816	341.500000
767.398743	348.100000
767.435730	344.400000
767.472595	348.300000
767.509583	355.500000
767.546509	339.900000
767.583374	346.700000
767.620361	343.100000
767.657288	349.600000
767.694214	350.800000
767.731140	349.100000
767.768066	350.400000
767.804993	357.900000
767.841919	347.900000
767.878845	356.600000
767.915710	365.000000
767.952698	357.600000
767.989563	359.700000
768.026489	362.400000
