Model Number: SPM-001-M   
Serial Number: 10090201
Firmware Version: 004.17.6
Exposure Time: 500000.000000us
Data Taken on: 10-03-2021 11:05:38.985
Wavelength	Amplitude
733.770752	0.000000
733.808716	0.000000
733.846619	0.000000
733.884583	0.000000
733.922546	0.000000
733.960449	0.000000
733.998413	0.000000
734.036377	0.000000
734.074219	0.000000
734.112183	0.000000
734.150085	0.000000
734.188049	0.000000
734.226013	0.000000
734.263916	0.000000
734.301819	0.000000
734.339783	0.000000
734.377686	0.000000
734.415588	0.000000
734.453552	0.000000
734.491455	0.000000
734.529419	0.000000
734.567322	0.000000
734.605225	0.000000
734.643127	0.000000
734.681091	0.000000
734.718994	0.000000
734.756897	0.000000
734.794800	0.000000
734.832703	0.000000
734.870667	0.000000
734.908508	0.000000
734.946472	0.000000
734.984375	0.000000
735.022278	0.000000
735.060181	0.000000
735.098083	0.000000
735.135986	0.000000
735.173889	0.000000
735.211792	0.000000
735.249695	0.000000
735.287598	0.000000
735.325439	0.000000
735.363403	0.000000
735.401306	0.000000
735.439148	0.000000
735.477051	0.000000
735.515015	0.000000
735.552856	0.000000
735.590759	0.000000
735.628662	0.000000
735.666504	0.000000
735.704407	0.000000
735.742310	0.000000
735.780212	0.000000
735.818115	0.000000
735.856018	0.000000
735.893860	0.000000
735.931763	0.000000
735.969604	0.000000
736.007507	0.000000
736.045410	0.000000
736.083252	0.000000
736.121094	0.000000
736.158997	0.000000
736.196838	0.000000
736.234741	0.000000
736.272644	0.000000
736.310486	0.000000
736.348389	0.000000
736.386230	0.000000
736.424072	0.000000
736.461975	0.000000
736.499878	0.000000
736.537720	0.000000
736.575562	0.000000
736.613403	0.000000
736.651306	0.000000
736.689148	0.000000
736.726990	0.000000
736.764893	0.000000
736.802734	0.000000
736.840576	0.000000
736.878418	0.000000
736.916321	0.000000
736.954102	0.000000
736.992004	0.000000
737.029846	0.000000
737.067688	0.000000
737.105530	0.000000
737.143372	0.000000
737.181213	0.000000
737.219116	0.000000
737.256897	0.000000
737.294739	0.000000
737.332642	0.000000
737.370422	0.000000
737.408325	0.000000
737.446167	0.000000
737.483948	0.000000
737.521790	0.000000
737.559692	0.000000
737.597473	0.000000
737.635315	0.000000
737.673157	0.000000
737.710999	0.000000
737.748840	0.000000
737.786621	0.000000
737.824463	0.000000
737.862305	0.000000
737.900085	0.000000
737.937927	0.000000
737.975769	0.000000
738.013550	0.000000
738.051392	0.000000
738.089233	0.000000
738.127014	0.000000
738.164856	0.000000
738.202698	0.000000
738.240479	0.000000
738.278320	0.000000
738.316162	0.000000
738.353943	0.000000
738.391785	0.000000
738.429565	0.000000
738.467407	0.000000
738.505188	0.000000
738.542969	0.000000
738.580811	0.000000
738.618652	0.000000
738.656372	0.000000
738.694214	0.000000
738.732056	0.000000
738.769836	0.000000
738.807617	0.000000
738.845459	0.000000
738.883240	0.000000
738.921021	0.000000
738.958862	0.000000
738.996582	0.000000
739.034424	0.000000
739.072205	0.000000
739.109985	0.000000
739.147827	0.000000
739.185547	0.000000
739.223389	0.000000
739.261169	0.000000
739.298889	0.000000
739.336731	0.000000
739.374512	0.000000
739.412292	0.000000
739.450073	0.000000
739.487854	0.000000
739.525635	0.000000
739.563416	0.000000
739.601135	0.000000
739.638977	0.000000
739.676758	0.000000
739.714478	0.000000
739.752258	0.000000
739.790100	0.000000
739.827820	0.000000
739.865601	0.000000
739.903381	0.000000
739.941101	0.000000
739.978882	197.400000
740.016724	190.900000
740.054443	197.600000
740.092224	189.500000
740.130005	188.900000
740.167725	191.100000
740.205505	189.600000
740.243225	200.300000
740.281006	195.000000
740.318787	186.100000
740.356506	199.800000
740.394287	197.800000
740.432068	188.900000
740.469727	185.600000
740.507507	197.600000
740.545288	192.600000
740.583008	196.000000
740.620789	192.400000
740.658569	185.100000
740.696228	192.300000
740.734009	199.200000
740.771790	179.900000
740.809509	197.500000
740.847229	187.800000
740.884949	190.700000
740.922729	185.000000
740.960449	191.500000
740.998169	187.200000
741.035950	189.600000
741.073669	195.100000
741.111389	194.100000
741.149170	201.900000
741.186890	202.300000
741.224609	195.900000
741.262329	194.500000
741.300110	202.100000
741.337769	188.800000
741.375549	187.000000
741.413208	194.800000
741.450989	188.400000
741.488708	189.900000
741.526367	191.300000
741.564148	196.300000
741.601868	197.700000
741.639526	193.200000
741.677307	193.900000
741.715027	194.300000
741.752686	188.700000
741.790466	199.600000
741.828186	196.300000
741.865845	188.000000
741.903564	184.400000
741.941345	192.800000
741.979004	189.100000
742.016724	195.500000
742.054382	194.600000
742.092102	198.100000
742.129822	186.000000
742.167480	191.100000
742.205200	192.900000
742.242920	194.000000
742.280640	197.900000
742.318359	188.700000
742.356079	191.000000
742.393738	196.800000
742.431396	193.000000
742.469116	195.800000
742.506775	184.200000
742.544495	195.400000
742.582214	198.200000
742.619873	191.200000
742.657593	200.600000
742.695251	197.600000
742.732971	192.900000
742.770630	194.500000
742.808289	194.000000
742.846008	193.000000
742.883728	196.400000
742.921326	192.600000
742.959045	190.200000
742.996765	193.600000
743.034424	192.700000
743.072083	190.900000
743.109802	192.800000
743.147400	185.900000
743.185120	193.500000
743.222839	194.300000
743.260437	198.000000
743.298157	196.400000
743.335754	184.800000
743.373474	193.600000
743.411133	185.700000
743.448792	193.300000
743.486450	192.600000
743.524170	186.500000
743.561768	192.800000
743.599487	199.800000
743.637146	203.500000
743.674744	190.900000
743.712463	189.500000
743.750122	195.100000
743.787720	194.500000
743.825439	190.400000
743.863037	191.100000
743.900696	193.300000
743.938416	216.600000
743.976013	192.900000
744.013672	201.200000
744.051331	198.400000
744.088928	201.100000
744.126587	200.800000
744.164307	193.800000
744.201904	189.800000
744.239563	195.700000
744.277222	197.600000
744.314819	191.900000
744.352478	200.300000
744.390137	195.000000
744.427734	195.700000
744.465393	189.900000
744.502991	189.400000
744.540649	196.300000
744.578308	195.600000
744.615906	187.200000
744.653564	183.100000
744.691223	197.400000
744.728821	186.300000
744.766418	192.700000
744.804077	196.100000
744.841675	190.000000
744.879333	185.600000
744.916992	192.100000
744.954529	191.300000
744.992187	199.500000
745.029785	192.000000
745.067444	191.000000
745.105042	194.400000
745.142639	197.300000
745.180298	202.200000
745.217896	192.400000
745.255493	191.600000
745.293152	198.300000
745.330750	195.400000
745.368347	202.600000
745.405945	195.500000
745.443604	194.300000
745.481140	196.900000
745.518799	192.100000
745.556396	196.800000
745.593994	198.200000
745.631592	191.500000
745.669189	189.000000
745.706787	195.100000
745.744385	189.600000
745.781982	195.500000
745.819580	192.800000
745.857178	191.700000
745.894775	195.900000
745.932373	194.000000
745.969971	194.900000
746.007568	184.000000
746.045166	204.400000
746.082764	198.400000
746.120300	197.500000
746.157898	197.500000
746.195557	194.200000
746.233093	186.600000
746.270691	197.500000
746.308228	195.000000
746.345825	199.900000
746.383423	197.100000
746.420959	188.700000
746.458557	190.500000
746.496155	189.300000
746.533691	192.100000
746.571289	188.100000
746.608887	193.800000
746.646423	194.600000
746.684021	194.400000
746.721619	190.300000
746.759155	194.200000
746.796753	186.600000
746.834351	186.900000
746.871826	189.100000
746.909424	201.100000
746.946960	194.500000
746.984558	193.000000
747.022156	190.600000
747.059631	200.200000
747.097229	195.200000
747.134827	191.900000
747.172363	200.700000
747.209900	195.600000
747.247498	188.100000
747.285034	202.400000
747.322571	200.300000
747.360168	192.900000
747.397644	184.000000
747.435242	197.900000
747.472778	202.000000
747.510315	191.300000
747.547913	190.300000
747.585388	201.700000
747.622925	192.500000
747.660522	185.500000
747.697998	188.300000
747.735596	193.200000
747.773132	189.700000
747.810669	194.300000
747.848206	196.200000
747.885742	189.300000
747.923279	186.600000
747.960815	197.800000
747.998352	193.400000
748.035889	198.600000
748.073425	198.900000
748.110901	191.300000
748.148437	188.800000
748.185974	193.700000
748.223511	202.200000
748.261047	194.900000
748.298584	195.400000
748.336060	192.800000
748.373596	196.600000
748.411133	211.400000
748.448608	189.300000
748.486145	198.000000
748.523682	202.600000
748.561218	198.800000
748.598755	195.200000
748.636292	196.800000
748.673706	192.100000
748.711243	198.800000
748.748718	195.600000
748.786255	193.100000
748.823792	193.000000
748.861267	188.000000
748.898804	196.200000
748.936340	196.100000
748.973816	192.400000
749.011292	198.700000
749.048828	195.700000
749.086304	195.000000
749.123840	205.100000
749.161316	188.300000
749.198792	204.000000
749.236328	199.100000
749.273743	195.000000
749.311279	191.500000
749.348816	195.500000
749.386230	194.100000
749.423767	181.800000
749.461304	195.900000
749.498718	195.000000
749.536255	200.600000
749.573730	206.400000
749.611206	200.000000
749.648682	192.600000
749.686218	193.400000
749.723633	199.300000
749.761169	191.500000
749.798645	190.300000
749.836060	191.800000
749.873596	189.800000
749.911011	191.100000
749.948547	201.100000
749.986023	193.700000
750.023437	192.800000
750.060913	186.700000
750.098450	187.100000
750.135864	191.600000
750.173340	194.900000
750.210815	198.200000
750.248291	188.500000
750.285767	194.500000
750.323242	200.900000
750.360657	195.800000
750.398132	188.400000
750.435608	197.800000
750.473022	189.600000
750.510498	189.900000
750.547974	188.500000
750.585449	191.100000
750.622925	181.800000
750.660339	203.700000
750.697815	193.500000
750.735291	192.400000
750.772644	193.600000
750.810120	194.400000
750.847595	195.200000
750.885010	190.100000
750.922485	202.600000
750.959961	193.600000
750.997375	199.800000
751.034851	197.600000
751.072266	197.100000
751.109680	187.900000
751.147156	199.200000
751.184570	197.000000
751.221985	194.600000
751.259460	184.400000
751.296875	192.200000
751.334290	194.900000
751.371765	198.200000
751.409180	198.800000
751.446594	199.800000
751.484070	196.500000
751.521423	195.200000
751.558899	195.100000
751.596375	200.900000
751.633728	200.900000
751.671204	208.300000
751.708618	189.700000
751.746033	194.300000
751.783447	188.500000
751.820801	190.300000
751.858276	196.000000
751.895691	194.400000
751.933105	191.300000
751.970520	188.200000
752.007935	192.200000
752.045349	198.400000
752.082764	194.000000
752.120178	192.700000
752.157532	189.000000
752.195007	192.900000
752.232422	197.000000
752.269775	199.300000
752.307190	196.700000
752.344543	188.500000
752.382019	191.300000
752.419434	193.100000
752.456787	194.600000
752.494202	198.800000
752.531616	195.700000
752.568970	198.400000
752.606384	194.400000
752.643799	196.700000
752.681152	203.300000
752.718567	198.400000
752.755981	184.500000
752.793335	198.100000
752.830750	185.300000
752.868164	201.800000
752.905518	189.100000
752.942932	198.100000
752.980225	188.300000
753.017639	200.600000
753.055054	190.000000
753.092407	196.900000
753.129822	199.500000
753.167175	203.900000
753.204529	193.200000
753.241943	191.100000
753.279358	187.700000
753.316650	198.100000
753.354065	196.500000
753.391479	197.800000
753.428772	202.600000
753.466187	197.700000
753.503479	186.400000
753.540894	192.600000
753.578308	189.700000
753.615601	187.200000
753.653015	193.300000
753.690369	191.300000
753.727722	188.900000
753.765076	187.200000
753.802490	189.300000
753.839783	184.300000
753.877136	191.500000
753.914551	208.600000
753.951843	189.000000
753.989258	197.900000
754.026611	195.100000
754.063904	195.800000
754.101257	188.600000
754.138611	185.400000
754.175964	195.500000
754.213318	205.800000
754.250610	187.500000
754.288025	191.100000
754.325378	189.200000
754.362671	198.500000
754.400024	192.100000
754.437378	202.000000
754.474670	204.300000
754.512085	189.700000
754.549438	197.000000
754.586731	191.100000
754.624084	193.200000
754.661438	188.000000
754.698730	202.100000
754.736084	190.600000
754.773376	194.000000
754.810730	197.400000
754.848083	193.500000
754.885315	196.500000
754.922668	186.000000
754.960022	188.300000
754.997314	199.400000
755.034668	195.200000
755.072021	196.200000
755.109253	192.500000
755.146606	202.400000
755.183960	193.500000
755.221252	204.500000
755.258545	201.100000
755.295898	201.300000
755.333191	203.300000
755.370544	199.600000
755.407776	194.700000
755.445129	195.800000
755.482422	202.700000
755.519714	193.000000
755.557068	189.300000
755.594360	187.200000
755.631653	201.000000
755.668945	204.600000
755.706299	199.900000
755.743530	208.400000
755.780884	205.300000
755.818176	202.900000
755.855408	202.500000
755.892761	199.100000
755.930054	200.100000
755.967346	201.100000
756.004639	203.000000
756.041870	198.900000
756.079224	204.900000
756.116516	195.200000
756.153748	203.800000
756.191040	206.200000
756.228394	203.800000
756.265625	195.000000
756.302917	199.500000
756.340210	195.400000
756.377441	206.100000
756.414795	207.200000
756.452087	200.900000
756.489319	192.900000
756.526611	204.100000
756.563843	200.500000
756.601135	212.900000
756.638428	210.000000
756.675659	201.600000
756.712952	206.500000
756.750244	206.200000
756.787476	202.100000
756.824768	210.600000
756.862061	199.200000
756.899292	249.000000
756.936584	206.600000
756.973816	215.300000
757.011047	215.500000
757.048340	202.600000
757.085632	202.500000
757.122864	218.600000
757.160156	201.500000
757.197327	206.700000
757.234619	209.600000
757.271912	204.200000
757.309082	210.300000
757.346375	200.800000
757.383667	212.600000
757.420837	206.100000
757.458130	207.300000
757.495422	203.100000
757.532593	209.200000
757.569885	196.800000
757.607117	202.200000
757.644348	207.300000
757.681580	220.300000
757.718811	193.800000
757.756042	208.200000
757.793335	203.000000
757.830505	213.900000
757.867798	204.200000
757.905029	203.500000
757.942200	208.600000
757.979492	204.100000
758.016724	204.800000
758.053894	206.200000
758.091187	226.000000
758.128418	210.500000
758.165588	206.200000
758.202820	220.900000
758.240112	210.300000
758.277283	219.500000
758.314514	209.200000
758.351685	207.700000
758.388916	218.700000
758.426147	216.800000
758.463379	219.600000
758.500610	213.500000
758.537842	210.100000
758.575012	218.200000
758.612244	206.300000
758.649475	225.100000
758.686646	203.900000
758.723877	217.700000
758.761108	219.000000
758.798279	211.100000
758.835510	214.600000
758.872742	219.900000
758.909851	214.500000
758.947083	215.400000
758.984253	215.400000
759.021484	219.200000
759.058716	217.000000
759.095886	218.900000
759.133057	214.200000
759.170288	217.900000
759.207458	210.900000
759.244690	227.500000
759.281860	225.700000
759.319031	214.000000
759.356262	213.900000
759.393433	212.600000
759.430603	214.800000
759.467773	215.000000
759.505005	222.600000
759.542175	220.900000
759.579346	216.300000
759.616516	217.300000
759.653687	218.400000
759.690918	211.800000
759.728027	219.600000
759.765259	218.700000
759.802429	220.200000
759.839539	217.300000
759.876770	224.200000
759.913940	225.400000
759.951111	221.400000
759.988281	218.000000
760.025452	216.900000
760.062561	212.200000
760.099792	228.100000
760.136963	221.100000
760.174072	219.000000
760.211243	213.800000
760.248413	216.100000
760.285583	214.600000
760.322754	231.900000
760.359863	226.500000
760.397034	227.300000
760.434204	219.200000
760.471375	222.100000
760.508545	218.400000
760.545715	221.400000
760.582825	216.300000
760.619995	226.400000
760.657166	214.200000
760.694275	227.200000
760.731445	224.500000
760.768555	224.000000
760.805664	226.300000
760.842834	223.800000
760.879944	227.100000
760.917114	225.600000
760.954285	224.000000
760.991394	217.900000
761.028564	232.000000
761.065674	229.100000
761.102783	221.900000
761.139954	231.100000
761.177124	231.300000
761.214172	232.900000
761.251343	226.900000
761.288452	228.000000
761.325562	233.800000
761.362732	223.500000
761.399841	227.700000
761.436951	231.100000
761.474121	227.800000
761.511169	229.800000
761.548340	236.600000
761.585449	235.300000
761.622559	237.800000
761.659668	233.000000
761.696838	239.700000
761.733887	236.400000
761.771057	233.800000
761.808167	234.200000
761.845276	241.300000
761.882385	247.900000
761.919434	238.100000
761.956604	258.000000
761.993713	234.400000
762.030762	245.600000
762.067871	238.200000
762.105042	237.400000
762.142090	246.500000
762.179199	243.200000
762.216309	245.800000
762.253418	258.700000
762.290527	250.700000
762.327637	248.000000
762.364685	236.800000
762.401794	248.300000
762.438904	246.800000
762.475952	241.200000
762.513062	241.200000
762.550110	241.800000
762.587219	256.000000
762.624329	257.200000
762.661377	250.400000
762.698486	250.200000
762.735596	247.200000
762.772644	243.000000
762.809753	240.900000
762.846863	249.300000
762.883911	252.600000
762.921021	255.700000
762.958069	249.700000
762.995117	260.900000
763.032227	260.100000
763.069336	252.100000
763.106323	247.800000
763.143433	246.600000
763.180481	252.300000
763.217590	255.600000
763.254639	249.800000
763.291687	254.000000
763.328735	261.500000
763.365845	255.000000
763.402893	255.000000
763.439941	258.900000
763.477051	261.100000
763.514038	263.000000
763.551147	254.700000
763.588196	258.600000
763.625244	255.900000
763.662292	266.700000
763.699402	268.900000
763.736389	265.400000
763.773499	274.000000
763.810486	269.400000
763.847534	264.400000
763.884644	268.100000
763.921631	262.100000
763.958679	276.500000
763.995728	263.200000
764.032776	275.200000
764.069824	260.700000
764.106873	270.800000
764.143860	277.300000
764.180969	268.600000
764.218018	279.200000
764.255005	269.200000
764.292053	272.400000
764.329102	282.800000
764.366089	282.500000
764.403137	279.700000
764.440125	268.600000
764.477173	272.800000
764.514221	275.900000
764.551208	273.400000
764.588257	271.700000
764.625305	281.700000
764.662292	287.800000
764.699341	289.700000
764.736389	283.000000
764.773376	298.000000
764.810425	286.100000
764.847473	292.900000
764.884399	287.100000
764.921448	295.000000
764.958435	294.200000
764.995483	282.900000
765.032532	300.100000
765.069458	285.500000
765.106506	286.900000
765.143555	285.200000
765.180481	291.300000
765.217529	298.500000
765.254578	285.300000
765.291504	291.600000
765.328552	291.900000
765.365540	286.500000
765.402527	302.800000
765.439575	286.500000
765.476501	283.900000
765.513550	285.400000
765.550537	292.600000
765.587463	297.800000
765.624512	289.000000
765.661499	280.700000
765.698486	299.100000
765.735474	290.000000
765.772461	294.000000
765.809448	302.100000
765.846436	299.800000
765.883423	303.400000
765.920410	297.900000
765.957397	293.900000
765.994385	298.500000
766.031311	306.000000
766.068359	299.100000
766.105286	303.600000
766.142273	308.000000
766.179260	304.500000
766.216187	296.700000
766.253174	294.000000
766.290161	303.000000
766.327148	307.800000
766.364136	308.800000
766.401123	325.300000
766.438049	301.500000
766.475037	318.100000
766.512024	311.800000
766.548950	328.400000
766.585937	322.100000
766.622864	320.000000
766.659790	314.900000
766.696777	307.200000
766.733704	323.400000
766.770691	313.400000
766.807678	328.700000
766.844604	324.000000
766.881531	323.700000
766.918518	334.400000
766.955444	334.500000
766.992432	330.000000
767.029358	331.900000
767.066284	337.000000
767.103271	330.700000
767.140198	360.300000
767.177124	349.300000
767.214050	341.700000
767.251038	340.300000
767.287964	340.600000
767.324890	335.900000
767.361816	342.900000
767.398743	349.000000
767.435730	345.100000
767.472595	348.700000
767.509583	354.100000
767.546509	343.000000
767.583374	350.200000
767.620361	342.700000
767.657288	350.300000
767.694214	350.900000
767.731140	349.600000
767.768066	350.500000
767.804993	357.300000
767.841919	347.100000
767.878845	356.500000
767.915710	365.200000
767.952698	357.700000
767.989563	359.000000
768.026489	362.500000
