Model Number: SPM-002-B   
Serial Number: 70087108
Firmware Version: 004.15.4
Exposure Time: 100000.000000us
Data Taken on: 15-01-2021 17:47:14.712
Wavelength	Amplitude
221.570786	0.000000
221.663406	0.000000
221.756027	0.000000
221.848648	0.000000
221.941269	0.000000
222.033905	0.000000
222.126526	0.000000
222.219162	0.000000
222.311798	0.000000
222.404419	0.000000
222.497055	0.000000
222.589676	0.000000
222.682312	0.000000
222.774933	0.000000
222.867569	0.000000
222.960205	0.000000
223.052841	0.000000
223.145462	0.000000
223.238098	0.000000
223.330734	0.000000
223.423386	0.000000
223.516022	0.000000
223.608658	0.000000
223.701309	0.000000
223.793945	0.000000
223.886581	0.000000
223.979218	0.000000
224.071869	0.000000
224.164505	0.000000
224.257156	0.000000
224.349792	0.000000
224.442444	0.000000
224.535095	0.000000
224.627747	0.000000
224.720398	0.000000
224.813034	0.000000
224.905685	0.000000
224.998337	154.020000
225.090988	153.760000
225.183640	153.640000
225.276291	153.380000
225.368942	153.560000
225.461594	154.400000
225.554245	154.480000
225.646912	154.480000
225.739578	155.160000
225.832230	155.500000
225.924896	154.600000
226.017548	155.040000
226.110199	156.000000
226.202866	155.220000
226.295532	154.920000
226.388184	155.020000
226.480850	154.120000
226.573517	153.380000
226.666168	153.740000
226.758835	154.060000
226.851501	154.420000
226.944183	154.800000
227.036850	154.140000
227.129517	154.240000
227.222183	154.500000
227.314850	154.620000
227.407516	154.760000
227.500198	156.060000
227.592865	155.360000
227.685532	154.580000
227.778214	154.220000
227.870880	154.660000
227.963562	154.520000
228.056229	155.320000
228.148926	155.580000
228.241592	156.500000
228.334274	156.060000
228.426956	155.800000
228.519638	155.820000
228.612305	155.480000
228.704987	154.900000
228.797668	155.000000
228.890350	154.800000
228.983032	154.220000
229.075714	154.980000
229.168396	154.700000
229.261108	154.080000
229.353790	153.940000
229.446472	154.520000
229.539169	154.160000
229.631851	153.940000
229.724533	154.580000
229.817230	154.880000
229.909912	155.560000
230.002609	155.280000
230.095306	155.580000
230.187988	155.500000
230.280685	155.280000
230.373383	153.820000
230.466095	153.880000
230.558792	153.840000
230.651474	153.840000
230.744171	153.820000
230.836868	154.020000
230.929581	154.220000
231.022278	154.340000
231.114975	154.200000
231.207672	153.980000
231.300369	154.340000
231.393082	154.300000
231.485779	154.280000
231.578506	154.240000
231.671204	154.360000
231.763916	154.280000
231.856613	154.120000
231.949326	154.140000
232.042023	154.000000
232.134735	154.040000
232.227448	153.800000
232.320160	154.240000
232.412872	154.140000
232.505585	155.140000
232.598297	155.560000
232.691010	155.320000
232.783722	155.260000
232.876450	155.940000
232.969162	155.120000
233.061874	154.340000
233.154587	154.400000
233.247314	153.980000
233.340027	153.160000
233.432739	153.660000
233.525467	153.660000
233.618179	154.220000
233.710907	154.160000
233.803635	154.700000
233.896347	154.140000
233.989090	155.240000
234.081818	155.040000
234.174545	155.120000
234.267258	154.620000
234.359985	154.860000
234.452713	154.200000
234.545441	154.020000
234.638168	154.020000
234.730896	154.680000
234.823639	154.420000
234.916367	155.020000
235.009094	155.080000
235.101822	155.140000
235.194580	155.060000
235.287308	155.360000
235.380051	154.480000
235.472778	154.660000
235.565521	155.080000
235.658249	154.420000
235.750992	154.260000
235.843719	154.360000
235.936462	154.640000
236.029205	153.980000
236.121948	153.420000
236.214691	153.860000
236.307449	154.460000
236.400192	153.600000
236.492935	153.620000
236.585678	154.600000
236.678421	154.420000
236.771164	154.200000
236.863907	155.180000
236.956665	155.700000
237.049408	157.260000
237.142151	156.820000
237.234909	157.460000
237.327652	157.260000
237.420410	156.880000
237.513153	155.440000
237.605927	155.620000
237.698669	154.820000
237.791428	153.900000
237.884186	154.420000
237.976944	153.920000
238.069702	154.160000
238.162445	153.540000
238.255203	153.840000
238.347961	153.840000
238.440720	153.780000
238.533478	153.720000
238.626266	153.880000
238.719025	154.360000
238.811783	154.000000
238.904541	153.860000
238.997314	153.680000
239.090073	153.520000
239.182831	153.640000
239.275604	154.640000
239.368362	154.660000
239.461136	154.760000
239.553909	155.160000
239.646667	155.000000
239.739441	154.040000
239.832214	154.680000
239.925003	154.940000
240.017761	155.560000
240.110535	156.120000
240.203308	155.900000
240.296082	155.820000
240.388855	155.500000
240.481628	155.340000
240.574417	155.260000
240.667191	155.420000
240.759964	154.940000
240.852737	155.000000
240.945526	154.600000
241.038315	153.980000
241.131088	154.140000
241.223877	154.660000
241.316650	154.280000
241.409439	154.560000
241.502228	154.120000
241.595001	154.660000
241.687790	154.200000
241.780579	154.160000
241.873367	154.320000
241.966141	154.920000
242.058929	153.980000
242.151718	154.440000
242.244507	155.060000
242.337311	154.120000
242.430099	154.840000
242.522903	155.360000
242.615692	154.820000
242.708481	154.780000
242.801270	155.400000
242.894073	154.920000
242.986862	154.840000
243.079651	155.620000
243.172455	155.300000
243.265244	155.540000
243.358063	154.700000
243.450867	155.180000
243.543655	154.760000
243.636459	154.760000
243.729263	155.140000
243.822067	155.900000
243.914856	155.820000
244.007660	155.900000
244.100464	156.220000
244.193268	155.580000
244.286072	155.380000
244.378876	154.820000
244.471680	154.500000
244.564499	154.520000
244.657318	155.240000
244.750122	155.240000
244.842926	154.840000
244.935745	155.620000
245.028549	155.260000
245.121368	154.580000
245.214172	154.560000
245.306992	155.200000
245.399796	154.360000
245.492615	154.380000
245.585434	154.080000
245.678253	154.160000
245.771072	153.980000
245.863892	154.560000
245.956711	154.460000
246.049530	154.620000
246.142349	154.360000
246.235168	154.400000
246.327988	154.620000
246.420807	154.620000
246.513626	154.640000
246.606445	154.560000
246.699280	154.460000
246.792099	154.100000
246.884918	153.900000
246.977753	153.560000
247.070587	153.800000
247.163422	153.940000
247.256241	154.040000
247.349075	154.540000
247.441895	155.020000
247.534729	155.120000
247.627563	154.940000
247.720383	155.280000
247.813217	155.060000
247.906052	154.720000
247.998886	154.840000
248.091736	155.000000
248.184570	154.520000
248.277405	154.600000
248.370239	155.540000
248.463074	156.220000
248.555908	156.440000
248.648743	156.500000
248.741592	156.640000
248.834427	155.780000
248.927261	154.860000
249.020111	154.880000
249.112946	155.460000
249.205795	154.700000
249.298630	155.220000
249.391495	154.820000
249.484344	154.400000
249.577179	154.120000
249.670029	154.700000
249.762878	154.820000
249.855728	155.280000
249.948563	155.420000
250.041412	154.580000
250.134262	154.720000
250.227112	154.640000
250.319962	154.600000
250.412827	154.620000
250.505692	154.440000
250.598541	154.400000
250.691391	153.840000
250.784241	154.000000
250.877106	154.240000
250.969955	154.700000
251.062805	155.240000
251.155670	155.900000
251.248520	155.640000
251.341385	156.100000
251.434235	155.860000
251.527100	155.280000
251.619965	154.940000
251.712814	155.800000
251.805695	155.220000
251.898560	155.440000
251.991425	155.880000
252.084290	155.860000
252.177155	155.000000
252.270020	154.860000
252.362885	154.680000
252.455750	154.580000
252.548615	154.360000
252.641479	154.360000
252.734360	154.260000
252.827240	154.320000
252.920105	154.160000
253.012970	154.020000
253.105850	154.060000
253.198715	153.840000
253.291595	154.060000
253.384460	153.720000
253.477341	153.960000
253.570221	154.000000
253.663086	154.020000
253.755966	155.040000
253.848846	155.360000
253.941727	155.540000
254.034592	155.600000
254.127472	155.280000
254.220367	154.680000
254.313248	154.700000
254.406128	154.100000
254.499008	154.280000
254.591904	155.340000
254.684784	155.440000
254.777664	155.260000
254.870544	155.420000
254.963440	155.400000
255.056335	155.200000
255.149216	154.800000
255.242111	155.400000
255.334991	155.780000
255.427887	155.520000
255.520767	155.540000
255.613663	155.700000
255.706558	154.860000
255.799438	154.660000
255.892334	154.560000
255.985229	154.280000
256.078125	154.160000
256.171021	154.400000
256.263916	154.780000
256.356812	155.120000
256.449707	155.280000
256.542603	155.100000
256.635498	155.720000
256.728394	155.620000
256.821289	155.380000
256.914215	155.660000
257.007080	155.800000
257.100006	155.580000
257.192932	155.940000
257.285828	156.260000
257.378723	155.560000
257.471619	155.560000
257.564545	155.120000
257.657440	155.260000
257.750336	155.280000
257.843262	155.200000
257.936157	156.520000
258.029053	156.880000
258.121979	156.480000
258.214874	155.980000
258.307800	155.980000
258.400696	154.500000
258.493622	154.280000
258.586517	153.560000
258.679443	154.220000
258.772339	154.120000
258.865265	153.660000
258.958160	153.320000
259.051086	154.100000
259.144012	153.660000
259.236938	154.420000
259.329834	154.740000
259.422791	154.400000
259.515717	153.640000
259.608612	153.440000
259.701538	153.360000
259.794464	153.420000
259.887390	153.700000
259.980316	154.100000
260.073212	154.060000
260.166138	153.200000
260.259064	153.740000
260.351990	154.280000
260.444916	154.220000
260.537842	154.640000
260.630768	155.300000
260.723694	154.740000
260.816620	154.740000
260.909546	154.620000
261.002472	154.200000
261.095398	154.120000
261.188354	154.380000
261.281281	153.760000
261.374207	153.880000
261.467133	154.880000
261.560089	154.900000
261.653015	154.700000
261.745972	155.620000
261.838867	156.220000
261.931824	156.000000
262.024780	155.320000
262.117706	155.320000
262.210663	155.160000
262.303589	154.580000
262.396515	154.400000
262.489471	155.740000
262.582397	155.680000
262.675354	155.020000
262.768280	155.180000
262.861237	155.060000
262.954163	154.640000
263.047119	154.940000
263.140045	155.000000
263.233002	154.860000
263.325958	154.720000
263.418884	154.220000
263.511841	154.040000
263.604797	154.080000
263.697723	154.100000
263.790680	154.060000
263.883636	154.580000
263.976593	154.700000
264.069550	154.860000
264.162476	154.700000
264.255463	154.880000
264.348419	154.580000
264.441376	154.780000
264.534332	154.220000
264.627289	154.340000
264.720245	154.600000
264.813202	154.220000
264.906158	154.100000
264.999115	155.100000
265.092072	155.000000
265.185028	155.300000
265.277985	155.840000
265.370941	155.480000
265.463898	155.020000
265.556854	154.880000
265.649811	153.900000
265.742798	153.780000
265.835754	154.200000
265.928711	154.560000
266.021667	154.760000
266.114655	155.160000
266.207611	155.380000
266.300568	154.640000
266.393585	154.000000
266.486511	154.160000
266.579498	153.480000
266.672485	153.140000
266.765442	153.100000
266.858429	153.600000
266.951385	153.260000
267.044342	153.760000
267.137329	153.780000
267.230316	154.400000
267.323273	153.980000
267.416260	154.440000
267.509216	154.320000
267.602203	154.120000
267.695160	154.420000
267.788147	154.360000
267.881134	154.100000
267.974091	154.180000
268.067078	154.400000
268.160065	154.100000
268.253052	154.080000
268.346008	154.120000
268.438995	153.880000
268.531982	153.680000
268.624969	153.540000
268.717987	154.320000
268.810944	154.320000
268.903961	154.540000
268.996948	154.380000
269.089905	154.740000
269.182892	154.240000
269.275879	154.680000
269.368866	154.240000
269.461853	154.340000
269.554871	154.240000
269.647858	154.320000
269.740845	154.060000
269.833832	154.780000
269.926819	154.780000
270.019806	154.840000
270.112793	154.480000
270.205811	154.480000
270.298798	154.320000
270.391785	154.940000
270.484772	154.540000
270.577789	154.520000
270.670776	154.060000
270.763763	153.760000
270.856750	153.820000
270.949768	153.780000
271.042786	154.180000
271.135773	154.520000
271.228790	154.980000
271.321808	154.200000
271.414795	154.040000
271.507782	153.800000
271.600800	153.420000
271.693817	153.100000
271.786804	153.600000
271.879822	154.140000
271.972809	154.060000
272.065826	154.820000
272.158844	154.540000
272.251831	155.420000
272.344849	155.340000
272.437866	155.380000
272.530853	155.300000
272.623871	155.600000
272.716888	154.280000
272.809906	154.580000
272.902893	154.480000
272.995911	154.040000
273.088928	154.080000
273.181946	154.440000
273.274963	153.820000
273.367981	154.020000
273.460999	154.060000
273.554047	154.340000
273.647003	154.780000
273.740051	155.280000
273.833069	155.560000
273.926086	155.940000
274.019135	155.720000
274.112152	155.200000
274.205170	155.020000
274.298187	155.260000
274.391205	154.640000
274.484222	154.700000
274.577240	154.820000
274.670258	154.860000
274.763306	154.520000
274.856323	155.040000
274.949341	155.080000
275.042358	155.480000
275.135406	155.060000
275.228424	155.040000
275.321442	154.880000
275.414490	154.420000
275.507507	154.680000
275.600525	155.220000
275.693573	154.940000
275.786591	154.460000
275.879669	154.900000
275.972656	154.240000
276.065735	153.940000
276.158752	154.520000
276.251801	155.620000
276.344818	155.800000
276.437866	155.980000
276.530884	155.800000
276.623932	155.160000
276.716980	154.880000
276.809998	154.680000
276.903046	154.420000
276.996094	155.360000
277.089111	156.020000
277.182159	156.460000
277.275208	155.920000
277.368256	156.160000
277.461304	155.700000
277.554321	154.920000
277.647369	154.440000
277.740417	154.840000
277.833466	154.640000
277.926514	154.540000
278.019562	155.120000
278.112610	154.480000
278.205688	154.560000
278.298706	154.460000
278.391785	154.320000
278.484833	153.860000
278.577881	153.880000
278.670929	154.300000
278.763977	154.480000
278.857025	154.740000
278.950073	154.820000
279.043121	154.840000
279.136169	154.400000
279.229248	154.240000
279.322296	154.200000
279.415344	154.300000
279.508392	154.440000
279.601440	154.520000
279.694519	154.360000
279.787567	154.040000
279.880615	153.600000
279.973694	153.660000
280.066742	153.780000
280.159790	154.160000
280.252869	153.840000
280.345917	154.480000
280.438995	154.220000
280.532074	153.940000
280.625122	154.100000
280.718201	155.120000
280.811279	154.740000
280.904327	155.060000
280.997406	155.340000
281.090454	155.180000
281.183533	154.600000
281.276581	154.680000
281.369659	154.460000
281.462738	154.760000
281.555786	154.740000
281.648865	154.760000
281.741943	154.760000
281.835022	155.140000
281.928070	154.480000
282.021149	154.220000
282.114227	154.120000
282.207306	154.240000
282.300385	154.780000
282.393433	155.060000
282.486511	155.420000
282.579590	156.140000
282.672668	156.600000
282.765747	155.760000
282.858856	155.560000
282.951904	155.360000
283.045013	155.200000
283.138062	155.060000
283.231171	155.180000
283.324249	155.560000
283.417328	155.980000
283.510406	155.600000
283.603485	155.440000
283.696564	155.440000
283.789642	155.120000
283.882751	154.560000
283.975830	155.020000
284.068909	154.560000
284.161987	155.100000
284.255066	154.760000
284.348175	155.140000
284.441254	154.640000
284.534332	155.340000
284.627441	155.080000
284.720520	155.160000
284.813599	155.280000
284.906708	155.220000
284.999786	154.700000
285.092896	154.240000
285.185974	155.460000
285.279053	154.520000
285.372192	154.920000
285.465240	155.540000
285.558380	155.540000
285.651459	154.820000
285.744568	156.320000
285.837677	155.700000
285.930756	155.780000
286.023865	155.880000
286.116943	155.360000
286.210052	155.080000
286.303162	154.920000
286.396240	154.500000
286.489349	154.520000
286.582458	154.860000
286.675568	154.080000
286.768646	154.560000
286.861755	154.700000
286.954865	155.440000
287.047974	155.060000
287.141083	155.240000
287.234161	155.060000
287.327271	154.700000
287.420380	154.760000
287.513519	154.800000
287.606598	154.980000
287.699738	155.080000
287.792816	154.920000
287.885956	154.380000
287.979034	154.400000
288.072174	154.320000
288.165283	154.460000
288.258392	154.880000
288.351501	154.280000
288.444611	154.740000
288.537720	155.160000
288.630859	154.960000
288.723969	155.400000
288.817078	155.980000
288.910187	155.780000
289.003296	155.100000
289.096436	155.060000
289.189545	154.640000
289.282654	154.560000
289.375763	154.980000
289.468903	155.620000
289.562012	155.860000
289.655121	155.560000
289.748260	155.700000
289.841400	155.880000
289.934509	155.360000
290.027649	155.460000
290.120728	155.320000
290.213898	155.560000
290.306976	154.900000
290.400146	155.260000
290.493256	154.460000
290.586395	154.900000
290.679535	154.780000
290.772644	154.900000
290.865784	154.040000
290.958893	154.620000
291.052032	153.980000
291.145172	153.780000
291.238281	153.500000
291.331421	153.740000
291.424561	154.240000
291.517670	154.700000
291.610809	154.720000
291.703949	154.540000
291.797089	155.140000
291.890228	154.660000
291.983337	154.260000
292.076477	154.140000
292.169617	154.800000
292.262756	154.440000
292.355927	154.280000
292.449036	154.500000
292.542206	154.480000
292.635315	154.440000
292.728485	154.920000
292.821625	154.280000
292.914764	155.460000
293.007904	155.700000
293.101044	155.600000
293.194183	155.140000
293.287323	155.780000
293.380463	154.940000
293.473602	154.640000
293.566742	154.800000
293.659882	155.120000
293.753021	155.460000
293.846191	155.220000
293.939331	154.940000
294.032471	154.640000
294.125610	154.460000
294.218781	154.600000
294.311920	155.000000
294.405060	155.340000
294.498230	155.600000
294.591370	155.480000
294.684540	154.820000
294.777679	154.360000
294.870850	154.500000
294.963959	154.120000
295.057159	154.080000
295.150299	154.540000
295.243469	154.480000
295.336609	153.880000
295.429779	154.080000
295.522919	154.420000
295.616089	154.180000
295.709229	154.840000
295.802399	155.300000
295.895569	154.980000
295.988708	154.840000
296.081879	155.140000
296.175018	154.540000
296.268188	154.400000
296.361359	155.100000
296.454529	155.100000
296.547668	155.000000
296.640839	155.280000
296.734009	155.020000
296.827179	155.180000
296.920319	155.640000
297.013519	155.040000
297.106659	155.080000
297.199860	155.260000
297.292999	154.600000
297.386200	153.900000
297.479309	154.120000
297.572510	153.900000
297.665680	153.820000
297.758850	154.220000
297.852020	154.220000
297.945190	154.340000
298.038361	154.080000
298.131531	155.220000
298.224701	154.840000
298.317871	154.640000
298.411072	154.180000
298.504242	154.180000
298.597412	153.300000
298.690582	153.660000
298.783752	153.900000
298.876923	154.500000
298.970093	154.800000
299.063293	155.480000
299.156464	155.660000
299.249634	155.860000
299.342834	156.080000
299.436005	156.440000
299.529205	155.740000
299.622345	155.580000
299.715576	155.000000
299.808716	154.640000
299.901917	154.300000
299.995117	154.660000
300.088287	154.700000
300.181488	155.040000
300.274658	154.780000
300.367828	155.080000
300.461029	155.200000
300.554199	155.420000
300.647400	155.320000
300.740601	156.020000
300.833771	155.740000
300.926971	155.660000
301.020142	155.100000
301.113342	155.000000
301.206512	155.100000
301.299713	155.420000
301.392914	155.220000
301.486084	155.860000
301.579285	156.140000
301.672516	156.260000
301.765686	155.820000
301.858887	155.880000
301.952057	155.440000
302.045288	155.460000
302.138458	154.880000
302.231659	154.700000
302.324860	154.360000
302.418060	154.300000
302.511261	154.200000
302.604462	154.540000
302.697662	154.740000
302.790863	154.760000
302.884064	154.100000
302.977264	154.200000
303.070465	154.180000
303.163666	154.720000
303.256866	155.260000
303.350067	155.840000
303.443268	155.720000
303.536469	155.760000
303.629669	154.920000
303.722870	154.980000
303.816071	154.680000
303.909271	154.600000
304.002472	153.880000
304.095673	153.940000
304.188934	153.080000
304.282104	154.060000
304.375336	154.320000
304.468506	154.500000
304.561768	154.480000
304.654968	155.260000
304.748169	154.440000
304.841370	154.080000
304.934601	154.420000
305.027802	154.160000
305.121002	153.440000
305.214233	153.720000
305.307434	153.800000
305.400665	154.400000
305.493866	154.660000
