Model Number: SPM-002-B   
Serial Number: 70087108
Firmware Version: 004.15.4
Exposure Time: 100000.000000us
Data Taken on: 15-01-2021 17:48:16.370
Wavelength	Amplitude
221.570786	0.000000
221.663406	0.000000
221.756027	0.000000
221.848648	0.000000
221.941269	0.000000
222.033905	0.000000
222.126526	0.000000
222.219162	0.000000
222.311798	0.000000
222.404419	0.000000
222.497055	0.000000
222.589676	0.000000
222.682312	0.000000
222.774933	0.000000
222.867569	0.000000
222.960205	0.000000
223.052841	0.000000
223.145462	0.000000
223.238098	0.000000
223.330734	0.000000
223.423386	0.000000
223.516022	0.000000
223.608658	0.000000
223.701309	0.000000
223.793945	0.000000
223.886581	0.000000
223.979218	0.000000
224.071869	0.000000
224.164505	0.000000
224.257156	0.000000
224.349792	0.000000
224.442444	0.000000
224.535095	0.000000
224.627747	0.000000
224.720398	0.000000
224.813034	0.000000
224.905685	0.000000
224.998337	153.420000
225.090988	153.320000
225.183640	153.440000
225.276291	153.640000
225.368942	154.300000
225.461594	154.640000
225.554245	155.200000
225.646912	155.320000
225.739578	155.640000
225.832230	155.940000
225.924896	155.220000
226.017548	155.200000
226.110199	155.620000
226.202866	154.740000
226.295532	154.740000
226.388184	154.460000
226.480850	153.680000
226.573517	153.200000
226.666168	153.580000
226.758835	153.700000
226.851501	154.640000
226.944183	155.020000
227.036850	154.760000
227.129517	155.060000
227.222183	155.320000
227.314850	155.260000
227.407516	155.380000
227.500198	156.200000
227.592865	155.680000
227.685532	154.980000
227.778214	154.560000
227.870880	154.900000
227.963562	155.080000
228.056229	155.560000
228.148926	155.900000
228.241592	156.780000
228.334274	155.920000
228.426956	155.580000
228.519638	155.600000
228.612305	154.720000
228.704987	154.360000
228.797668	154.840000
228.890350	154.300000
228.983032	153.720000
229.075714	154.980000
229.168396	154.540000
229.261108	154.100000
229.353790	154.340000
229.446472	154.800000
229.539169	154.460000
229.631851	154.200000
229.724533	154.400000
229.817230	154.420000
229.909912	155.300000
230.002609	155.300000
230.095306	155.560000
230.187988	155.780000
230.280685	155.500000
230.373383	154.100000
230.466095	153.600000
230.558792	153.840000
230.651474	153.720000
230.744171	153.760000
230.836868	153.880000
230.929581	154.280000
231.022278	154.280000
231.114975	154.560000
231.207672	154.640000
231.300369	155.280000
231.393082	155.320000
231.485779	155.240000
231.578506	154.860000
231.671204	155.260000
231.763916	154.720000
231.856613	154.640000
231.949326	154.700000
232.042023	154.640000
232.134735	154.240000
232.227448	154.180000
232.320160	154.240000
232.412872	154.420000
232.505585	155.460000
232.598297	155.640000
232.691010	155.720000
232.783722	155.340000
232.876450	155.740000
232.969162	154.740000
233.061874	154.340000
233.154587	153.980000
233.247314	154.220000
233.340027	153.320000
233.432739	154.100000
233.525467	154.300000
233.618179	155.200000
233.710907	155.120000
233.803635	155.720000
233.896347	155.520000
233.989090	156.280000
234.081818	155.920000
234.174545	156.200000
234.267258	155.800000
234.359985	155.940000
234.452713	155.360000
234.545441	155.000000
234.638168	154.580000
234.730896	154.800000
234.823639	154.300000
234.916367	154.520000
235.009094	154.820000
235.101822	155.100000
235.194580	155.020000
235.287308	155.400000
235.380051	155.000000
235.472778	155.180000
235.565521	155.360000
235.658249	155.060000
235.750992	154.960000
235.843719	155.200000
235.936462	155.480000
236.029205	154.840000
236.121948	154.480000
236.214691	154.740000
236.307449	155.160000
236.400192	154.400000
236.492935	154.640000
236.585678	155.280000
236.678421	155.120000
236.771164	154.800000
236.863907	155.680000
236.956665	155.740000
237.049408	157.260000
237.142151	156.700000
237.234909	157.420000
237.327652	157.100000
237.420410	156.960000
237.513153	155.740000
237.605927	155.860000
237.698669	155.120000
237.791428	154.620000
237.884186	155.260000
237.976944	154.720000
238.069702	155.000000
238.162445	154.400000
238.255203	154.300000
238.347961	154.480000
238.440720	154.680000
238.533478	154.400000
238.626266	154.640000
238.719025	155.320000
238.811783	154.940000
238.904541	154.700000
238.997314	154.680000
239.090073	154.240000
239.182831	154.200000
239.275604	154.920000
239.368362	154.760000
239.461136	155.040000
239.553909	155.360000
239.646667	154.740000
239.739441	154.060000
239.832214	154.820000
239.925003	154.920000
240.017761	155.540000
240.110535	156.200000
240.203308	155.880000
240.296082	155.360000
240.388855	155.240000
240.481628	155.200000
240.574417	155.440000
240.667191	155.720000
240.759964	155.680000
240.852737	155.600000
240.945526	155.220000
241.038315	154.860000
241.131088	154.760000
241.223877	155.520000
241.316650	155.060000
241.409439	155.680000
241.502228	155.120000
241.595001	155.540000
241.687790	154.560000
241.780579	155.180000
241.873367	155.100000
241.966141	155.600000
242.058929	155.020000
242.151718	155.760000
242.244507	155.700000
242.337311	154.980000
242.430099	155.260000
242.522903	155.460000
242.615692	154.860000
242.708481	154.720000
242.801270	155.300000
242.894073	155.140000
242.986862	155.100000
243.079651	155.620000
243.172455	155.720000
243.265244	155.500000
243.358063	154.780000
243.450867	155.060000
243.543655	155.080000
243.636459	155.120000
243.729263	155.640000
243.822067	156.220000
243.914856	156.360000
244.007660	156.140000
244.100464	156.160000
244.193268	155.540000
244.286072	155.460000
244.378876	154.880000
244.471680	154.720000
244.564499	155.100000
244.657318	155.760000
244.750122	156.120000
244.842926	155.600000
244.935745	156.060000
245.028549	155.300000
245.121368	154.780000
245.214172	154.380000
245.306992	155.060000
245.399796	154.500000
245.492615	154.720000
245.585434	154.720000
245.678253	155.000000
245.771072	154.840000
245.863892	155.280000
245.956711	155.460000
246.049530	155.100000
246.142349	154.640000
246.235168	154.700000
246.327988	155.140000
246.420807	154.900000
246.513626	155.520000
246.606445	155.640000
246.699280	155.880000
246.792099	155.340000
246.884918	155.100000
246.977753	154.620000
247.070587	154.720000
247.163422	154.200000
247.256241	154.060000
247.349075	154.500000
247.441895	154.660000
247.534729	154.380000
247.627563	154.620000
247.720383	155.260000
247.813217	154.940000
247.906052	154.720000
247.998886	154.800000
248.091736	154.720000
248.184570	154.340000
248.277405	154.280000
248.370239	155.260000
248.463074	156.560000
248.555908	156.940000
248.648743	156.980000
248.741592	157.460000
248.834427	156.700000
248.927261	155.460000
249.020111	155.780000
249.112946	156.100000
249.205795	155.520000
249.298630	155.560000
249.391495	155.460000
249.484344	154.680000
249.577179	154.580000
249.670029	154.940000
249.762878	155.440000
249.855728	155.820000
249.948563	156.060000
250.041412	155.600000
250.134262	155.780000
250.227112	155.540000
250.319962	155.320000
250.412827	155.440000
250.505692	154.940000
250.598541	154.840000
250.691391	154.280000
250.784241	154.380000
250.877106	154.720000
250.969955	154.880000
251.062805	155.560000
251.155670	156.320000
251.248520	156.040000
251.341385	155.700000
251.434235	155.700000
251.527100	154.840000
251.619965	154.160000
251.712814	155.080000
251.805695	155.000000
251.898560	155.280000
251.991425	155.780000
252.084290	156.340000
252.177155	155.640000
252.270020	155.680000
252.362885	155.880000
252.455750	155.700000
252.548615	155.380000
252.641479	155.180000
252.734360	155.040000
252.827240	154.620000
252.920105	154.800000
253.012970	154.880000
253.105850	154.780000
253.198715	154.680000
253.291595	154.920000
253.384460	154.240000
253.477341	154.160000
253.570221	154.640000
253.663086	154.360000
253.755966	155.120000
253.848846	155.200000
253.941727	155.280000
254.034592	154.840000
254.127472	154.580000
254.220367	154.140000
254.313248	154.460000
254.406128	153.900000
254.499008	154.460000
254.591904	155.440000
254.684784	155.800000
254.777664	155.720000
254.870544	155.660000
254.963440	155.540000
255.056335	155.360000
255.149216	154.800000
255.242111	155.140000
255.334991	155.760000
255.427887	155.680000
255.520767	155.880000
255.613663	156.020000
255.706558	155.560000
255.799438	155.640000
255.892334	155.220000
255.985229	154.940000
256.078125	154.700000
256.171021	154.680000
256.263916	154.580000
256.356812	154.980000
256.449707	155.000000
256.542603	154.640000
256.635498	155.200000
256.728394	155.080000
256.821289	154.780000
256.914215	155.300000
257.007080	155.720000
257.100006	155.800000
257.192932	156.280000
257.285828	156.680000
257.378723	155.840000
257.471619	155.840000
257.564545	155.020000
257.657440	155.100000
257.750336	155.500000
257.843262	155.480000
257.936157	156.380000
258.029053	156.860000
258.121979	156.740000
258.214874	156.180000
258.307800	156.320000
258.400696	155.100000
258.493622	155.020000
258.586517	154.120000
258.679443	154.240000
258.772339	153.900000
258.865265	154.200000
258.958160	153.820000
259.051086	154.980000
259.144012	154.900000
259.236938	155.980000
259.329834	155.980000
259.422791	155.960000
259.515717	154.900000
259.608612	154.640000
259.701538	154.440000
259.794464	154.080000
259.887390	154.060000
259.980316	153.960000
260.073212	153.900000
260.166138	152.880000
260.259064	153.340000
260.351990	153.960000
260.444916	154.220000
260.537842	155.000000
260.630768	155.920000
260.723694	155.980000
260.816620	155.680000
260.909546	155.540000
261.002472	155.060000
261.095398	154.420000
261.188354	154.140000
261.281281	154.020000
261.374207	154.620000
261.467133	155.220000
261.560089	155.540000
261.653015	155.400000
261.745972	155.920000
261.838867	156.020000
261.931824	155.860000
262.024780	155.660000
262.117706	156.080000
262.210663	155.940000
262.303589	155.640000
262.396515	155.400000
262.489471	156.440000
262.582397	156.080000
262.675354	155.480000
262.768280	155.620000
262.861237	155.780000
262.954163	155.260000
263.047119	155.680000
263.140045	155.580000
263.233002	155.560000
263.325958	155.220000
263.418884	154.360000
263.511841	154.160000
263.604797	154.420000
263.697723	154.380000
263.790680	154.540000
263.883636	155.520000
263.976593	155.560000
264.069550	155.680000
264.162476	155.320000
264.255463	155.260000
264.348419	154.820000
264.441376	154.980000
264.534332	154.580000
264.627289	154.760000
264.720245	155.300000
264.813202	154.760000
264.906158	154.860000
264.999115	155.560000
265.092072	155.480000
265.185028	155.680000
265.277985	156.000000
265.370941	155.940000
265.463898	155.920000
265.556854	155.860000
265.649811	155.020000
265.742798	155.140000
265.835754	155.140000
265.928711	155.440000
266.021667	155.580000
266.114655	155.620000
266.207611	156.160000
266.300568	155.460000
266.393585	154.720000
266.486511	154.920000
266.579498	154.220000
266.672485	153.680000
266.765442	153.760000
266.858429	154.240000
266.951385	153.640000
267.044342	153.940000
267.137329	153.960000
267.230316	154.400000
267.323273	153.980000
267.416260	154.720000
267.509216	154.840000
267.602203	154.880000
267.695160	155.180000
267.788147	155.300000
267.881134	154.440000
267.974091	154.880000
268.067078	154.720000
268.160065	154.420000
268.253052	154.200000
268.346008	154.580000
268.438995	154.100000
268.531982	154.280000
268.624969	153.840000
268.717987	154.240000
268.810944	154.260000
268.903961	154.700000
268.996948	154.200000
269.089905	155.040000
269.182892	154.820000
269.275879	155.200000
269.368866	154.720000
269.461853	155.380000
269.554871	154.820000
269.647858	155.120000
269.740845	155.420000
269.833832	155.880000
269.926819	155.580000
270.019806	155.640000
270.112793	155.040000
270.205811	154.880000
270.298798	154.440000
270.391785	154.920000
270.484772	154.720000
270.577789	154.960000
270.670776	154.000000
270.763763	153.900000
270.856750	153.840000
270.949768	153.620000
271.042786	153.660000
271.135773	153.940000
271.228790	154.620000
271.321808	154.040000
271.414795	154.220000
271.507782	153.860000
271.600800	153.940000
271.693817	153.860000
271.786804	154.380000
271.879822	154.660000
271.972809	155.100000
272.065826	155.480000
272.158844	154.860000
272.251831	155.460000
272.344849	155.360000
272.437866	154.960000
272.530853	154.920000
272.623871	155.460000
272.716888	154.180000
272.809906	154.500000
272.902893	154.500000
272.995911	153.740000
273.088928	153.560000
273.181946	154.040000
273.274963	153.460000
273.367981	153.700000
273.460999	154.100000
273.554047	154.560000
273.647003	155.140000
273.740051	155.260000
273.833069	155.760000
273.926086	155.880000
274.019135	155.140000
274.112152	154.620000
274.205170	154.940000
274.298187	154.800000
274.391205	154.540000
274.484222	155.000000
274.577240	154.820000
274.670258	154.560000
274.763306	154.520000
274.856323	154.820000
274.949341	154.680000
275.042358	155.160000
275.135406	155.140000
275.228424	154.800000
275.321442	154.840000
275.414490	154.620000
275.507507	154.800000
275.600525	155.280000
275.693573	155.240000
275.786591	154.880000
275.879669	155.180000
275.972656	154.640000
276.065735	154.220000
276.158752	154.800000
276.251801	155.920000
276.344818	156.000000
276.437866	156.100000
276.530884	155.820000
276.623932	155.120000
276.716980	154.960000
276.809998	154.820000
276.903046	154.660000
276.996094	155.880000
277.089111	156.420000
277.182159	156.500000
277.275208	156.360000
277.368256	156.660000
277.461304	155.740000
277.554321	155.080000
277.647369	154.780000
277.740417	154.840000
277.833466	154.420000
277.926514	154.600000
278.019562	155.400000
278.112610	154.700000
278.205688	154.820000
278.298706	155.140000
278.391785	154.860000
278.484833	154.080000
278.577881	154.280000
278.670929	154.600000
278.763977	154.820000
278.857025	155.180000
278.950073	155.740000
279.043121	155.480000
279.136169	154.920000
279.229248	154.460000
279.322296	154.580000
279.415344	154.220000
279.508392	154.360000
279.601440	154.600000
279.694519	154.460000
279.787567	154.180000
279.880615	154.020000
279.973694	154.080000
280.066742	153.940000
280.159790	154.400000
280.252869	154.160000
280.345917	154.480000
280.438995	154.340000
280.532074	154.480000
280.625122	154.740000
280.718201	155.300000
280.811279	155.020000
280.904327	155.140000
280.997406	155.240000
281.090454	154.920000
281.183533	154.400000
281.276581	154.520000
281.369659	154.300000
281.462738	154.440000
281.555786	154.700000
281.648865	155.040000
281.741943	154.980000
281.835022	155.760000
281.928070	155.180000
282.021149	154.800000
282.114227	154.460000
282.207306	154.620000
282.300385	154.760000
282.393433	155.180000
282.486511	155.000000
282.579590	155.720000
282.672668	155.920000
282.765747	155.200000
282.858856	154.920000
282.951904	155.200000
283.045013	155.160000
283.138062	155.380000
283.231171	155.720000
283.324249	156.140000
283.417328	156.100000
283.510406	155.680000
283.603485	155.300000
283.696564	155.060000
283.789642	154.800000
283.882751	154.720000
283.975830	155.460000
284.068909	155.260000
284.161987	156.040000
284.255066	155.580000
284.348175	155.800000
284.441254	155.020000
284.534332	155.680000
284.627441	155.040000
284.720520	154.900000
284.813599	154.760000
284.906708	155.060000
284.999786	154.160000
285.092896	153.680000
285.185974	155.060000
285.279053	154.540000
285.372192	154.460000
285.465240	155.460000
285.558380	155.580000
285.651459	154.940000
285.744568	155.980000
285.837677	155.600000
285.930756	155.340000
286.023865	155.640000
286.116943	154.980000
286.210052	154.680000
286.303162	154.700000
286.396240	154.400000
286.489349	154.060000
286.582458	154.680000
286.675568	154.320000
286.768646	154.660000
286.861755	154.800000
286.954865	155.780000
287.047974	155.340000
287.141083	155.380000
287.234161	155.040000
287.327271	154.720000
287.420380	154.540000
287.513519	154.560000
287.606598	154.660000
287.699738	155.000000
287.792816	155.020000
287.885956	154.860000
287.979034	155.240000
288.072174	155.500000
288.165283	155.160000
288.258392	155.700000
288.351501	155.200000
288.444611	154.960000
288.537720	155.200000
288.630859	155.160000
288.723969	155.240000
288.817078	155.540000
288.910187	155.540000
289.003296	154.820000
289.096436	154.500000
289.189545	154.000000
289.282654	153.720000
289.375763	154.220000
289.468903	154.980000
289.562012	155.560000
289.655121	155.520000
289.748260	155.740000
289.841400	155.560000
289.934509	154.860000
290.027649	154.900000
290.120728	154.880000
290.213898	154.980000
290.306976	154.540000
290.400146	154.760000
290.493256	154.240000
290.586395	154.620000
290.679535	154.680000
290.772644	155.120000
290.865784	154.620000
290.958893	154.800000
291.052032	154.620000
291.145172	154.780000
291.238281	154.340000
291.331421	154.460000
291.424561	155.000000
291.517670	154.560000
291.610809	154.200000
291.703949	154.340000
291.797089	154.740000
291.890228	154.080000
291.983337	154.560000
292.076477	154.680000
292.169617	154.900000
292.262756	154.720000
292.355927	154.860000
292.449036	154.280000
292.542206	154.400000
292.635315	154.500000
292.728485	155.340000
292.821625	155.100000
292.914764	156.480000
293.007904	156.580000
293.101044	156.640000
293.194183	155.820000
293.287323	156.200000
293.380463	155.480000
293.473602	155.100000
293.566742	155.040000
293.659882	155.540000
293.753021	155.600000
293.846191	155.500000
293.939331	155.100000
294.032471	154.780000
294.125610	154.320000
294.218781	154.860000
294.311920	155.100000
294.405060	155.520000
294.498230	155.460000
294.591370	155.560000
294.684540	154.560000
294.777679	154.200000
294.870850	154.580000
294.963959	154.440000
295.057159	154.040000
295.150299	154.600000
295.243469	154.620000
295.336609	153.800000
295.429779	154.080000
295.522919	154.580000
295.616089	154.620000
295.709229	155.000000
295.802399	155.340000
295.895569	155.120000
295.988708	155.120000
296.081879	155.240000
296.175018	154.680000
296.268188	154.800000
296.361359	155.480000
296.454529	155.440000
296.547668	155.000000
296.640839	155.300000
296.734009	154.980000
296.827179	154.820000
296.920319	155.140000
297.013519	155.020000
297.106659	155.140000
297.199860	155.220000
297.292999	155.120000
297.386200	154.480000
297.479309	154.320000
297.572510	154.360000
297.665680	154.260000
297.758850	154.140000
297.852020	154.200000
297.945190	154.540000
298.038361	153.760000
298.131531	154.940000
298.224701	154.760000
298.317871	154.600000
298.411072	154.240000
298.504242	154.140000
298.597412	153.420000
298.690582	153.700000
298.783752	153.800000
298.876923	154.280000
298.970093	154.580000
299.063293	154.620000
299.156464	154.580000
299.249634	154.920000
299.342834	154.940000
299.436005	155.520000
299.529205	155.520000
299.622345	155.900000
299.715576	155.120000
299.808716	154.820000
299.901917	154.620000
299.995117	154.720000
300.088287	154.600000
300.181488	154.920000
300.274658	154.720000
300.367828	154.660000
300.461029	154.600000
300.554199	154.860000
300.647400	155.220000
300.740601	155.860000
300.833771	155.520000
300.926971	155.640000
301.020142	154.720000
301.113342	154.320000
301.206512	154.080000
301.299713	154.440000
301.392914	154.160000
301.486084	154.680000
301.579285	154.960000
301.672516	155.260000
301.765686	155.080000
301.858887	155.160000
301.952057	154.960000
302.045288	155.020000
302.138458	155.040000
302.231659	155.120000
302.324860	154.980000
302.418060	154.880000
302.511261	154.740000
302.604462	154.900000
302.697662	154.680000
302.790863	154.640000
302.884064	154.300000
302.977264	154.380000
303.070465	154.120000
303.163666	154.920000
303.256866	155.180000
303.350067	155.480000
303.443268	155.560000
303.536469	155.900000
303.629669	155.420000
303.722870	155.800000
303.816071	155.680000
303.909271	155.500000
304.002472	154.480000
304.095673	154.200000
304.188934	153.360000
304.282104	154.380000
304.375336	154.640000
304.468506	155.140000
304.561768	154.980000
304.654968	155.640000
304.748169	154.800000
304.841370	154.380000
304.934601	154.720000
305.027802	154.580000
305.121002	154.300000
305.214233	154.360000
305.307434	154.540000
305.400665	155.040000
305.493866	155.200000
