Model Number: SPM-002-B   
Serial Number: 70087108
Firmware Version: 004.15.4
Exposure Time: 100000.000000us
Data Taken on: 15-01-2021 17:48:25.415
Wavelength	Amplitude
221.570786	0.000000
221.663406	0.000000
221.756027	0.000000
221.848648	0.000000
221.941269	0.000000
222.033905	0.000000
222.126526	0.000000
222.219162	0.000000
222.311798	0.000000
222.404419	0.000000
222.497055	0.000000
222.589676	0.000000
222.682312	0.000000
222.774933	0.000000
222.867569	0.000000
222.960205	0.000000
223.052841	0.000000
223.145462	0.000000
223.238098	0.000000
223.330734	0.000000
223.423386	0.000000
223.516022	0.000000
223.608658	0.000000
223.701309	0.000000
223.793945	0.000000
223.886581	0.000000
223.979218	0.000000
224.071869	0.000000
224.164505	0.000000
224.257156	0.000000
224.349792	0.000000
224.442444	0.000000
224.535095	0.000000
224.627747	0.000000
224.720398	0.000000
224.813034	0.000000
224.905685	0.000000
224.998337	154.680000
225.090988	154.220000
225.183640	154.140000
225.276291	153.940000
225.368942	154.520000
225.461594	154.740000
225.554245	155.200000
225.646912	155.000000
225.739578	155.580000
225.832230	155.960000
225.924896	155.280000
226.017548	155.460000
226.110199	156.340000
226.202866	155.700000
226.295532	155.500000
226.388184	155.400000
226.480850	154.820000
226.573517	154.320000
226.666168	154.480000
226.758835	154.540000
226.851501	155.340000
226.944183	155.520000
227.036850	155.240000
227.129517	155.440000
227.222183	155.200000
227.314850	155.140000
227.407516	155.320000
227.500198	156.120000
227.592865	155.760000
227.685532	155.600000
227.778214	155.140000
227.870880	155.600000
227.963562	155.800000
228.056229	156.320000
228.148926	156.480000
228.241592	157.440000
228.334274	156.660000
228.426956	156.020000
228.519638	155.980000
228.612305	155.600000
228.704987	155.060000
228.797668	155.080000
228.890350	155.040000
228.983032	154.300000
229.075714	155.040000
229.168396	154.920000
229.261108	154.700000
229.353790	154.580000
229.446472	154.820000
229.539169	154.580000
229.631851	154.140000
229.724533	154.500000
229.817230	154.740000
229.909912	155.760000
230.002609	155.460000
230.095306	155.440000
230.187988	155.640000
230.280685	155.640000
230.373383	154.500000
230.466095	154.480000
230.558792	154.920000
230.651474	154.300000
230.744171	154.060000
230.836868	153.960000
230.929581	154.140000
231.022278	154.100000
231.114975	154.560000
231.207672	154.360000
231.300369	154.960000
231.393082	154.960000
231.485779	154.920000
231.578506	154.780000
231.671204	155.120000
231.763916	155.220000
231.856613	155.000000
231.949326	155.220000
232.042023	155.340000
232.134735	155.240000
232.227448	154.540000
232.320160	155.040000
232.412872	154.820000
232.505585	155.740000
232.598297	156.180000
232.691010	156.300000
232.783722	155.860000
232.876450	156.400000
232.969162	155.340000
233.061874	154.740000
233.154587	154.400000
233.247314	154.920000
233.340027	154.340000
233.432739	155.100000
233.525467	155.080000
233.618179	155.800000
233.710907	155.300000
233.803635	155.820000
233.896347	155.480000
233.989090	156.160000
234.081818	156.040000
234.174545	156.400000
234.267258	155.820000
234.359985	155.820000
234.452713	155.320000
234.545441	155.040000
234.638168	154.500000
234.730896	154.920000
234.823639	154.740000
234.916367	155.180000
235.009094	155.600000
235.101822	155.980000
235.194580	155.560000
235.287308	155.840000
235.380051	155.120000
235.472778	155.220000
235.565521	155.440000
235.658249	155.600000
235.750992	155.460000
235.843719	155.560000
235.936462	155.660000
236.029205	155.200000
236.121948	154.740000
236.214691	155.180000
236.307449	156.160000
236.400192	155.320000
236.492935	155.200000
236.585678	155.720000
236.678421	155.140000
236.771164	154.660000
236.863907	155.680000
236.956665	156.220000
237.049408	157.960000
237.142151	157.540000
237.234909	158.300000
237.327652	158.120000
237.420410	157.780000
237.513153	156.360000
237.605927	156.560000
237.698669	155.560000
237.791428	154.860000
237.884186	155.260000
237.976944	154.820000
238.069702	155.100000
238.162445	154.920000
238.255203	154.980000
238.347961	155.300000
238.440720	155.500000
238.533478	155.660000
238.626266	155.700000
238.719025	156.180000
238.811783	155.540000
238.904541	155.080000
238.997314	154.560000
239.090073	154.280000
239.182831	154.860000
239.275604	155.760000
239.368362	155.900000
239.461136	156.240000
239.553909	156.160000
239.646667	155.400000
239.739441	154.600000
239.832214	154.840000
239.925003	155.020000
240.017761	156.020000
240.110535	156.620000
240.203308	156.260000
240.296082	156.080000
240.388855	155.780000
240.481628	155.720000
240.574417	155.600000
240.667191	155.700000
240.759964	155.620000
240.852737	155.680000
240.945526	154.820000
241.038315	154.500000
241.131088	154.900000
241.223877	155.080000
241.316650	154.700000
241.409439	155.140000
241.502228	154.900000
241.595001	155.320000
241.687790	155.320000
241.780579	155.600000
241.873367	155.740000
241.966141	155.860000
242.058929	154.900000
242.151718	155.180000
242.244507	155.600000
242.337311	154.720000
242.430099	155.580000
242.522903	155.940000
242.615692	155.200000
242.708481	155.020000
242.801270	156.040000
242.894073	155.220000
242.986862	155.240000
243.079651	156.140000
243.172455	155.760000
243.265244	155.640000
243.358063	155.260000
243.450867	155.540000
243.543655	155.400000
243.636459	155.520000
243.729263	155.680000
243.822067	155.980000
243.914856	156.160000
244.007660	155.920000
244.100464	155.920000
244.193268	155.300000
244.286072	155.280000
244.378876	154.720000
244.471680	154.560000
244.564499	154.700000
244.657318	155.240000
244.750122	155.140000
244.842926	154.760000
244.935745	155.320000
245.028549	155.040000
245.121368	154.940000
245.214172	155.180000
245.306992	155.780000
245.399796	155.060000
245.492615	155.360000
245.585434	155.040000
245.678253	155.040000
245.771072	154.960000
245.863892	155.520000
245.956711	155.620000
246.049530	155.460000
246.142349	155.060000
246.235168	154.980000
246.327988	155.320000
246.420807	155.060000
246.513626	155.200000
246.606445	155.240000
246.699280	155.360000
246.792099	154.880000
246.884918	154.500000
246.977753	154.280000
247.070587	154.280000
247.163422	154.280000
247.256241	154.280000
247.349075	155.100000
247.441895	155.440000
247.534729	155.520000
247.627563	155.500000
247.720383	156.140000
247.813217	156.000000
247.906052	155.640000
247.998886	155.640000
248.091736	155.580000
248.184570	154.880000
248.277405	154.860000
248.370239	156.020000
248.463074	157.320000
248.555908	157.720000
248.648743	157.540000
248.741592	157.560000
248.834427	156.580000
248.927261	155.180000
249.020111	155.260000
249.112946	155.940000
249.205795	155.220000
249.298630	155.640000
249.391495	155.620000
249.484344	155.040000
249.577179	154.600000
249.670029	155.220000
249.762878	155.460000
249.855728	155.960000
249.948563	156.280000
250.041412	156.080000
250.134262	156.180000
250.227112	156.180000
250.319962	156.120000
250.412827	156.040000
250.505692	155.560000
250.598541	155.580000
250.691391	155.080000
250.784241	154.980000
250.877106	155.300000
250.969955	155.420000
251.062805	155.820000
251.155670	156.440000
251.248520	156.300000
251.341385	156.200000
251.434235	156.460000
251.527100	155.920000
251.619965	155.400000
251.712814	156.100000
251.805695	156.060000
251.898560	156.480000
251.991425	156.900000
252.084290	157.200000
252.177155	156.460000
252.270020	156.160000
252.362885	155.920000
252.455750	155.580000
252.548615	155.560000
252.641479	155.320000
252.734360	155.140000
252.827240	155.000000
252.920105	155.220000
253.012970	154.780000
253.105850	155.080000
253.198715	155.100000
253.291595	155.080000
253.384460	154.620000
253.477341	154.680000
253.570221	154.960000
253.663086	154.780000
253.755966	155.760000
253.848846	155.760000
253.941727	156.180000
254.034592	156.000000
254.127472	155.680000
254.220367	155.200000
254.313248	155.640000
254.406128	154.760000
254.499008	155.000000
254.591904	156.300000
254.684784	156.600000
254.777664	156.360000
254.870544	156.360000
254.963440	156.180000
255.056335	155.760000
255.149216	155.240000
255.242111	155.680000
255.334991	156.260000
255.427887	156.160000
255.520767	156.080000
255.613663	156.520000
255.706558	155.880000
255.799438	155.620000
255.892334	155.580000
255.985229	155.160000
256.078125	154.740000
256.171021	154.660000
256.263916	155.000000
256.356812	155.180000
256.449707	155.640000
256.542603	155.440000
256.635498	156.080000
256.728394	156.020000
256.821289	155.620000
256.914215	155.900000
257.007080	156.360000
257.100006	156.340000
257.192932	156.680000
257.285828	157.120000
257.378723	156.740000
257.471619	156.240000
257.564545	155.620000
257.657440	155.480000
257.750336	155.880000
257.843262	155.660000
257.936157	156.840000
258.029053	157.540000
258.121979	157.620000
258.214874	157.040000
258.307800	156.820000
258.400696	155.740000
258.493622	155.460000
258.586517	154.460000
258.679443	154.760000
258.772339	154.760000
258.865265	154.600000
258.958160	154.180000
259.051086	155.260000
259.144012	155.020000
259.236938	156.000000
259.329834	156.440000
259.422791	156.500000
259.515717	155.620000
259.608612	155.580000
259.701538	155.000000
259.794464	154.740000
259.887390	154.700000
259.980316	155.100000
260.073212	154.840000
260.166138	153.900000
260.259064	154.180000
260.351990	154.580000
260.444916	154.580000
260.537842	155.020000
260.630768	156.220000
260.723694	156.200000
260.816620	156.220000
260.909546	156.080000
261.002472	155.640000
261.095398	154.820000
261.188354	154.360000
261.281281	153.860000
261.374207	154.020000
261.467133	154.860000
261.560089	155.480000
261.653015	155.740000
261.745972	156.620000
261.838867	157.200000
261.931824	157.140000
262.024780	156.840000
262.117706	156.940000
262.210663	156.860000
262.303589	156.340000
262.396515	156.060000
262.489471	156.620000
262.582397	156.760000
262.675354	156.460000
262.768280	156.500000
262.861237	156.780000
262.954163	156.600000
263.047119	156.520000
263.140045	155.920000
263.233002	155.840000
263.325958	155.500000
263.418884	154.940000
263.511841	154.900000
263.604797	155.060000
263.697723	154.960000
263.790680	154.720000
263.883636	155.640000
263.976593	155.420000
264.069550	155.580000
264.162476	155.500000
264.255463	155.580000
264.348419	155.040000
264.441376	155.400000
264.534332	154.820000
264.627289	154.960000
264.720245	155.620000
264.813202	155.080000
264.906158	155.120000
264.999115	155.860000
265.092072	156.020000
265.185028	156.060000
265.277985	156.720000
265.370941	156.400000
265.463898	155.880000
265.556854	155.760000
265.649811	154.960000
265.742798	154.680000
265.835754	154.680000
265.928711	155.500000
266.021667	155.560000
266.114655	155.900000
266.207611	156.460000
266.300568	155.960000
266.393585	155.160000
266.486511	155.280000
266.579498	154.680000
266.672485	154.340000
266.765442	154.800000
266.858429	155.680000
266.951385	155.180000
267.044342	155.320000
267.137329	155.220000
267.230316	155.320000
267.323273	154.620000
267.416260	155.400000
267.509216	155.380000
267.602203	155.420000
267.695160	155.680000
267.788147	155.880000
267.881134	155.440000
267.974091	155.600000
268.067078	155.240000
268.160065	155.100000
268.253052	154.800000
268.346008	154.720000
268.438995	154.800000
268.531982	155.300000
268.624969	155.100000
268.717987	155.840000
268.810944	155.580000
268.903961	155.400000
268.996948	154.960000
269.089905	155.560000
269.182892	155.440000
269.275879	156.040000
269.368866	155.800000
269.461853	155.900000
269.554871	155.320000
269.647858	155.180000
269.740845	155.460000
269.833832	156.020000
269.926819	155.800000
270.019806	156.000000
270.112793	155.660000
270.205811	155.580000
270.298798	155.380000
270.391785	156.280000
270.484772	155.980000
270.577789	156.000000
270.670776	155.380000
270.763763	155.260000
270.856750	154.960000
270.949768	154.820000
271.042786	155.180000
271.135773	155.340000
271.228790	155.920000
271.321808	155.320000
271.414795	155.000000
271.507782	154.500000
271.600800	154.360000
271.693817	154.100000
271.786804	154.940000
271.879822	155.420000
271.972809	155.300000
272.065826	155.620000
272.158844	155.320000
272.251831	155.600000
272.344849	155.660000
272.437866	155.620000
272.530853	155.600000
272.623871	155.640000
272.716888	154.240000
272.809906	154.540000
272.902893	154.540000
272.995911	154.120000
273.088928	154.060000
273.181946	154.740000
273.274963	154.260000
273.367981	154.640000
273.460999	154.800000
273.554047	155.440000
273.647003	156.160000
273.740051	156.420000
273.833069	156.640000
273.926086	156.880000
274.019135	156.500000
274.112152	155.720000
274.205170	155.760000
274.298187	155.920000
274.391205	155.600000
274.484222	155.840000
274.577240	155.860000
274.670258	155.640000
274.763306	155.280000
274.856323	156.020000
274.949341	155.820000
275.042358	156.140000
275.135406	156.020000
275.228424	156.080000
275.321442	155.480000
275.414490	155.260000
275.507507	155.520000
275.600525	155.920000
275.693573	155.500000
275.786591	155.440000
275.879669	155.720000
275.972656	155.220000
276.065735	155.060000
276.158752	156.060000
276.251801	156.420000
276.344818	156.600000
276.437866	156.860000
276.530884	156.400000
276.623932	155.440000
276.716980	155.660000
276.809998	155.400000
276.903046	155.240000
276.996094	156.260000
277.089111	156.960000
277.182159	157.220000
277.275208	156.860000
277.368256	156.760000
277.461304	156.360000
277.554321	155.520000
277.647369	155.260000
277.740417	155.640000
277.833466	155.540000
277.926514	155.460000
278.019562	156.300000
278.112610	155.580000
278.205688	155.720000
278.298706	156.000000
278.391785	155.760000
278.484833	155.020000
278.577881	155.000000
278.670929	154.940000
278.763977	154.680000
278.857025	155.060000
278.950073	155.500000
279.043121	155.600000
279.136169	155.300000
279.229248	155.100000
279.322296	155.240000
279.415344	154.680000
279.508392	154.460000
279.601440	154.620000
279.694519	154.660000
279.787567	154.240000
279.880615	154.320000
279.973694	154.280000
280.066742	154.120000
280.159790	154.260000
280.252869	153.900000
280.345917	154.260000
280.438995	154.200000
280.532074	154.320000
280.625122	154.660000
280.718201	155.800000
280.811279	155.760000
280.904327	155.760000
280.997406	156.080000
281.090454	155.800000
281.183533	155.060000
281.276581	155.140000
281.369659	155.040000
281.462738	154.600000
281.555786	155.020000
281.648865	155.200000
281.741943	155.020000
281.835022	156.080000
281.928070	156.240000
282.021149	155.940000
282.114227	155.640000
282.207306	155.440000
282.300385	155.600000
282.393433	155.860000
282.486511	155.820000
282.579590	156.240000
282.672668	156.600000
282.765747	155.640000
282.858856	155.140000
282.951904	155.080000
283.045013	155.320000
283.138062	155.480000
283.231171	155.900000
283.324249	156.620000
283.417328	156.820000
283.510406	156.020000
283.603485	155.660000
283.696564	155.340000
283.789642	155.040000
283.882751	154.720000
283.975830	155.840000
284.068909	156.080000
284.161987	156.960000
284.255066	156.340000
284.348175	156.760000
284.441254	156.060000
284.534332	156.320000
284.627441	155.540000
284.720520	155.620000
284.813599	155.380000
284.906708	155.360000
284.999786	154.480000
285.092896	154.260000
285.185974	155.300000
285.279053	154.960000
285.372192	155.160000
285.465240	156.120000
285.558380	156.240000
285.651459	155.540000
285.744568	156.560000
285.837677	156.220000
285.930756	155.980000
286.023865	155.960000
286.116943	155.600000
286.210052	155.280000
286.303162	155.420000
286.396240	155.120000
286.489349	154.840000
286.582458	155.280000
286.675568	155.000000
286.768646	154.820000
286.861755	155.120000
286.954865	156.120000
287.047974	155.560000
287.141083	155.200000
287.234161	155.200000
287.327271	155.200000
287.420380	155.360000
287.513519	155.400000
287.606598	155.800000
287.699738	155.960000
287.792816	155.860000
287.885956	155.300000
287.979034	155.200000
288.072174	155.120000
288.165283	155.000000
288.258392	155.400000
288.351501	154.820000
288.444611	155.580000
288.537720	156.060000
288.630859	155.980000
288.723969	155.800000
288.817078	156.680000
288.910187	156.380000
289.003296	155.460000
289.096436	155.180000
289.189545	154.680000
289.282654	154.060000
289.375763	154.560000
289.468903	155.360000
289.562012	155.940000
289.655121	156.140000
289.748260	156.400000
289.841400	156.520000
289.934509	156.120000
290.027649	156.040000
290.120728	156.180000
290.213898	156.300000
290.306976	155.700000
290.400146	155.580000
290.493256	155.100000
290.586395	155.040000
290.679535	155.180000
290.772644	155.060000
290.865784	154.320000
290.958893	154.320000
291.052032	154.200000
291.145172	153.960000
291.238281	153.660000
291.331421	154.120000
291.424561	155.060000
291.517670	154.980000
291.610809	155.100000
291.703949	155.440000
291.797089	156.080000
291.890228	155.340000
291.983337	155.260000
292.076477	154.760000
292.169617	154.960000
292.262756	154.620000
292.355927	154.560000
292.449036	154.580000
292.542206	154.860000
292.635315	154.740000
292.728485	154.960000
292.821625	154.680000
292.914764	155.960000
293.007904	155.920000
293.101044	156.180000
293.194183	156.140000
293.287323	156.460000
293.380463	155.500000
293.473602	155.780000
293.566742	155.700000
293.659882	156.120000
293.753021	156.320000
293.846191	156.020000
293.939331	155.500000
294.032471	155.100000
294.125610	154.660000
294.218781	154.920000
294.311920	155.420000
294.405060	155.780000
294.498230	156.060000
294.591370	156.080000
294.684540	155.360000
294.777679	154.780000
294.870850	155.040000
294.963959	155.020000
295.057159	154.760000
295.150299	155.380000
295.243469	155.580000
295.336609	155.020000
295.429779	154.840000
295.522919	155.360000
295.616089	155.520000
295.709229	156.120000
295.802399	156.360000
295.895569	156.300000
295.988708	155.920000
296.081879	155.920000
296.175018	155.320000
296.268188	155.160000
296.361359	155.800000
296.454529	155.920000
296.547668	155.440000
296.640839	155.560000
296.734009	155.480000
296.827179	155.140000
296.920319	155.260000
297.013519	155.180000
297.106659	155.320000
297.199860	155.340000
297.292999	155.540000
297.386200	155.140000
297.479309	155.280000
297.572510	154.720000
297.665680	154.700000
297.758850	154.660000
297.852020	154.800000
297.945190	154.480000
298.038361	154.680000
298.131531	155.620000
298.224701	155.180000
298.317871	154.800000
298.411072	154.560000
298.504242	154.720000
298.597412	153.880000
298.690582	154.340000
298.783752	154.660000
298.876923	155.720000
298.970093	155.620000
299.063293	156.520000
299.156464	156.480000
299.249634	157.080000
299.342834	156.860000
299.436005	157.200000
299.529205	156.240000
299.622345	156.360000
299.715576	155.260000
299.808716	154.880000
299.901917	154.780000
299.995117	155.160000
300.088287	155.360000
300.181488	155.500000
300.274658	155.160000
300.367828	155.160000
300.461029	154.960000
300.554199	155.080000
300.647400	155.340000
300.740601	155.940000
300.833771	155.480000
300.926971	155.920000
301.020142	155.140000
301.113342	155.380000
301.206512	155.320000
301.299713	155.980000
301.392914	155.880000
301.486084	156.520000
301.579285	156.240000
301.672516	156.880000
301.765686	156.300000
301.858887	155.800000
301.952057	155.440000
302.045288	155.580000
302.138458	155.040000
302.231659	155.180000
302.324860	155.700000
302.418060	155.460000
302.511261	155.280000
302.604462	155.340000
302.697662	155.080000
302.790863	154.520000
302.884064	154.560000
302.977264	154.520000
303.070465	154.840000
303.163666	156.020000
303.256866	156.760000
303.350067	156.700000
303.443268	156.920000
303.536469	157.080000
303.629669	155.940000
303.722870	155.680000
303.816071	155.360000
303.909271	155.200000
304.002472	154.000000
304.095673	153.840000
304.188934	153.340000
304.282104	154.700000
304.375336	154.860000
304.468506	154.920000
304.561768	155.000000
304.654968	155.500000
304.748169	154.660000
304.841370	154.360000
304.934601	154.780000
305.027802	154.720000
305.121002	154.140000
305.214233	154.460000
305.307434	154.580000
305.400665	155.260000
305.493866	155.300000
