Model Number: SPM-002-B   
Serial Number: 70087108
Firmware Version: 004.15.4
Exposure Time: 100000.000000us
Data Taken on: 15-01-2021 17:49:35.435
Wavelength	Amplitude
221.570786	0.000000
221.663406	0.000000
221.756027	0.000000
221.848648	0.000000
221.941269	0.000000
222.033905	0.000000
222.126526	0.000000
222.219162	0.000000
222.311798	0.000000
222.404419	0.000000
222.497055	0.000000
222.589676	0.000000
222.682312	0.000000
222.774933	0.000000
222.867569	0.000000
222.960205	0.000000
223.052841	0.000000
223.145462	0.000000
223.238098	0.000000
223.330734	0.000000
223.423386	0.000000
223.516022	0.000000
223.608658	0.000000
223.701309	0.000000
223.793945	0.000000
223.886581	0.000000
223.979218	0.000000
224.071869	0.000000
224.164505	0.000000
224.257156	0.000000
224.349792	0.000000
224.442444	0.000000
224.535095	0.000000
224.627747	0.000000
224.720398	0.000000
224.813034	0.000000
224.905685	0.000000
224.998337	154.220000
225.090988	153.740000
225.183640	153.760000
225.276291	153.600000
225.368942	154.200000
225.461594	154.660000
225.554245	154.660000
225.646912	154.540000
225.739578	155.160000
225.832230	155.660000
225.924896	155.040000
226.017548	155.580000
226.110199	156.100000
226.202866	155.080000
226.295532	154.380000
226.388184	154.320000
226.480850	153.560000
226.573517	152.920000
226.666168	153.380000
226.758835	153.920000
226.851501	154.680000
226.944183	155.100000
227.036850	154.980000
227.129517	154.960000
227.222183	155.120000
227.314850	154.680000
227.407516	154.980000
227.500198	156.220000
227.592865	155.840000
227.685532	155.260000
227.778214	155.120000
227.870880	155.200000
227.963562	155.120000
228.056229	155.580000
228.148926	155.780000
228.241592	156.600000
228.334274	156.240000
228.426956	155.880000
228.519638	156.000000
228.612305	155.600000
228.704987	155.620000
228.797668	155.900000
228.890350	155.520000
228.983032	154.780000
229.075714	155.760000
229.168396	155.000000
229.261108	154.060000
229.353790	154.040000
229.446472	154.460000
229.539169	153.600000
229.631851	153.340000
229.724533	154.060000
229.817230	154.160000
229.909912	155.100000
230.002609	155.640000
230.095306	155.740000
230.187988	155.380000
230.280685	155.180000
230.373383	154.020000
230.466095	153.820000
230.558792	154.220000
230.651474	154.080000
230.744171	154.100000
230.836868	153.920000
230.929581	154.000000
231.022278	153.980000
231.114975	154.440000
231.207672	154.380000
231.300369	155.340000
231.393082	155.500000
231.485779	155.280000
231.578506	155.000000
231.671204	155.180000
231.763916	154.660000
231.856613	154.260000
231.949326	154.740000
232.042023	154.620000
232.134735	154.880000
232.227448	154.860000
232.320160	155.400000
232.412872	155.120000
232.505585	156.280000
232.598297	156.460000
232.691010	155.960000
232.783722	155.200000
232.876450	155.600000
232.969162	154.820000
233.061874	154.060000
233.154587	154.260000
233.247314	154.740000
233.340027	153.820000
233.432739	154.340000
233.525467	154.620000
233.618179	154.960000
233.710907	154.740000
233.803635	155.580000
233.896347	154.880000
233.989090	155.680000
234.081818	155.720000
234.174545	155.760000
234.267258	155.240000
234.359985	155.820000
234.452713	155.320000
234.545441	154.820000
234.638168	154.560000
234.730896	155.300000
234.823639	154.880000
234.916367	155.160000
235.009094	155.480000
235.101822	156.000000
235.194580	155.680000
235.287308	155.760000
235.380051	155.080000
235.472778	155.500000
235.565521	155.480000
235.658249	155.340000
235.750992	155.560000
235.843719	155.700000
235.936462	155.520000
236.029205	154.940000
236.121948	154.440000
236.214691	154.380000
236.307449	155.120000
236.400192	154.800000
236.492935	155.000000
236.585678	155.240000
236.678421	155.300000
236.771164	154.600000
236.863907	155.380000
236.956665	155.340000
237.049408	157.160000
237.142151	156.440000
237.234909	157.480000
237.327652	157.480000
237.420410	157.500000
237.513153	156.180000
237.605927	156.680000
237.698669	155.800000
237.791428	154.620000
237.884186	155.120000
237.976944	154.540000
238.069702	154.640000
238.162445	154.140000
238.255203	154.560000
238.347961	154.540000
238.440720	154.800000
238.533478	154.560000
238.626266	154.600000
238.719025	154.820000
238.811783	154.680000
238.904541	154.540000
238.997314	154.400000
239.090073	154.060000
239.182831	154.440000
239.275604	155.140000
239.368362	154.920000
239.461136	155.220000
239.553909	155.500000
239.646667	155.300000
239.739441	154.540000
239.832214	154.780000
239.925003	154.940000
240.017761	155.620000
240.110535	155.960000
240.203308	155.560000
240.296082	155.900000
240.388855	155.900000
240.481628	155.740000
240.574417	155.500000
240.667191	155.780000
240.759964	155.200000
240.852737	155.040000
240.945526	154.940000
241.038315	154.600000
241.131088	154.700000
241.223877	155.080000
241.316650	154.260000
241.409439	154.480000
241.502228	154.300000
241.595001	154.740000
241.687790	154.700000
241.780579	155.240000
241.873367	155.320000
241.966141	155.500000
242.058929	154.620000
242.151718	154.540000
242.244507	155.160000
242.337311	154.100000
242.430099	154.560000
242.522903	155.220000
242.615692	155.060000
242.708481	154.680000
242.801270	155.500000
242.894073	155.320000
242.986862	155.020000
243.079651	155.800000
243.172455	155.280000
243.265244	155.140000
243.358063	154.460000
243.450867	154.920000
243.543655	154.420000
243.636459	154.880000
243.729263	155.340000
243.822067	155.820000
243.914856	155.700000
244.007660	155.700000
244.100464	155.640000
244.193268	154.960000
244.286072	155.000000
244.378876	154.420000
244.471680	154.160000
244.564499	154.560000
244.657318	155.580000
244.750122	155.680000
244.842926	155.420000
244.935745	155.560000
245.028549	154.880000
245.121368	154.340000
245.214172	154.280000
245.306992	155.080000
245.399796	154.980000
245.492615	155.280000
245.585434	155.020000
245.678253	154.940000
245.771072	154.740000
245.863892	155.320000
245.956711	155.380000
246.049530	155.080000
246.142349	154.740000
246.235168	154.740000
246.327988	154.880000
246.420807	154.800000
246.513626	155.020000
246.606445	155.160000
246.699280	155.280000
246.792099	154.640000
246.884918	154.280000
246.977753	154.120000
247.070587	154.060000
247.163422	153.660000
247.256241	153.980000
247.349075	154.460000
247.441895	154.580000
247.534729	154.660000
247.627563	154.740000
247.720383	155.060000
247.813217	154.780000
247.906052	154.640000
247.998886	154.860000
248.091736	154.720000
248.184570	154.300000
248.277405	154.420000
248.370239	155.360000
248.463074	156.120000
248.555908	156.560000
248.648743	156.340000
248.741592	156.660000
248.834427	155.700000
248.927261	154.380000
249.020111	154.520000
249.112946	155.220000
249.205795	154.340000
249.298630	154.580000
249.391495	155.160000
249.484344	154.520000
249.577179	154.140000
249.670029	154.720000
249.762878	155.480000
249.855728	155.560000
249.948563	156.000000
250.041412	155.580000
250.134262	155.760000
250.227112	155.480000
250.319962	155.260000
250.412827	154.980000
250.505692	154.780000
250.598541	154.780000
250.691391	154.240000
250.784241	154.300000
250.877106	154.580000
250.969955	154.780000
251.062805	155.040000
251.155670	155.840000
251.248520	155.500000
251.341385	156.040000
251.434235	155.920000
251.527100	155.440000
251.619965	154.480000
251.712814	155.440000
251.805695	155.040000
251.898560	155.400000
251.991425	156.060000
252.084290	156.260000
252.177155	155.180000
252.270020	154.880000
252.362885	154.640000
252.455750	154.160000
252.548615	154.000000
252.641479	154.100000
252.734360	153.820000
252.827240	153.740000
252.920105	153.680000
253.012970	153.800000
253.105850	154.140000
253.198715	154.160000
253.291595	154.440000
253.384460	154.040000
253.477341	153.900000
253.570221	153.880000
253.663086	153.680000
253.755966	154.420000
253.848846	154.660000
253.941727	155.080000
254.034592	154.980000
254.127472	154.540000
254.220367	154.000000
254.313248	154.020000
254.406128	153.600000
254.499008	153.920000
254.591904	155.220000
254.684784	155.500000
254.777664	155.440000
254.870544	155.300000
254.963440	155.020000
255.056335	154.700000
255.149216	154.420000
255.242111	155.340000
255.334991	155.860000
255.427887	156.000000
255.520767	156.220000
255.613663	156.500000
255.706558	155.540000
255.799438	155.120000
255.892334	155.040000
255.985229	154.580000
256.078125	154.260000
256.171021	154.360000
256.263916	155.060000
256.356812	155.260000
256.449707	155.540000
256.542603	155.420000
256.635498	155.700000
256.728394	154.940000
256.821289	154.600000
256.914215	154.800000
257.007080	154.860000
257.100006	154.920000
257.192932	155.580000
257.285828	155.800000
257.378723	155.400000
257.471619	155.200000
257.564545	154.760000
257.657440	154.620000
257.750336	155.000000
257.843262	155.060000
257.936157	156.240000
258.029053	156.900000
258.121979	156.940000
258.214874	156.500000
258.307800	156.140000
258.400696	155.020000
258.493622	154.380000
258.586517	153.560000
258.679443	153.980000
258.772339	153.840000
258.865265	153.840000
258.958160	153.560000
259.051086	155.060000
259.144012	154.820000
259.236938	155.840000
259.329834	155.800000
259.422791	156.000000
259.515717	154.760000
259.608612	154.080000
259.701538	153.820000
259.794464	154.000000
259.887390	154.040000
259.980316	154.200000
260.073212	154.480000
260.166138	153.420000
260.259064	153.480000
260.351990	153.980000
260.444916	154.120000
260.537842	154.720000
260.630768	155.700000
260.723694	155.560000
260.816620	155.400000
260.909546	155.420000
261.002472	154.700000
261.095398	154.220000
261.188354	154.340000
261.281281	153.900000
261.374207	154.020000
261.467133	154.840000
261.560089	155.380000
261.653015	154.960000
261.745972	155.660000
261.838867	156.060000
261.931824	156.140000
262.024780	155.640000
262.117706	156.100000
262.210663	156.120000
262.303589	155.760000
262.396515	155.420000
262.489471	156.120000
262.582397	155.860000
262.675354	155.300000
262.768280	155.300000
262.861237	155.320000
262.954163	155.180000
263.047119	155.280000
263.140045	155.120000
263.233002	155.220000
263.325958	154.920000
263.418884	154.360000
263.511841	154.280000
263.604797	154.340000
263.697723	154.140000
263.790680	154.100000
263.883636	154.500000
263.976593	154.720000
264.069550	155.100000
264.162476	154.920000
264.255463	154.840000
264.348419	154.760000
264.441376	154.880000
264.534332	154.240000
264.627289	154.400000
264.720245	155.300000
264.813202	154.580000
264.906158	154.460000
264.999115	155.320000
265.092072	155.220000
265.185028	155.560000
265.277985	156.140000
265.370941	156.060000
265.463898	155.700000
265.556854	155.520000
265.649811	154.380000
265.742798	154.480000
265.835754	154.560000
265.928711	155.060000
266.021667	155.220000
266.114655	155.420000
266.207611	155.840000
266.300568	155.420000
266.393585	154.880000
266.486511	155.020000
266.579498	154.380000
266.672485	153.900000
266.765442	153.760000
266.858429	154.120000
266.951385	153.840000
267.044342	154.280000
267.137329	154.560000
267.230316	154.940000
267.323273	154.540000
267.416260	155.420000
267.509216	155.200000
267.602203	154.740000
267.695160	155.040000
267.788147	154.980000
267.881134	154.360000
267.974091	154.700000
268.067078	154.860000
268.160065	154.880000
268.253052	154.980000
268.346008	155.100000
268.438995	154.760000
268.531982	154.860000
268.624969	154.320000
268.717987	154.480000
268.810944	154.140000
268.903961	154.500000
268.996948	154.260000
269.089905	154.820000
269.182892	154.780000
269.275879	155.180000
269.368866	154.660000
269.461853	154.900000
269.554871	154.620000
269.647858	154.500000
269.740845	154.740000
269.833832	155.520000
269.926819	155.040000
270.019806	155.100000
270.112793	154.840000
270.205811	154.780000
270.298798	154.420000
270.391785	155.080000
270.484772	154.980000
270.577789	155.320000
270.670776	154.560000
270.763763	154.440000
270.856750	154.400000
270.949768	153.920000
271.042786	153.660000
271.135773	154.120000
271.228790	154.540000
271.321808	154.100000
271.414795	154.100000
271.507782	154.240000
271.600800	154.020000
271.693817	153.880000
271.786804	154.360000
271.879822	154.800000
271.972809	154.700000
272.065826	155.220000
272.158844	154.700000
272.251831	155.160000
272.344849	155.140000
272.437866	155.020000
272.530853	154.760000
272.623871	155.460000
272.716888	154.320000
272.809906	154.740000
272.902893	155.060000
272.995911	154.760000
273.088928	154.500000
273.181946	155.040000
273.274963	154.260000
273.367981	153.960000
273.460999	154.000000
273.554047	154.320000
273.647003	154.880000
273.740051	155.280000
273.833069	155.760000
273.926086	155.980000
274.019135	155.580000
274.112152	154.860000
274.205170	154.800000
274.298187	154.880000
274.391205	154.660000
274.484222	154.720000
274.577240	154.840000
274.670258	154.840000
274.763306	154.620000
274.856323	155.120000
274.949341	155.380000
275.042358	155.820000
275.135406	155.740000
275.228424	155.440000
275.321442	155.160000
275.414490	155.000000
275.507507	155.180000
275.600525	155.720000
275.693573	155.800000
275.786591	155.600000
275.879669	155.620000
275.972656	154.900000
276.065735	154.680000
276.158752	155.220000
276.251801	155.940000
276.344818	155.820000
276.437866	156.280000
276.530884	156.080000
276.623932	155.220000
276.716980	155.220000
276.809998	155.260000
276.903046	155.040000
276.996094	155.960000
277.089111	157.060000
277.182159	157.060000
277.275208	156.800000
277.368256	156.780000
277.461304	156.120000
277.554321	154.920000
277.647369	154.740000
277.740417	155.080000
277.833466	154.860000
277.926514	154.780000
278.019562	155.540000
278.112610	154.840000
278.205688	154.460000
278.298706	154.760000
278.391785	154.460000
278.484833	153.980000
278.577881	154.060000
278.670929	154.640000
278.763977	154.660000
278.857025	155.140000
278.950073	155.200000
279.043121	155.200000
279.136169	154.660000
279.229248	154.040000
279.322296	153.740000
279.415344	153.600000
279.508392	153.320000
279.601440	153.600000
279.694519	153.940000
279.787567	153.900000
279.880615	153.740000
279.973694	153.720000
280.066742	153.740000
280.159790	153.900000
280.252869	153.540000
280.345917	153.720000
280.438995	153.980000
280.532074	153.920000
280.625122	154.200000
280.718201	155.220000
280.811279	155.240000
280.904327	155.300000
280.997406	155.540000
281.090454	155.480000
281.183533	154.660000
281.276581	154.760000
281.369659	154.340000
281.462738	154.160000
281.555786	154.120000
281.648865	154.580000
281.741943	154.460000
281.835022	155.340000
281.928070	155.180000
282.021149	154.780000
282.114227	154.500000
282.207306	154.520000
282.300385	154.680000
282.393433	155.100000
282.486511	155.280000
282.579590	155.660000
282.672668	156.120000
282.765747	155.520000
282.858856	154.800000
282.951904	155.060000
283.045013	155.280000
283.138062	155.440000
283.231171	155.800000
283.324249	156.240000
283.417328	156.100000
283.510406	155.700000
283.603485	155.420000
283.696564	155.180000
283.789642	155.240000
283.882751	154.900000
283.975830	155.360000
284.068909	154.900000
284.161987	155.500000
284.255066	155.220000
284.348175	155.400000
284.441254	155.040000
284.534332	155.900000
284.627441	155.260000
284.720520	155.100000
284.813599	155.120000
284.906708	155.160000
284.999786	154.200000
285.092896	153.920000
285.185974	154.800000
285.279053	154.380000
285.372192	154.160000
285.465240	155.000000
285.558380	154.960000
285.651459	154.420000
285.744568	155.540000
285.837677	155.500000
285.930756	155.480000
286.023865	155.620000
286.116943	155.280000
286.210052	154.820000
286.303162	154.660000
286.396240	154.460000
286.489349	154.640000
286.582458	155.140000
286.675568	154.880000
286.768646	155.020000
286.861755	155.100000
286.954865	155.740000
287.047974	155.140000
287.141083	154.940000
287.234161	154.880000
287.327271	154.680000
287.420380	154.980000
287.513519	155.120000
287.606598	155.520000
287.699738	155.740000
287.792816	155.700000
287.885956	155.120000
287.979034	155.120000
288.072174	155.140000
288.165283	154.940000
288.258392	155.200000
288.351501	154.520000
288.444611	154.960000
288.537720	155.160000
288.630859	155.120000
288.723969	155.400000
288.817078	156.060000
288.910187	155.900000
289.003296	155.460000
289.096436	155.040000
289.189545	154.700000
289.282654	154.180000
289.375763	154.380000
289.468903	154.760000
289.562012	155.300000
289.655121	154.980000
289.748260	155.180000
289.841400	155.420000
289.934509	155.040000
290.027649	155.180000
290.120728	155.260000
290.213898	155.300000
290.306976	154.960000
290.400146	155.160000
290.493256	154.660000
290.586395	154.840000
290.679535	154.920000
290.772644	154.700000
290.865784	154.060000
290.958893	153.860000
291.052032	153.600000
291.145172	153.820000
291.238281	153.240000
291.331421	153.740000
291.424561	154.700000
291.517670	154.540000
291.610809	154.340000
291.703949	154.400000
291.797089	154.540000
291.890228	153.940000
291.983337	154.320000
292.076477	154.440000
292.169617	155.060000
292.262756	154.900000
292.355927	154.740000
292.449036	154.600000
292.542206	154.700000
292.635315	155.020000
292.728485	155.320000
292.821625	155.280000
292.914764	156.220000
293.007904	156.220000
293.101044	155.920000
293.194183	155.740000
293.287323	155.840000
293.380463	154.980000
293.473602	154.720000
293.566742	154.940000
293.659882	155.300000
293.753021	155.800000
293.846191	155.960000
293.939331	155.720000
294.032471	155.420000
294.125610	154.940000
294.218781	155.180000
294.311920	155.420000
294.405060	155.580000
294.498230	155.620000
294.591370	155.720000
294.684540	155.000000
294.777679	154.380000
294.870850	154.740000
294.963959	154.480000
295.057159	154.200000
295.150299	154.360000
295.243469	154.660000
295.336609	154.120000
295.429779	154.360000
295.522919	155.000000
295.616089	155.040000
295.709229	155.320000
295.802399	155.680000
295.895569	155.380000
295.988708	154.800000
296.081879	154.800000
296.175018	154.300000
296.268188	153.980000
296.361359	154.560000
296.454529	154.920000
296.547668	154.660000
296.640839	155.100000
296.734009	155.200000
296.827179	155.160000
296.920319	155.500000
297.013519	155.540000
297.106659	155.460000
297.199860	155.100000
297.292999	154.900000
297.386200	154.360000
297.479309	154.320000
297.572510	154.140000
297.665680	154.200000
297.758850	154.180000
297.852020	154.280000
297.945190	154.200000
298.038361	154.020000
298.131531	155.120000
298.224701	154.800000
298.317871	154.520000
298.411072	154.100000
298.504242	153.980000
298.597412	153.160000
298.690582	153.540000
298.783752	153.600000
298.876923	154.300000
298.970093	154.340000
299.063293	154.720000
299.156464	155.360000
299.249634	155.940000
299.342834	156.060000
299.436005	156.680000
299.529205	156.380000
299.622345	156.200000
299.715576	155.320000
299.808716	154.900000
299.901917	154.420000
299.995117	155.020000
300.088287	154.880000
300.181488	154.780000
300.274658	154.700000
300.367828	154.620000
300.461029	154.040000
300.554199	154.060000
300.647400	154.340000
300.740601	154.760000
300.833771	154.680000
300.926971	155.100000
301.020142	154.700000
301.113342	154.640000
301.206512	154.880000
301.299713	155.320000
301.392914	155.120000
301.486084	155.580000
301.579285	155.920000
301.672516	156.220000
301.765686	155.860000
301.858887	155.760000
301.952057	155.560000
302.045288	155.380000
302.138458	155.020000
302.231659	155.440000
302.324860	155.260000
302.418060	154.980000
302.511261	154.700000
302.604462	154.720000
302.697662	154.040000
302.790863	153.980000
302.884064	153.620000
302.977264	153.860000
303.070465	154.100000
303.163666	155.140000
303.256866	155.800000
303.350067	156.120000
303.443268	156.480000
303.536469	156.620000
303.629669	155.660000
303.722870	155.380000
303.816071	154.980000
303.909271	154.500000
304.002472	153.360000
304.095673	153.440000
304.188934	152.940000
304.282104	154.140000
304.375336	154.300000
304.468506	154.800000
304.561768	154.780000
304.654968	155.340000
304.748169	154.640000
304.841370	154.600000
304.934601	154.680000
305.027802	154.140000
305.121002	153.580000
305.214233	153.540000
305.307434	153.640000
305.400665	154.080000
305.493866	154.380000
