Model Number: SPM-002-B   
Serial Number: 70087108
Firmware Version: 004.15.4
Exposure Time: 100000.000000us
Data Taken on: 15-01-2021 17:48:48.439
Wavelength	Amplitude
221.570786	0.000000
221.663406	0.000000
221.756027	0.000000
221.848648	0.000000
221.941269	0.000000
222.033905	0.000000
222.126526	0.000000
222.219162	0.000000
222.311798	0.000000
222.404419	0.000000
222.497055	0.000000
222.589676	0.000000
222.682312	0.000000
222.774933	0.000000
222.867569	0.000000
222.960205	0.000000
223.052841	0.000000
223.145462	0.000000
223.238098	0.000000
223.330734	0.000000
223.423386	0.000000
223.516022	0.000000
223.608658	0.000000
223.701309	0.000000
223.793945	0.000000
223.886581	0.000000
223.979218	0.000000
224.071869	0.000000
224.164505	0.000000
224.257156	0.000000
224.349792	0.000000
224.442444	0.000000
224.535095	0.000000
224.627747	0.000000
224.720398	0.000000
224.813034	0.000000
224.905685	0.000000
224.998337	154.260000
225.090988	153.440000
225.183640	153.480000
225.276291	153.360000
225.368942	153.760000
225.461594	154.100000
225.554245	154.740000
225.646912	154.240000
225.739578	154.800000
225.832230	155.040000
225.924896	154.260000
226.017548	154.520000
226.110199	155.320000
226.202866	154.560000
226.295532	154.380000
226.388184	154.260000
226.480850	153.500000
226.573517	153.140000
226.666168	153.440000
226.758835	153.560000
226.851501	154.360000
226.944183	154.580000
227.036850	154.160000
227.129517	154.280000
227.222183	154.380000
227.314850	154.060000
227.407516	154.480000
227.500198	155.580000
227.592865	155.120000
227.685532	154.640000
227.778214	154.280000
227.870880	154.600000
227.963562	154.580000
228.056229	155.140000
228.148926	155.440000
228.241592	156.380000
228.334274	155.440000
228.426956	154.940000
228.519638	154.980000
228.612305	154.440000
228.704987	153.900000
228.797668	154.360000
228.890350	153.920000
228.983032	153.480000
229.075714	154.300000
229.168396	154.240000
229.261108	153.540000
229.353790	154.060000
229.446472	154.500000
229.539169	154.140000
229.631851	153.840000
229.724533	154.220000
229.817230	154.000000
229.909912	154.960000
230.002609	155.040000
230.095306	155.220000
230.187988	155.160000
230.280685	154.840000
230.373383	153.580000
230.466095	153.160000
230.558792	153.220000
230.651474	153.360000
230.744171	153.540000
230.836868	153.460000
230.929581	154.240000
231.022278	154.300000
231.114975	154.600000
231.207672	154.640000
231.300369	155.260000
231.393082	155.220000
231.485779	154.980000
231.578506	154.780000
231.671204	154.760000
231.763916	154.420000
231.856613	154.120000
231.949326	154.360000
232.042023	154.320000
232.134735	154.380000
232.227448	154.040000
232.320160	154.540000
232.412872	154.660000
232.505585	155.360000
232.598297	155.700000
232.691010	155.780000
232.783722	154.960000
232.876450	155.440000
232.969162	154.760000
233.061874	154.080000
233.154587	154.080000
233.247314	154.520000
233.340027	153.760000
233.432739	154.480000
233.525467	154.440000
233.618179	154.800000
233.710907	154.420000
233.803635	154.800000
233.896347	154.200000
233.989090	155.220000
234.081818	155.000000
234.174545	155.360000
234.267258	155.000000
234.359985	155.260000
234.452713	154.860000
234.545441	154.600000
234.638168	154.040000
234.730896	154.640000
234.823639	154.420000
234.916367	154.600000
235.009094	154.620000
235.101822	154.820000
235.194580	154.280000
235.287308	154.540000
235.380051	154.040000
235.472778	154.540000
235.565521	155.140000
235.658249	155.040000
235.750992	154.880000
235.843719	154.780000
235.936462	154.700000
236.029205	154.060000
236.121948	153.860000
236.214691	154.200000
236.307449	155.140000
236.400192	154.940000
236.492935	154.720000
236.585678	155.140000
236.678421	154.800000
236.771164	154.060000
236.863907	154.500000
236.956665	154.800000
237.049408	156.420000
237.142151	156.080000
237.234909	156.980000
237.327652	156.620000
237.420410	156.460000
237.513153	155.280000
237.605927	155.040000
237.698669	154.220000
237.791428	153.780000
237.884186	154.440000
237.976944	153.740000
238.069702	154.460000
238.162445	154.320000
238.255203	154.620000
238.347961	154.860000
238.440720	154.840000
238.533478	154.320000
238.626266	154.040000
238.719025	154.420000
238.811783	153.880000
238.904541	154.040000
238.997314	154.020000
239.090073	153.760000
239.182831	153.920000
239.275604	154.500000
239.368362	154.060000
239.461136	154.500000
239.553909	155.020000
239.646667	154.600000
239.739441	154.060000
239.832214	154.740000
239.925003	154.520000
240.017761	155.000000
240.110535	155.340000
240.203308	155.160000
240.296082	155.060000
240.388855	155.120000
240.481628	155.100000
240.574417	155.440000
240.667191	155.480000
240.759964	155.020000
240.852737	155.260000
240.945526	154.740000
241.038315	154.060000
241.131088	154.040000
241.223877	154.660000
241.316650	153.860000
241.409439	154.300000
241.502228	154.260000
241.595001	154.920000
241.687790	154.440000
241.780579	154.940000
241.873367	155.040000
241.966141	154.960000
242.058929	154.000000
242.151718	154.500000
242.244507	154.980000
242.337311	154.200000
242.430099	154.840000
242.522903	155.320000
242.615692	154.760000
242.708481	154.720000
242.801270	154.940000
242.894073	154.560000
242.986862	154.440000
243.079651	155.220000
243.172455	154.540000
243.265244	155.160000
243.358063	154.460000
243.450867	154.840000
243.543655	154.600000
243.636459	154.820000
243.729263	154.820000
243.822067	155.240000
243.914856	155.280000
244.007660	155.320000
244.100464	155.440000
244.193268	154.480000
244.286072	154.540000
244.378876	153.960000
244.471680	153.660000
244.564499	154.080000
244.657318	155.260000
244.750122	155.380000
244.842926	154.940000
244.935745	155.420000
245.028549	154.740000
245.121368	154.080000
245.214172	154.120000
245.306992	154.920000
245.399796	154.220000
245.492615	154.320000
245.585434	154.040000
245.678253	153.980000
245.771072	153.780000
245.863892	154.240000
245.956711	154.540000
246.049530	154.540000
246.142349	154.420000
246.235168	154.500000
246.327988	155.000000
246.420807	154.720000
246.513626	154.840000
246.606445	154.600000
246.699280	154.740000
246.792099	154.160000
246.884918	153.660000
246.977753	153.460000
247.070587	153.720000
247.163422	153.420000
247.256241	153.460000
247.349075	154.060000
247.441895	154.540000
247.534729	154.580000
247.627563	154.820000
247.720383	155.480000
247.813217	155.060000
247.906052	154.840000
247.998886	154.960000
248.091736	154.680000
248.184570	153.920000
248.277405	154.300000
248.370239	155.360000
248.463074	156.280000
248.555908	156.520000
248.648743	156.560000
248.741592	156.780000
248.834427	155.500000
248.927261	154.280000
249.020111	154.700000
249.112946	155.240000
249.205795	154.420000
249.298630	154.840000
249.391495	154.720000
249.484344	154.080000
249.577179	153.760000
249.670029	154.360000
249.762878	154.740000
249.855728	155.160000
249.948563	155.400000
250.041412	154.980000
250.134262	154.960000
250.227112	154.680000
250.319962	154.740000
250.412827	154.540000
250.505692	154.080000
250.598541	154.220000
250.691391	153.940000
250.784241	153.840000
250.877106	154.060000
250.969955	154.320000
251.062805	154.780000
251.155670	155.120000
251.248520	154.920000
251.341385	154.960000
251.434235	155.160000
251.527100	154.500000
251.619965	154.340000
251.712814	154.940000
251.805695	154.700000
251.898560	154.720000
251.991425	154.740000
252.084290	154.760000
252.177155	153.820000
252.270020	153.860000
252.362885	153.920000
252.455750	154.140000
252.548615	153.840000
252.641479	154.380000
252.734360	154.300000
252.827240	154.140000
252.920105	154.340000
253.012970	154.320000
253.105850	153.940000
253.198715	153.680000
253.291595	153.940000
253.384460	153.060000
253.477341	152.960000
253.570221	153.380000
253.663086	153.360000
253.755966	153.920000
253.848846	154.420000
253.941727	155.160000
254.034592	154.820000
254.127472	154.440000
254.220367	154.320000
254.313248	154.340000
254.406128	153.640000
254.499008	154.240000
254.591904	155.300000
254.684784	155.480000
254.777664	155.820000
254.870544	155.780000
254.963440	155.300000
255.056335	155.200000
255.149216	154.460000
255.242111	154.340000
255.334991	154.740000
255.427887	154.900000
255.520767	154.920000
255.613663	155.200000
255.706558	154.600000
255.799438	154.260000
255.892334	153.860000
255.985229	153.600000
256.078125	153.300000
256.171021	153.560000
256.263916	154.100000
256.356812	154.680000
256.449707	154.860000
256.542603	154.820000
256.635498	155.360000
256.728394	155.040000
256.821289	154.880000
256.914215	155.000000
257.007080	155.320000
257.100006	155.320000
257.192932	155.640000
257.285828	155.760000
257.378723	155.360000
257.471619	155.140000
257.564545	154.580000
257.657440	154.660000
257.750336	155.100000
257.843262	155.020000
257.936157	156.320000
258.029053	156.700000
258.121979	156.660000
258.214874	155.980000
258.307800	155.940000
258.400696	154.400000
258.493622	154.200000
258.586517	153.120000
258.679443	153.660000
258.772339	153.380000
258.865265	153.660000
258.958160	153.180000
259.051086	154.560000
259.144012	154.140000
259.236938	155.040000
259.329834	155.140000
259.422791	155.180000
259.515717	154.200000
259.608612	154.100000
259.701538	154.020000
259.794464	153.840000
259.887390	154.020000
259.980316	153.940000
260.073212	153.700000
260.166138	152.680000
260.259064	153.020000
260.351990	153.500000
260.444916	153.780000
260.537842	154.400000
260.630768	155.640000
260.723694	155.220000
260.816620	155.060000
260.909546	154.980000
261.002472	154.560000
261.095398	153.780000
261.188354	154.080000
261.281281	153.700000
261.374207	153.800000
261.467133	154.420000
261.560089	154.820000
261.653015	154.440000
261.745972	155.400000
261.838867	155.940000
261.931824	156.160000
262.024780	155.740000
262.117706	156.420000
262.210663	156.060000
262.303589	155.720000
262.396515	155.560000
262.489471	156.420000
262.582397	156.000000
262.675354	155.600000
262.768280	155.560000
262.861237	155.180000
262.954163	154.860000
263.047119	154.980000
263.140045	154.760000
263.233002	154.780000
263.325958	154.840000
263.418884	154.140000
263.511841	153.760000
263.604797	153.840000
263.697723	154.020000
263.790680	153.900000
263.883636	154.560000
263.976593	154.780000
264.069550	154.980000
264.162476	154.680000
264.255463	154.620000
264.348419	154.300000
264.441376	154.500000
264.534332	154.160000
264.627289	154.400000
264.720245	154.920000
264.813202	154.300000
264.906158	154.500000
264.999115	155.240000
265.092072	155.080000
265.185028	155.360000
265.277985	156.040000
265.370941	155.660000
265.463898	155.220000
265.556854	154.780000
265.649811	153.740000
265.742798	153.680000
265.835754	153.800000
265.928711	154.080000
266.021667	154.380000
266.114655	154.880000
266.207611	155.140000
266.300568	154.720000
266.393585	154.380000
266.486511	154.580000
266.579498	153.880000
266.672485	153.780000
266.765442	153.780000
266.858429	154.320000
266.951385	154.040000
267.044342	154.340000
267.137329	154.400000
267.230316	154.940000
267.323273	154.400000
267.416260	155.160000
267.509216	154.580000
267.602203	154.420000
267.695160	154.480000
267.788147	154.320000
267.881134	153.680000
267.974091	154.620000
268.067078	154.480000
268.160065	154.320000
268.253052	154.500000
268.346008	154.500000
268.438995	154.060000
268.531982	154.340000
268.624969	154.020000
268.717987	154.500000
268.810944	154.560000
268.903961	155.060000
268.996948	154.860000
269.089905	155.700000
269.182892	155.520000
269.275879	155.880000
269.368866	155.200000
269.461853	155.320000
269.554871	154.980000
269.647858	154.980000
269.740845	155.180000
269.833832	155.820000
269.926819	155.600000
270.019806	155.580000
270.112793	155.300000
270.205811	155.060000
270.298798	154.500000
270.391785	155.120000
270.484772	154.720000
270.577789	154.660000
270.670776	154.400000
270.763763	154.740000
270.856750	154.420000
270.949768	154.260000
271.042786	154.520000
271.135773	154.620000
271.228790	154.920000
271.321808	154.460000
271.414795	154.260000
271.507782	154.060000
271.600800	153.620000
271.693817	153.440000
271.786804	154.320000
271.879822	154.680000
271.972809	154.580000
272.065826	155.180000
272.158844	154.600000
272.251831	154.740000
272.344849	154.620000
272.437866	154.360000
272.530853	154.240000
272.623871	154.620000
272.716888	153.320000
272.809906	153.720000
272.902893	153.940000
272.995911	153.420000
273.088928	153.340000
273.181946	153.960000
273.274963	153.540000
273.367981	153.640000
273.460999	153.900000
273.554047	154.460000
273.647003	155.200000
273.740051	155.160000
273.833069	155.260000
273.926086	155.460000
274.019135	154.880000
274.112152	154.360000
274.205170	154.920000
274.298187	155.220000
274.391205	154.900000
274.484222	155.000000
274.577240	154.860000
274.670258	154.600000
274.763306	154.280000
274.856323	154.560000
274.949341	154.900000
275.042358	155.080000
275.135406	155.020000
275.228424	154.780000
275.321442	154.840000
275.414490	154.260000
275.507507	154.500000
275.600525	154.780000
275.693573	154.840000
275.786591	154.380000
275.879669	154.780000
275.972656	154.300000
276.065735	154.180000
276.158752	154.780000
276.251801	155.860000
276.344818	156.000000
276.437866	156.180000
276.530884	155.860000
276.623932	154.840000
276.716980	154.680000
276.809998	154.540000
276.903046	154.500000
276.996094	155.380000
277.089111	156.360000
277.182159	156.540000
277.275208	156.320000
277.368256	156.560000
277.461304	156.160000
277.554321	155.260000
277.647369	155.000000
277.740417	154.920000
277.833466	154.400000
277.926514	154.200000
278.019562	155.060000
278.112610	154.140000
278.205688	154.460000
278.298706	154.600000
278.391785	154.240000
278.484833	153.960000
278.577881	154.100000
278.670929	154.440000
278.763977	154.700000
278.857025	155.380000
278.950073	155.200000
279.043121	155.280000
279.136169	154.700000
279.229248	154.160000
279.322296	154.000000
279.415344	153.940000
279.508392	154.000000
279.601440	154.000000
279.694519	154.200000
279.787567	153.960000
279.880615	153.820000
279.973694	153.760000
280.066742	154.020000
280.159790	154.260000
280.252869	153.940000
280.345917	154.280000
280.438995	154.440000
280.532074	154.380000
280.625122	154.560000
280.718201	155.500000
280.811279	155.380000
280.904327	155.120000
280.997406	155.200000
281.090454	155.080000
281.183533	154.200000
281.276581	154.240000
281.369659	154.120000
281.462738	154.160000
281.555786	154.260000
281.648865	154.580000
281.741943	154.360000
281.835022	155.240000
281.928070	154.880000
282.021149	154.700000
282.114227	154.620000
282.207306	154.900000
282.300385	154.900000
282.393433	155.020000
282.486511	155.160000
282.579590	155.440000
282.672668	155.560000
282.765747	154.880000
282.858856	154.560000
282.951904	154.380000
283.045013	154.660000
283.138062	154.720000
283.231171	155.240000
283.324249	155.800000
283.417328	155.980000
283.510406	155.320000
283.603485	155.060000
283.696564	154.880000
283.789642	154.900000
283.882751	154.720000
283.975830	155.280000
284.068909	155.140000
284.161987	155.500000
284.255066	155.120000
284.348175	155.260000
284.441254	155.220000
284.534332	155.820000
284.627441	155.220000
284.720520	154.840000
284.813599	154.640000
284.906708	154.620000
284.999786	153.720000
285.092896	153.640000
285.185974	154.900000
285.279053	154.420000
285.372192	154.260000
285.465240	155.400000
285.558380	155.260000
285.651459	154.660000
285.744568	155.980000
285.837677	155.740000
285.930756	155.200000
286.023865	155.500000
286.116943	155.100000
286.210052	154.600000
286.303162	154.600000
286.396240	154.620000
286.489349	154.100000
286.582458	154.600000
286.675568	154.380000
286.768646	154.300000
286.861755	154.440000
286.954865	155.620000
287.047974	154.900000
287.141083	154.960000
287.234161	155.000000
287.327271	154.880000
287.420380	154.980000
287.513519	155.220000
287.606598	155.260000
287.699738	155.400000
287.792816	155.220000
287.885956	154.300000
287.979034	154.280000
288.072174	154.520000
288.165283	154.600000
288.258392	155.080000
288.351501	154.980000
288.444611	155.360000
288.537720	155.360000
288.630859	155.040000
288.723969	154.820000
288.817078	155.400000
288.910187	155.200000
289.003296	154.400000
289.096436	154.380000
289.189545	154.260000
289.282654	153.600000
289.375763	153.940000
289.468903	154.580000
289.562012	155.060000
289.655121	155.060000
289.748260	155.580000
289.841400	155.740000
289.934509	155.540000
290.027649	155.400000
290.120728	155.260000
290.213898	155.060000
290.306976	154.600000
290.400146	154.820000
290.493256	154.500000
290.586395	154.480000
290.679535	154.660000
290.772644	154.840000
290.865784	154.160000
290.958893	154.240000
291.052032	154.080000
291.145172	154.200000
291.238281	153.720000
291.331421	153.960000
291.424561	154.300000
291.517670	154.300000
291.610809	154.180000
291.703949	154.120000
291.797089	154.520000
291.890228	153.880000
291.983337	153.660000
292.076477	153.700000
292.169617	154.240000
292.262756	153.880000
292.355927	153.780000
292.449036	153.960000
292.542206	153.820000
292.635315	153.620000
292.728485	153.920000
292.821625	154.080000
292.914764	155.340000
293.007904	155.500000
293.101044	155.700000
293.194183	155.460000
293.287323	155.760000
293.380463	154.840000
293.473602	154.440000
293.566742	154.720000
293.659882	155.300000
293.753021	155.460000
293.846191	155.320000
293.939331	155.080000
294.032471	154.600000
294.125610	154.200000
294.218781	154.340000
294.311920	154.640000
294.405060	154.980000
294.498230	154.900000
294.591370	155.020000
294.684540	154.460000
294.777679	153.980000
294.870850	154.340000
294.963959	154.560000
295.057159	154.400000
295.150299	154.640000
295.243469	154.720000
295.336609	154.360000
295.429779	154.360000
295.522919	154.800000
295.616089	154.680000
295.709229	155.120000
295.802399	155.180000
295.895569	154.840000
295.988708	154.400000
296.081879	154.800000
296.175018	154.240000
296.268188	154.460000
296.361359	155.080000
296.454529	155.600000
296.547668	155.300000
296.640839	156.040000
296.734009	155.580000
296.827179	155.520000
296.920319	155.340000
297.013519	155.280000
297.106659	155.020000
297.199860	154.900000
297.292999	154.660000
297.386200	154.180000
297.479309	154.060000
297.572510	153.880000
297.665680	153.860000
297.758850	153.820000
297.852020	153.680000
297.945190	153.560000
298.038361	153.020000
298.131531	154.080000
298.224701	153.920000
298.317871	153.780000
298.411072	153.440000
298.504242	153.640000
298.597412	152.800000
298.690582	152.960000
298.783752	153.240000
298.876923	153.900000
298.970093	154.100000
299.063293	154.620000
299.156464	155.100000
299.249634	155.400000
299.342834	155.560000
299.436005	155.920000
299.529205	155.420000
299.622345	155.140000
299.715576	154.280000
299.808716	153.880000
299.901917	153.860000
299.995117	154.620000
300.088287	154.780000
300.181488	155.260000
300.274658	155.300000
300.367828	155.220000
300.461029	154.980000
300.554199	154.980000
300.647400	154.800000
300.740601	155.140000
300.833771	154.880000
300.926971	154.800000
301.020142	154.160000
301.113342	154.180000
301.206512	154.100000
301.299713	154.200000
301.392914	154.100000
301.486084	154.600000
301.579285	154.720000
301.672516	155.260000
301.765686	155.120000
301.858887	155.060000
301.952057	154.900000
302.045288	154.740000
302.138458	154.300000
302.231659	154.120000
302.324860	154.020000
302.418060	153.680000
302.511261	153.920000
302.604462	154.160000
302.697662	154.180000
302.790863	153.960000
302.884064	153.840000
302.977264	153.880000
303.070465	153.980000
303.163666	154.920000
303.256866	155.480000
303.350067	155.700000
303.443268	155.720000
303.536469	155.740000
303.629669	155.020000
303.722870	154.760000
303.816071	154.400000
303.909271	154.220000
304.002472	153.240000
304.095673	153.080000
304.188934	152.700000
304.282104	153.860000
304.375336	153.980000
304.468506	154.340000
304.561768	154.320000
304.654968	154.860000
304.748169	154.020000
304.841370	153.640000
304.934601	153.860000
305.027802	153.960000
305.121002	153.380000
305.214233	153.540000
305.307434	153.840000
305.400665	154.680000
305.493866	154.540000
