Model Number: SPM-002-B   
Serial Number: 70087108
Firmware Version: 004.15.4
Exposure Time: 100000.000000us
Data Taken on: 15-01-2021 17:49:54.918
Wavelength	Amplitude
221.570786	0.000000
221.663406	0.000000
221.756027	0.000000
221.848648	0.000000
221.941269	0.000000
222.033905	0.000000
222.126526	0.000000
222.219162	0.000000
222.311798	0.000000
222.404419	0.000000
222.497055	0.000000
222.589676	0.000000
222.682312	0.000000
222.774933	0.000000
222.867569	0.000000
222.960205	0.000000
223.052841	0.000000
223.145462	0.000000
223.238098	0.000000
223.330734	0.000000
223.423386	0.000000
223.516022	0.000000
223.608658	0.000000
223.701309	0.000000
223.793945	0.000000
223.886581	0.000000
223.979218	0.000000
224.071869	0.000000
224.164505	0.000000
224.257156	0.000000
224.349792	0.000000
224.442444	0.000000
224.535095	0.000000
224.627747	0.000000
224.720398	0.000000
224.813034	0.000000
224.905685	0.000000
224.998337	153.840000
225.090988	153.760000
225.183640	153.980000
225.276291	154.020000
225.368942	154.540000
225.461594	155.300000
225.554245	155.240000
225.646912	155.300000
225.739578	155.840000
225.832230	156.040000
225.924896	154.860000
226.017548	155.260000
226.110199	155.780000
226.202866	154.860000
226.295532	154.680000
226.388184	154.480000
226.480850	153.780000
226.573517	153.140000
226.666168	153.360000
226.758835	153.680000
226.851501	154.620000
226.944183	155.040000
227.036850	154.880000
227.129517	155.060000
227.222183	155.220000
227.314850	155.000000
227.407516	155.260000
227.500198	156.040000
227.592865	155.500000
227.685532	154.980000
227.778214	154.540000
227.870880	154.760000
227.963562	155.020000
228.056229	155.820000
228.148926	155.900000
228.241592	156.840000
228.334274	156.360000
228.426956	155.700000
228.519638	155.360000
228.612305	154.820000
228.704987	154.780000
228.797668	154.720000
228.890350	154.600000
228.983032	154.220000
229.075714	155.140000
229.168396	154.760000
229.261108	154.540000
229.353790	154.760000
229.446472	155.120000
229.539169	154.640000
229.631851	153.880000
229.724533	154.180000
229.817230	154.360000
229.909912	155.700000
230.002609	155.740000
230.095306	155.900000
230.187988	155.960000
230.280685	155.480000
230.373383	153.880000
230.466095	153.660000
230.558792	154.400000
230.651474	154.100000
230.744171	154.160000
230.836868	154.200000
230.929581	154.620000
231.022278	154.540000
231.114975	154.880000
231.207672	154.900000
231.300369	155.440000
231.393082	155.340000
231.485779	155.100000
231.578506	155.020000
231.671204	155.240000
231.763916	154.980000
231.856613	154.860000
231.949326	154.920000
232.042023	154.600000
232.134735	154.240000
232.227448	153.880000
232.320160	154.460000
232.412872	154.780000
232.505585	155.700000
232.598297	156.060000
232.691010	156.260000
232.783722	155.480000
232.876450	155.860000
232.969162	155.120000
233.061874	154.640000
233.154587	154.280000
233.247314	154.780000
233.340027	153.860000
233.432739	154.540000
233.525467	154.680000
233.618179	155.260000
233.710907	154.560000
233.803635	155.040000
233.896347	154.440000
233.989090	154.940000
234.081818	154.900000
234.174545	155.660000
234.267258	154.960000
234.359985	155.240000
234.452713	155.020000
234.545441	154.920000
234.638168	154.400000
234.730896	155.160000
234.823639	154.880000
234.916367	155.260000
235.009094	155.000000
235.101822	155.080000
235.194580	154.980000
235.287308	155.160000
235.380051	154.360000
235.472778	154.760000
235.565521	155.100000
235.658249	154.600000
235.750992	154.880000
235.843719	154.940000
235.936462	155.040000
236.029205	154.460000
236.121948	154.420000
236.214691	154.720000
236.307449	155.800000
236.400192	155.280000
236.492935	155.140000
236.585678	155.340000
236.678421	154.740000
236.771164	153.880000
236.863907	154.880000
236.956665	155.320000
237.049408	157.080000
237.142151	156.740000
237.234909	157.900000
237.327652	157.560000
237.420410	157.340000
237.513153	155.820000
237.605927	156.160000
237.698669	155.240000
237.791428	154.360000
237.884186	155.120000
237.976944	154.880000
238.069702	155.060000
238.162445	154.620000
238.255203	155.100000
238.347961	155.120000
238.440720	155.160000
238.533478	154.720000
238.626266	154.580000
238.719025	154.700000
238.811783	154.120000
238.904541	153.880000
238.997314	153.880000
239.090073	153.820000
239.182831	154.080000
239.275604	155.000000
239.368362	155.060000
239.461136	155.220000
239.553909	155.520000
239.646667	155.060000
239.739441	154.200000
239.832214	154.480000
239.925003	154.640000
240.017761	155.140000
240.110535	155.860000
240.203308	155.680000
240.296082	155.740000
240.388855	155.700000
240.481628	155.500000
240.574417	155.320000
240.667191	155.620000
240.759964	155.260000
240.852737	155.060000
240.945526	154.680000
241.038315	154.540000
241.131088	154.660000
241.223877	155.080000
241.316650	154.860000
241.409439	155.320000
241.502228	154.840000
241.595001	155.360000
241.687790	155.180000
241.780579	155.200000
241.873367	155.200000
241.966141	155.620000
242.058929	154.800000
242.151718	154.920000
242.244507	155.680000
242.337311	154.820000
242.430099	155.260000
242.522903	155.580000
242.615692	155.380000
242.708481	155.140000
242.801270	156.100000
242.894073	155.980000
242.986862	155.820000
243.079651	156.240000
243.172455	155.880000
243.265244	155.600000
243.358063	154.800000
243.450867	155.480000
243.543655	155.060000
243.636459	155.260000
243.729263	155.700000
243.822067	156.140000
243.914856	155.900000
244.007660	156.180000
244.100464	156.200000
244.193268	155.540000
244.286072	155.420000
244.378876	154.960000
244.471680	154.520000
244.564499	154.940000
244.657318	155.920000
244.750122	156.240000
244.842926	155.820000
244.935745	156.500000
245.028549	155.740000
245.121368	155.200000
245.214172	155.020000
245.306992	155.880000
245.399796	155.300000
245.492615	155.620000
245.585434	155.360000
245.678253	155.300000
245.771072	154.860000
245.863892	155.280000
245.956711	155.300000
246.049530	154.860000
246.142349	154.600000
246.235168	155.020000
246.327988	155.380000
246.420807	155.220000
246.513626	155.580000
246.606445	155.600000
246.699280	155.540000
246.792099	155.040000
246.884918	154.820000
246.977753	154.680000
247.070587	154.660000
247.163422	154.300000
247.256241	154.100000
247.349075	154.660000
247.441895	155.000000
247.534729	154.860000
247.627563	154.720000
247.720383	155.840000
247.813217	155.480000
247.906052	155.280000
247.998886	155.400000
248.091736	155.420000
248.184570	154.480000
248.277405	154.660000
248.370239	155.520000
248.463074	156.740000
248.555908	157.020000
248.648743	156.860000
248.741592	156.880000
248.834427	155.980000
248.927261	154.740000
249.020111	155.500000
249.112946	156.180000
249.205795	155.620000
249.298630	156.000000
249.391495	156.020000
249.484344	155.080000
249.577179	154.720000
249.670029	155.180000
249.762878	155.340000
249.855728	155.620000
249.948563	155.580000
250.041412	155.180000
250.134262	155.220000
250.227112	154.920000
250.319962	154.760000
250.412827	155.200000
250.505692	155.080000
250.598541	155.120000
250.691391	155.020000
250.784241	155.140000
250.877106	155.000000
250.969955	154.980000
251.062805	155.560000
251.155670	156.400000
251.248520	156.240000
251.341385	156.260000
251.434235	156.080000
251.527100	155.420000
251.619965	154.680000
251.712814	155.380000
251.805695	155.360000
251.898560	155.860000
251.991425	156.160000
252.084290	156.240000
252.177155	155.440000
252.270020	155.400000
252.362885	155.180000
252.455750	155.400000
252.548615	155.240000
252.641479	155.180000
252.734360	154.840000
252.827240	154.760000
252.920105	154.440000
253.012970	154.000000
253.105850	154.260000
253.198715	154.200000
253.291595	154.340000
253.384460	153.940000
253.477341	154.180000
253.570221	154.140000
253.663086	154.000000
253.755966	154.980000
253.848846	155.260000
253.941727	155.680000
254.034592	155.640000
254.127472	155.200000
254.220367	154.560000
254.313248	154.540000
254.406128	153.660000
254.499008	153.780000
254.591904	154.960000
254.684784	155.540000
254.777664	155.560000
254.870544	155.720000
254.963440	155.720000
255.056335	155.540000
255.149216	154.740000
255.242111	155.260000
255.334991	156.040000
255.427887	156.060000
255.520767	156.160000
255.613663	156.340000
255.706558	155.580000
255.799438	155.000000
255.892334	154.600000
255.985229	154.200000
256.078125	153.900000
256.171021	153.980000
256.263916	154.480000
256.356812	155.240000
256.449707	155.700000
256.542603	155.620000
256.635498	156.380000
256.728394	156.260000
256.821289	155.560000
256.914215	155.700000
257.007080	156.000000
257.100006	155.700000
257.192932	156.320000
257.285828	156.500000
257.378723	155.880000
257.471619	155.580000
257.564545	154.880000
257.657440	154.620000
257.750336	155.500000
257.843262	155.500000
257.936157	156.820000
258.029053	157.340000
258.121979	157.100000
258.214874	156.020000
258.307800	156.280000
258.400696	155.000000
258.493622	154.960000
258.586517	154.060000
258.679443	154.720000
258.772339	154.260000
258.865265	154.320000
258.958160	153.840000
259.051086	155.300000
259.144012	154.880000
259.236938	155.720000
259.329834	155.940000
259.422791	155.720000
259.515717	154.600000
259.608612	154.600000
259.701538	154.340000
259.794464	154.020000
259.887390	154.480000
259.980316	154.660000
260.073212	154.480000
260.166138	153.380000
260.259064	153.940000
260.351990	154.460000
260.444916	154.600000
260.537842	155.000000
260.630768	156.120000
260.723694	155.620000
260.816620	155.340000
260.909546	155.260000
261.002472	155.080000
261.095398	154.780000
261.188354	154.840000
261.281281	154.520000
261.374207	154.620000
261.467133	155.020000
261.560089	155.100000
261.653015	154.820000
261.745972	155.800000
261.838867	156.340000
261.931824	156.540000
262.024780	156.140000
262.117706	156.800000
262.210663	156.500000
262.303589	156.160000
262.396515	155.940000
262.489471	157.040000
262.582397	156.620000
262.675354	155.780000
262.768280	155.840000
262.861237	155.820000
262.954163	155.580000
263.047119	155.940000
263.140045	155.960000
263.233002	155.740000
263.325958	155.840000
263.418884	155.040000
263.511841	154.700000
263.604797	154.980000
263.697723	154.940000
263.790680	154.560000
263.883636	155.040000
263.976593	155.140000
264.069550	155.480000
264.162476	155.420000
264.255463	155.580000
264.348419	155.380000
264.441376	155.700000
264.534332	154.680000
264.627289	154.740000
264.720245	155.040000
264.813202	154.680000
264.906158	154.580000
264.999115	155.600000
265.092072	155.720000
265.185028	156.040000
265.277985	156.580000
265.370941	156.380000
265.463898	156.040000
265.556854	155.580000
265.649811	154.360000
265.742798	154.100000
265.835754	154.260000
265.928711	155.020000
266.021667	155.380000
266.114655	155.900000
266.207611	156.240000
266.300568	155.800000
266.393585	154.840000
266.486511	154.980000
266.579498	154.520000
266.672485	154.460000
266.765442	154.520000
266.858429	155.200000
266.951385	154.860000
267.044342	154.860000
267.137329	154.500000
267.230316	154.800000
267.323273	154.260000
267.416260	154.880000
267.509216	155.020000
267.602203	154.980000
267.695160	155.220000
267.788147	155.400000
267.881134	154.620000
267.974091	155.200000
268.067078	155.240000
268.160065	155.060000
268.253052	155.140000
268.346008	155.480000
268.438995	155.020000
268.531982	155.140000
268.624969	154.860000
268.717987	154.920000
268.810944	154.540000
268.903961	154.760000
268.996948	154.340000
269.089905	154.920000
269.182892	154.860000
269.275879	155.520000
269.368866	154.860000
269.461853	155.620000
269.554871	155.460000
269.647858	155.400000
269.740845	155.400000
269.833832	156.160000
269.926819	155.500000
270.019806	155.400000
270.112793	154.960000
270.205811	154.940000
270.298798	154.580000
270.391785	155.260000
270.484772	155.160000
270.577789	155.620000
270.670776	155.380000
270.763763	155.220000
270.856750	154.980000
270.949768	154.620000
271.042786	154.720000
271.135773	154.700000
271.228790	155.400000
271.321808	155.100000
271.414795	155.040000
271.507782	154.620000
271.600800	154.360000
271.693817	154.340000
271.786804	154.760000
271.879822	155.080000
271.972809	155.000000
272.065826	155.500000
272.158844	154.780000
272.251831	155.420000
272.344849	155.540000
272.437866	155.480000
272.530853	155.420000
272.623871	155.780000
272.716888	154.540000
272.809906	154.980000
272.902893	155.160000
272.995911	154.360000
273.088928	154.380000
273.181946	154.920000
273.274963	154.180000
273.367981	154.000000
273.460999	154.640000
273.554047	155.020000
273.647003	155.420000
273.740051	155.380000
273.833069	156.080000
273.926086	156.480000
274.019135	155.960000
274.112152	155.540000
274.205170	155.820000
274.298187	156.000000
274.391205	155.080000
274.484222	155.140000
274.577240	155.100000
274.670258	155.100000
274.763306	154.520000
274.856323	155.480000
274.949341	155.620000
275.042358	155.980000
275.135406	155.980000
275.228424	156.080000
275.321442	155.780000
275.414490	155.420000
275.507507	155.800000
275.600525	156.260000
275.693573	155.940000
275.786591	155.500000
275.879669	155.900000
275.972656	154.940000
276.065735	154.500000
276.158752	154.980000
276.251801	155.720000
276.344818	155.740000
276.437866	156.160000
276.530884	155.880000
276.623932	155.320000
276.716980	155.400000
276.809998	155.380000
276.903046	154.940000
276.996094	155.760000
277.089111	156.520000
277.182159	156.640000
277.275208	156.460000
277.368256	156.960000
277.461304	156.620000
277.554321	155.720000
277.647369	155.500000
277.740417	155.860000
277.833466	155.400000
277.926514	155.200000
278.019562	156.180000
278.112610	155.300000
278.205688	154.860000
278.298706	155.020000
278.391785	154.720000
278.484833	153.920000
278.577881	154.420000
278.670929	155.080000
278.763977	155.200000
278.857025	155.720000
278.950073	155.840000
279.043121	155.340000
279.136169	154.620000
279.229248	154.320000
279.322296	153.980000
279.415344	153.680000
279.508392	153.880000
279.601440	154.060000
279.694519	153.940000
279.787567	154.100000
279.880615	154.360000
279.973694	154.260000
280.066742	154.360000
280.159790	154.520000
280.252869	154.220000
280.345917	154.540000
280.438995	154.600000
280.532074	154.420000
280.625122	155.020000
280.718201	156.260000
280.811279	156.040000
280.904327	156.340000
280.997406	156.580000
281.090454	156.320000
281.183533	155.320000
281.276581	155.300000
281.369659	154.820000
281.462738	154.780000
281.555786	154.900000
281.648865	154.880000
281.741943	154.860000
281.835022	155.600000
281.928070	155.280000
282.021149	154.940000
282.114227	154.880000
282.207306	154.620000
282.300385	154.500000
282.393433	154.800000
282.486511	154.940000
282.579590	155.360000
282.672668	155.880000
282.765747	155.300000
282.858856	154.880000
282.951904	154.980000
283.045013	154.800000
283.138062	154.940000
283.231171	155.400000
283.324249	155.960000
283.417328	156.080000
283.510406	155.780000
283.603485	155.480000
283.696564	155.540000
283.789642	155.640000
283.882751	154.820000
283.975830	155.620000
284.068909	155.140000
284.161987	155.500000
284.255066	154.840000
284.348175	155.300000
284.441254	154.900000
284.534332	155.680000
284.627441	155.100000
284.720520	154.940000
284.813599	155.260000
284.906708	154.940000
284.999786	154.060000
285.092896	153.700000
285.185974	154.840000
285.279053	154.100000
285.372192	153.900000
285.465240	154.780000
285.558380	155.160000
285.651459	154.660000
285.744568	155.900000
285.837677	156.120000
285.930756	156.080000
286.023865	156.160000
286.116943	155.640000
286.210052	155.500000
286.303162	155.360000
286.396240	154.840000
286.489349	154.480000
286.582458	154.980000
286.675568	154.260000
286.768646	154.640000
286.861755	155.100000
286.954865	155.880000
287.047974	155.260000
287.141083	155.220000
287.234161	154.880000
287.327271	154.560000
287.420380	154.640000
287.513519	155.000000
287.606598	155.100000
287.699738	155.500000
287.792816	155.680000
287.885956	155.300000
287.979034	155.240000
288.072174	155.500000
288.165283	155.520000
288.258392	155.780000
288.351501	155.100000
288.444611	155.240000
288.537720	155.440000
288.630859	154.760000
288.723969	154.620000
288.817078	155.320000
288.910187	155.400000
289.003296	154.800000
289.096436	154.740000
289.189545	154.380000
289.282654	153.840000
289.375763	154.020000
289.468903	154.280000
289.562012	154.960000
289.655121	155.140000
289.748260	155.420000
289.841400	155.460000
289.934509	155.300000
290.027649	155.320000
290.120728	155.180000
290.213898	155.200000
290.306976	154.560000
290.400146	154.980000
290.493256	154.400000
290.586395	154.540000
290.679535	155.020000
290.772644	155.500000
290.865784	154.540000
290.958893	154.720000
291.052032	154.660000
291.145172	154.360000
291.238281	153.900000
291.331421	154.420000
291.424561	154.720000
291.517670	154.600000
291.610809	154.760000
291.703949	154.820000
291.797089	154.820000
291.890228	154.460000
291.983337	154.380000
292.076477	154.280000
292.169617	154.560000
292.262756	154.340000
292.355927	154.500000
292.449036	154.380000
292.542206	154.540000
292.635315	154.660000
292.728485	155.320000
292.821625	154.740000
292.914764	156.180000
293.007904	156.140000
293.101044	156.420000
293.194183	156.080000
293.287323	156.640000
293.380463	155.620000
293.473602	155.200000
293.566742	155.160000
293.659882	155.560000
293.753021	155.740000
293.846191	155.640000
293.939331	155.640000
294.032471	155.260000
294.125610	154.900000
294.218781	155.180000
294.311920	155.760000
294.405060	155.920000
294.498230	155.980000
294.591370	156.080000
294.684540	155.220000
294.777679	154.420000
294.870850	154.680000
294.963959	154.520000
295.057159	154.440000
295.150299	154.960000
295.243469	154.860000
295.336609	154.040000
295.429779	154.240000
295.522919	154.520000
295.616089	154.640000
295.709229	155.680000
295.802399	156.240000
295.895569	155.720000
295.988708	155.440000
296.081879	155.500000
296.175018	154.580000
296.268188	154.380000
296.361359	154.980000
296.454529	155.080000
296.547668	154.760000
296.640839	155.220000
296.734009	155.040000
296.827179	155.180000
296.920319	155.680000
297.013519	155.500000
297.106659	155.440000
297.199860	155.800000
297.292999	155.700000
297.386200	154.940000
297.479309	155.040000
297.572510	154.920000
297.665680	154.600000
297.758850	154.600000
297.852020	154.780000
297.945190	154.560000
298.038361	154.200000
298.131531	155.380000
298.224701	154.960000
298.317871	154.420000
298.411072	153.940000
298.504242	153.960000
298.597412	153.040000
298.690582	153.360000
298.783752	153.620000
298.876923	154.440000
298.970093	154.400000
299.063293	154.860000
299.156464	155.080000
299.249634	155.220000
299.342834	155.220000
299.436005	156.080000
299.529205	155.340000
299.622345	155.220000
299.715576	154.720000
299.808716	154.520000
299.901917	154.180000
299.995117	154.800000
300.088287	154.760000
300.181488	154.740000
300.274658	154.640000
300.367828	154.560000
300.461029	154.500000
300.554199	154.940000
300.647400	155.260000
300.740601	155.980000
300.833771	155.800000
300.926971	155.900000
301.020142	155.180000
301.113342	155.200000
301.206512	154.880000
301.299713	155.100000
301.392914	154.940000
301.486084	155.380000
301.579285	155.420000
301.672516	155.840000
301.765686	155.720000
301.858887	155.700000
301.952057	155.500000
302.045288	155.400000
302.138458	155.000000
302.231659	154.600000
302.324860	154.680000
302.418060	154.380000
302.511261	154.400000
302.604462	154.580000
302.697662	154.600000
302.790863	154.200000
302.884064	153.900000
302.977264	154.160000
303.070465	154.080000
303.163666	155.140000
303.256866	155.640000
303.350067	155.680000
303.443268	155.460000
303.536469	155.680000
303.629669	154.820000
303.722870	154.760000
303.816071	155.120000
303.909271	155.060000
304.002472	153.880000
304.095673	153.560000
304.188934	152.960000
304.282104	153.720000
304.375336	153.780000
304.468506	154.340000
304.561768	154.700000
304.654968	155.220000
304.748169	154.620000
304.841370	154.480000
304.934601	154.960000
305.027802	154.460000
305.121002	154.040000
305.214233	154.080000
305.307434	154.320000
305.400665	154.440000
305.493866	154.340000
