Model Number: SPM-002-B   
Serial Number: 70087108
Firmware Version: 004.15.4
Exposure Time: 100000.000000us
Data Taken on: 15-01-2021 17:50:27.197
Wavelength	Amplitude
221.570786	0.000000
221.663406	0.000000
221.756027	0.000000
221.848648	0.000000
221.941269	0.000000
222.033905	0.000000
222.126526	0.000000
222.219162	0.000000
222.311798	0.000000
222.404419	0.000000
222.497055	0.000000
222.589676	0.000000
222.682312	0.000000
222.774933	0.000000
222.867569	0.000000
222.960205	0.000000
223.052841	0.000000
223.145462	0.000000
223.238098	0.000000
223.330734	0.000000
223.423386	0.000000
223.516022	0.000000
223.608658	0.000000
223.701309	0.000000
223.793945	0.000000
223.886581	0.000000
223.979218	0.000000
224.071869	0.000000
224.164505	0.000000
224.257156	0.000000
224.349792	0.000000
224.442444	0.000000
224.535095	0.000000
224.627747	0.000000
224.720398	0.000000
224.813034	0.000000
224.905685	0.000000
224.998337	153.520000
225.090988	153.160000
225.183640	153.260000
225.276291	152.820000
225.368942	153.200000
225.461594	153.820000
225.554245	154.220000
225.646912	154.120000
225.739578	155.040000
225.832230	155.560000
225.924896	154.860000
226.017548	154.920000
226.110199	155.520000
226.202866	154.380000
226.295532	154.080000
226.388184	153.920000
226.480850	153.300000
226.573517	152.640000
226.666168	153.140000
226.758835	153.660000
226.851501	154.360000
226.944183	154.660000
227.036850	154.260000
227.129517	154.280000
227.222183	154.260000
227.314850	154.000000
227.407516	154.540000
227.500198	155.680000
227.592865	155.120000
227.685532	154.360000
227.778214	154.220000
227.870880	154.220000
227.963562	154.460000
228.056229	155.120000
228.148926	155.260000
228.241592	156.240000
228.334274	155.720000
228.426956	155.200000
228.519638	155.080000
228.612305	154.460000
228.704987	153.800000
228.797668	154.100000
228.890350	153.580000
228.983032	153.200000
229.075714	154.220000
229.168396	154.140000
229.261108	153.660000
229.353790	154.040000
229.446472	154.320000
229.539169	154.040000
229.631851	153.660000
229.724533	153.940000
229.817230	154.020000
229.909912	155.220000
230.002609	155.120000
230.095306	155.520000
230.187988	155.460000
230.280685	155.280000
230.373383	153.960000
230.466095	154.040000
230.558792	153.960000
230.651474	154.060000
230.744171	153.900000
230.836868	153.740000
230.929581	153.700000
231.022278	153.880000
231.114975	153.720000
231.207672	153.680000
231.300369	154.380000
231.393082	154.560000
231.485779	154.600000
231.578506	154.580000
231.671204	154.860000
231.763916	154.640000
231.856613	154.700000
231.949326	154.520000
232.042023	154.400000
232.134735	154.400000
232.227448	154.160000
232.320160	154.420000
232.412872	154.500000
232.505585	155.480000
232.598297	155.740000
232.691010	155.840000
232.783722	155.100000
232.876450	155.660000
232.969162	155.020000
233.061874	154.380000
233.154587	153.940000
233.247314	154.200000
233.340027	153.500000
233.432739	153.940000
233.525467	154.080000
233.618179	154.340000
233.710907	154.180000
233.803635	154.300000
233.896347	153.740000
233.989090	154.700000
234.081818	154.860000
234.174545	154.960000
234.267258	154.760000
234.359985	155.080000
234.452713	154.560000
234.545441	154.640000
234.638168	154.800000
234.730896	155.460000
234.823639	155.060000
234.916367	155.160000
235.009094	154.940000
235.101822	155.100000
235.194580	154.640000
235.287308	155.020000
235.380051	154.960000
235.472778	155.200000
235.565521	155.400000
235.658249	155.100000
235.750992	154.860000
235.843719	154.420000
235.936462	154.700000
236.029205	153.840000
236.121948	153.660000
236.214691	154.480000
236.307449	155.400000
236.400192	154.980000
236.492935	155.120000
236.585678	155.440000
236.678421	154.860000
236.771164	154.200000
236.863907	154.500000
236.956665	154.860000
237.049408	156.800000
237.142151	156.560000
237.234909	157.300000
237.327652	157.220000
237.420410	156.720000
237.513153	155.340000
237.605927	155.360000
237.698669	154.560000
237.791428	153.820000
237.884186	154.540000
237.976944	154.220000
238.069702	154.260000
238.162445	154.020000
238.255203	154.680000
238.347961	154.800000
238.440720	154.820000
238.533478	155.040000
238.626266	154.880000
238.719025	154.980000
238.811783	154.600000
238.904541	154.300000
238.997314	153.900000
239.090073	153.880000
239.182831	154.200000
239.275604	154.800000
239.368362	154.760000
239.461136	154.720000
239.553909	154.980000
239.646667	154.220000
239.739441	153.700000
239.832214	154.080000
239.925003	154.460000
240.017761	155.140000
240.110535	155.920000
240.203308	155.640000
240.296082	155.580000
240.388855	155.420000
240.481628	154.880000
240.574417	154.820000
240.667191	154.900000
240.759964	154.300000
240.852737	154.340000
240.945526	154.080000
241.038315	153.660000
241.131088	153.800000
241.223877	154.540000
241.316650	153.940000
241.409439	154.620000
241.502228	154.520000
241.595001	155.240000
241.687790	154.820000
241.780579	155.060000
241.873367	154.860000
241.966141	154.800000
242.058929	153.840000
242.151718	154.260000
242.244507	154.800000
242.337311	154.180000
242.430099	154.960000
242.522903	155.240000
242.615692	154.620000
242.708481	154.580000
242.801270	155.380000
242.894073	155.060000
242.986862	155.200000
243.079651	155.960000
243.172455	155.720000
243.265244	155.360000
243.358063	154.740000
243.450867	154.740000
243.543655	154.420000
243.636459	154.340000
243.729263	154.940000
243.822067	155.300000
243.914856	155.540000
244.007660	155.500000
244.100464	155.440000
244.193268	154.460000
244.286072	154.260000
244.378876	153.720000
244.471680	153.680000
244.564499	154.300000
244.657318	155.120000
244.750122	155.580000
244.842926	155.020000
244.935745	155.300000
245.028549	154.460000
245.121368	154.040000
245.214172	153.860000
245.306992	154.740000
245.399796	154.140000
245.492615	154.660000
245.585434	154.340000
245.678253	154.480000
245.771072	154.060000
245.863892	154.640000
245.956711	154.860000
246.049530	154.820000
246.142349	154.420000
246.235168	154.640000
246.327988	155.000000
246.420807	154.440000
246.513626	154.800000
246.606445	154.780000
246.699280	154.720000
246.792099	154.020000
246.884918	153.820000
246.977753	153.440000
247.070587	153.360000
247.163422	153.400000
247.256241	153.740000
247.349075	154.200000
247.441895	154.580000
247.534729	154.780000
247.627563	154.580000
247.720383	154.760000
247.813217	154.780000
247.906052	154.420000
247.998886	154.480000
248.091736	154.440000
248.184570	154.120000
248.277405	153.740000
248.370239	154.800000
248.463074	155.440000
248.555908	156.040000
248.648743	156.120000
248.741592	156.720000
248.834427	155.900000
248.927261	154.820000
249.020111	154.980000
249.112946	155.400000
249.205795	154.500000
249.298630	154.640000
249.391495	154.720000
249.484344	153.880000
249.577179	153.780000
249.670029	154.420000
249.762878	154.740000
249.855728	155.080000
249.948563	155.400000
250.041412	154.720000
250.134262	154.760000
250.227112	154.900000
250.319962	154.740000
250.412827	154.620000
250.505692	154.260000
250.598541	154.260000
250.691391	153.580000
250.784241	153.720000
250.877106	154.160000
250.969955	154.100000
251.062805	154.340000
251.155670	155.060000
251.248520	154.820000
251.341385	154.740000
251.434235	155.080000
251.527100	154.820000
251.619965	154.320000
251.712814	155.100000
251.805695	154.980000
251.898560	155.140000
251.991425	155.400000
252.084290	155.480000
252.177155	154.640000
252.270020	154.560000
252.362885	154.660000
252.455750	154.300000
252.548615	154.020000
252.641479	154.340000
252.734360	154.100000
252.827240	153.600000
252.920105	153.680000
253.012970	153.820000
253.105850	153.340000
253.198715	153.280000
253.291595	153.560000
253.384460	153.340000
253.477341	153.260000
253.570221	153.820000
253.663086	153.660000
253.755966	154.460000
253.848846	154.620000
253.941727	154.900000
254.034592	154.580000
254.127472	154.040000
254.220367	153.740000
254.313248	153.920000
254.406128	153.480000
254.499008	153.780000
254.591904	154.980000
254.684784	155.560000
254.777664	155.320000
254.870544	155.120000
254.963440	155.040000
255.056335	154.920000
255.149216	154.000000
255.242111	154.640000
255.334991	155.140000
255.427887	155.000000
255.520767	154.980000
255.613663	155.140000
255.706558	154.400000
255.799438	154.000000
255.892334	154.000000
255.985229	153.740000
256.078125	153.760000
256.171021	153.900000
256.263916	154.780000
256.356812	154.760000
256.449707	154.760000
256.542603	154.480000
256.635498	154.700000
256.728394	154.060000
256.821289	153.940000
256.914215	154.400000
257.007080	154.740000
257.100006	154.680000
257.192932	155.500000
257.285828	155.660000
257.378723	155.360000
257.471619	155.280000
257.564545	154.780000
257.657440	154.280000
257.750336	154.640000
257.843262	154.420000
257.936157	155.520000
258.029053	156.220000
258.121979	156.140000
258.214874	155.980000
258.307800	155.920000
258.400696	154.220000
258.493622	153.780000
258.586517	153.480000
258.679443	153.660000
258.772339	153.340000
258.865265	153.560000
258.958160	153.220000
259.051086	154.080000
259.144012	153.700000
259.236938	154.600000
259.329834	154.820000
259.422791	155.020000
259.515717	154.140000
259.608612	154.040000
259.701538	153.900000
259.794464	153.720000
259.887390	153.760000
259.980316	153.600000
260.073212	153.360000
260.166138	152.540000
260.259064	153.080000
260.351990	153.540000
260.444916	153.580000
260.537842	154.460000
260.630768	155.400000
260.723694	155.220000
260.816620	155.400000
260.909546	155.620000
261.002472	154.840000
261.095398	154.220000
261.188354	154.140000
261.281281	153.320000
261.374207	153.340000
261.467133	154.180000
261.560089	154.460000
261.653015	154.220000
261.745972	155.000000
261.838867	155.520000
261.931824	155.740000
262.024780	155.260000
262.117706	155.600000
262.210663	155.780000
262.303589	155.420000
262.396515	154.980000
262.489471	155.940000
262.582397	155.860000
262.675354	155.080000
262.768280	154.900000
262.861237	154.800000
262.954163	154.680000
263.047119	154.680000
263.140045	154.720000
263.233002	155.000000
263.325958	154.620000
263.418884	153.800000
263.511841	153.360000
263.604797	153.460000
263.697723	153.180000
263.790680	153.400000
263.883636	154.300000
263.976593	154.660000
264.069550	154.620000
264.162476	154.400000
264.255463	154.400000
264.348419	153.720000
264.441376	154.060000
264.534332	153.400000
264.627289	153.780000
264.720245	154.140000
264.813202	153.700000
264.906158	153.300000
264.999115	154.020000
265.092072	153.800000
265.185028	154.160000
265.277985	154.800000
265.370941	155.100000
265.463898	155.020000
265.556854	154.700000
265.649811	153.540000
265.742798	153.440000
265.835754	153.300000
265.928711	153.660000
266.021667	154.060000
266.114655	154.980000
266.207611	155.420000
266.300568	154.960000
266.393585	154.360000
266.486511	154.620000
266.579498	153.360000
266.672485	153.240000
266.765442	153.340000
266.858429	154.320000
266.951385	153.940000
267.044342	154.520000
267.137329	154.260000
267.230316	154.560000
267.323273	153.780000
267.416260	154.540000
267.509216	154.440000
267.602203	154.620000
267.695160	155.000000
267.788147	155.180000
267.881134	154.180000
267.974091	154.640000
268.067078	154.240000
268.160065	153.740000
268.253052	153.460000
268.346008	153.640000
268.438995	153.400000
268.531982	153.480000
268.624969	153.480000
268.717987	153.840000
268.810944	153.840000
268.903961	154.060000
268.996948	153.820000
269.089905	154.360000
269.182892	154.440000
269.275879	154.840000
269.368866	154.160000
269.461853	154.640000
269.554871	154.020000
269.647858	154.040000
269.740845	154.240000
269.833832	154.840000
269.926819	154.380000
270.019806	154.780000
270.112793	154.020000
270.205811	154.000000
270.298798	153.740000
270.391785	154.520000
270.484772	153.960000
270.577789	154.500000
270.670776	154.120000
270.763763	154.100000
270.856750	153.840000
270.949768	153.740000
271.042786	153.720000
271.135773	153.640000
271.228790	154.080000
271.321808	153.540000
271.414795	153.480000
271.507782	153.080000
271.600800	152.760000
271.693817	152.540000
271.786804	153.120000
271.879822	153.800000
271.972809	153.980000
272.065826	154.600000
272.158844	154.220000
272.251831	154.680000
272.344849	154.400000
272.437866	154.140000
272.530853	154.000000
272.623871	154.300000
272.716888	152.720000
272.809906	152.920000
272.902893	153.280000
272.995911	152.880000
273.088928	152.780000
273.181946	153.480000
273.274963	152.940000
273.367981	152.680000
273.460999	153.140000
273.554047	153.740000
273.647003	154.380000
273.740051	154.720000
273.833069	155.220000
273.926086	155.160000
274.019135	154.600000
274.112152	154.400000
274.205170	154.440000
274.298187	154.220000
274.391205	153.780000
274.484222	153.980000
274.577240	153.880000
274.670258	153.740000
274.763306	153.860000
274.856323	154.300000
274.949341	154.060000
275.042358	154.540000
275.135406	154.640000
275.228424	154.900000
275.321442	154.820000
275.414490	154.900000
275.507507	154.820000
275.600525	155.340000
275.693573	154.820000
275.786591	154.420000
275.879669	154.620000
275.972656	153.980000
276.065735	153.520000
276.158752	153.980000
276.251801	155.060000
276.344818	155.060000
276.437866	155.380000
276.530884	154.840000
276.623932	154.340000
276.716980	154.280000
276.809998	154.280000
276.903046	154.140000
276.996094	155.400000
277.089111	155.760000
277.182159	155.820000
277.275208	155.620000
277.368256	155.860000
277.461304	155.220000
277.554321	154.660000
277.647369	154.420000
277.740417	154.560000
277.833466	154.080000
277.926514	153.900000
278.019562	155.000000
278.112610	154.380000
278.205688	154.460000
278.298706	155.040000
278.391785	154.900000
278.484833	154.100000
278.577881	154.280000
278.670929	154.500000
278.763977	154.460000
278.857025	154.840000
278.950073	154.800000
279.043121	154.500000
279.136169	154.160000
279.229248	153.660000
279.322296	153.800000
279.415344	153.700000
279.508392	153.740000
279.601440	153.800000
279.694519	153.800000
279.787567	153.480000
279.880615	153.320000
279.973694	153.400000
280.066742	153.340000
280.159790	153.400000
280.252869	153.040000
280.345917	153.500000
280.438995	153.520000
280.532074	153.580000
280.625122	154.140000
280.718201	155.340000
280.811279	155.320000
280.904327	155.360000
280.997406	155.520000
281.090454	155.580000
281.183533	154.560000
281.276581	154.380000
281.369659	153.940000
281.462738	153.760000
281.555786	153.700000
281.648865	154.000000
281.741943	154.020000
281.835022	154.940000
281.928070	154.680000
282.021149	154.200000
282.114227	153.980000
282.207306	153.880000
282.300385	153.920000
282.393433	154.340000
282.486511	154.580000
282.579590	155.460000
282.672668	155.900000
282.765747	155.760000
282.858856	155.440000
282.951904	155.640000
283.045013	155.400000
283.138062	155.700000
283.231171	155.660000
283.324249	155.960000
283.417328	155.980000
283.510406	155.420000
283.603485	154.960000
283.696564	155.020000
283.789642	155.180000
283.882751	154.700000
283.975830	155.400000
284.068909	155.100000
284.161987	155.300000
284.255066	154.620000
284.348175	154.920000
284.441254	154.420000
284.534332	154.880000
284.627441	154.440000
284.720520	154.160000
284.813599	154.320000
284.906708	154.460000
284.999786	154.020000
285.092896	153.700000
285.185974	155.000000
285.279053	154.400000
285.372192	154.560000
285.465240	155.220000
285.558380	155.180000
285.651459	154.500000
285.744568	155.500000
285.837677	155.000000
285.930756	154.820000
286.023865	154.820000
286.116943	154.480000
286.210052	154.080000
286.303162	154.160000
286.396240	154.240000
286.489349	154.220000
286.582458	154.700000
286.675568	154.320000
286.768646	154.300000
286.861755	154.580000
286.954865	155.560000
287.047974	155.320000
287.141083	155.260000
287.234161	155.120000
287.327271	154.420000
287.420380	154.320000
287.513519	154.020000
287.606598	154.320000
287.699738	154.600000
287.792816	154.800000
287.885956	154.540000
287.979034	154.800000
288.072174	154.820000
288.165283	154.780000
288.258392	154.760000
288.351501	154.060000
288.444611	154.320000
288.537720	154.440000
288.630859	154.060000
288.723969	154.220000
288.817078	154.960000
288.910187	154.540000
289.003296	153.980000
289.096436	154.060000
289.189545	153.680000
289.282654	152.880000
289.375763	153.380000
289.468903	153.960000
289.562012	154.300000
289.655121	154.280000
289.748260	154.840000
289.841400	154.940000
289.934509	154.560000
290.027649	154.720000
290.120728	155.000000
290.213898	155.060000
290.306976	154.540000
290.400146	154.960000
290.493256	154.320000
290.586395	154.240000
290.679535	154.260000
290.772644	154.340000
290.865784	153.380000
290.958893	153.480000
291.052032	153.360000
291.145172	153.360000
291.238281	153.080000
291.331421	153.280000
291.424561	154.160000
291.517670	153.920000
291.610809	153.640000
291.703949	153.820000
291.797089	154.360000
291.890228	153.740000
291.983337	153.960000
292.076477	154.380000
292.169617	154.580000
292.262756	154.380000
292.355927	154.160000
292.449036	154.020000
292.542206	154.180000
292.635315	154.400000
292.728485	154.780000
292.821625	154.700000
292.914764	155.840000
293.007904	155.580000
293.101044	155.360000
293.194183	155.300000
293.287323	155.520000
293.380463	154.740000
293.473602	154.500000
293.566742	154.740000
293.659882	154.980000
293.753021	155.100000
293.846191	155.240000
293.939331	154.840000
294.032471	154.540000
294.125610	154.120000
294.218781	154.440000
294.311920	154.840000
294.405060	155.360000
294.498230	155.580000
294.591370	155.760000
294.684540	155.160000
294.777679	154.520000
294.870850	154.820000
294.963959	154.620000
295.057159	154.320000
295.150299	154.760000
295.243469	154.460000
295.336609	153.640000
295.429779	153.820000
295.522919	154.280000
295.616089	154.060000
295.709229	154.840000
295.802399	155.440000
295.895569	155.020000
295.988708	154.600000
296.081879	154.740000
296.175018	154.000000
296.268188	153.840000
296.361359	154.440000
296.454529	154.700000
296.547668	154.580000
296.640839	155.200000
296.734009	154.780000
296.827179	154.560000
296.920319	154.540000
297.013519	154.640000
297.106659	154.680000
297.199860	154.940000
297.292999	155.100000
297.386200	154.940000
297.479309	154.540000
297.572510	154.040000
297.665680	153.760000
297.758850	153.500000
297.852020	153.420000
297.945190	153.280000
298.038361	153.140000
298.131531	154.300000
298.224701	154.240000
298.317871	154.000000
298.411072	153.460000
298.504242	153.480000
298.597412	152.820000
298.690582	153.120000
298.783752	153.300000
298.876923	154.260000
298.970093	154.340000
299.063293	154.560000
299.156464	154.760000
299.249634	155.040000
299.342834	155.340000
299.436005	155.500000
299.529205	155.060000
299.622345	154.840000
299.715576	154.140000
299.808716	153.480000
299.901917	153.500000
299.995117	153.780000
300.088287	153.780000
300.181488	153.900000
300.274658	153.700000
300.367828	153.780000
300.461029	153.620000
300.554199	153.900000
300.647400	154.160000
300.740601	154.960000
300.833771	154.640000
300.926971	154.940000
301.020142	154.300000
301.113342	154.120000
301.206512	154.020000
301.299713	154.560000
301.392914	154.380000
301.486084	154.840000
301.579285	155.040000
301.672516	155.440000
301.765686	155.060000
301.858887	155.060000
301.952057	154.840000
302.045288	154.860000
302.138458	154.460000
302.231659	154.440000
302.324860	154.700000
302.418060	154.600000
302.511261	154.300000
302.604462	154.600000
302.697662	154.040000
302.790863	153.440000
302.884064	153.020000
302.977264	153.160000
303.070465	152.880000
303.163666	154.040000
303.256866	154.500000
303.350067	154.680000
303.443268	154.680000
303.536469	154.840000
303.629669	154.300000
303.722870	154.160000
303.816071	154.180000
303.909271	154.100000
304.002472	153.420000
304.095673	153.140000
304.188934	152.660000
304.282104	153.760000
304.375336	154.040000
304.468506	154.440000
304.561768	154.540000
304.654968	155.180000
304.748169	154.460000
304.841370	154.440000
304.934601	154.640000
305.027802	154.120000
305.121002	153.820000
305.214233	154.000000
305.307434	154.040000
305.400665	154.820000
305.493866	155.160000
