Model Number: SPM-002-B   
Serial Number: 70087108
Firmware Version: 004.15.4
Exposure Time: 100000.000000us
Data Taken on: 15-01-2021 17:50:37.532
Wavelength	Amplitude
221.570786	0.000000
221.663406	0.000000
221.756027	0.000000
221.848648	0.000000
221.941269	0.000000
222.033905	0.000000
222.126526	0.000000
222.219162	0.000000
222.311798	0.000000
222.404419	0.000000
222.497055	0.000000
222.589676	0.000000
222.682312	0.000000
222.774933	0.000000
222.867569	0.000000
222.960205	0.000000
223.052841	0.000000
223.145462	0.000000
223.238098	0.000000
223.330734	0.000000
223.423386	0.000000
223.516022	0.000000
223.608658	0.000000
223.701309	0.000000
223.793945	0.000000
223.886581	0.000000
223.979218	0.000000
224.071869	0.000000
224.164505	0.000000
224.257156	0.000000
224.349792	0.000000
224.442444	0.000000
224.535095	0.000000
224.627747	0.000000
224.720398	0.000000
224.813034	0.000000
224.905685	0.000000
224.998337	154.500000
225.090988	154.160000
225.183640	153.960000
225.276291	153.620000
225.368942	153.840000
225.461594	154.560000
225.554245	154.760000
225.646912	154.540000
225.739578	154.960000
225.832230	155.340000
225.924896	154.400000
226.017548	154.760000
226.110199	155.400000
226.202866	154.700000
226.295532	154.380000
226.388184	154.540000
226.480850	154.100000
226.573517	153.840000
226.666168	154.180000
226.758835	154.580000
226.851501	155.280000
226.944183	155.480000
227.036850	155.020000
227.129517	155.220000
227.222183	155.180000
227.314850	154.760000
227.407516	154.760000
227.500198	155.920000
227.592865	155.480000
227.685532	154.960000
227.778214	155.000000
227.870880	155.260000
227.963562	155.620000
228.056229	156.300000
228.148926	156.900000
228.241592	157.760000
228.334274	157.400000
228.426956	156.400000
228.519638	156.180000
228.612305	155.420000
228.704987	155.000000
228.797668	155.140000
228.890350	154.700000
228.983032	154.220000
229.075714	154.820000
229.168396	154.300000
229.261108	153.720000
229.353790	154.180000
229.446472	154.680000
229.539169	154.680000
229.631851	154.700000
229.724533	155.200000
229.817230	155.240000
229.909912	155.980000
230.002609	155.780000
230.095306	155.720000
230.187988	155.640000
230.280685	155.240000
230.373383	154.080000
230.466095	153.820000
230.558792	154.020000
230.651474	153.840000
230.744171	153.900000
230.836868	153.880000
230.929581	154.380000
231.022278	154.600000
231.114975	155.100000
231.207672	155.040000
231.300369	155.500000
231.393082	155.520000
231.485779	155.120000
231.578506	154.840000
231.671204	155.040000
231.763916	154.840000
231.856613	154.480000
231.949326	154.580000
232.042023	154.580000
232.134735	154.580000
232.227448	154.260000
232.320160	154.800000
232.412872	154.900000
232.505585	155.860000
232.598297	156.340000
232.691010	156.220000
232.783722	155.500000
232.876450	155.720000
232.969162	154.580000
233.061874	154.220000
233.154587	154.080000
233.247314	154.500000
233.340027	154.080000
233.432739	154.820000
233.525467	154.660000
233.618179	155.080000
233.710907	154.920000
233.803635	155.300000
233.896347	154.900000
233.989090	155.620000
234.081818	155.480000
234.174545	155.400000
234.267258	155.080000
234.359985	155.100000
234.452713	154.660000
234.545441	154.820000
234.638168	154.940000
234.730896	155.500000
234.823639	155.200000
234.916367	155.440000
235.009094	155.440000
235.101822	155.360000
235.194580	155.100000
235.287308	155.360000
235.380051	154.820000
235.472778	155.280000
235.565521	155.600000
235.658249	155.220000
235.750992	155.300000
235.843719	155.160000
235.936462	155.080000
236.029205	154.520000
236.121948	154.240000
236.214691	154.660000
236.307449	155.580000
236.400192	155.300000
236.492935	155.380000
236.585678	155.940000
236.678421	155.480000
236.771164	154.900000
236.863907	155.220000
236.956665	155.480000
237.049408	157.240000
237.142151	156.900000
237.234909	157.520000
237.327652	157.400000
237.420410	157.220000
237.513153	155.620000
237.605927	155.860000
237.698669	155.400000
237.791428	154.640000
237.884186	155.000000
237.976944	154.400000
238.069702	154.440000
238.162445	153.860000
238.255203	154.200000
238.347961	154.500000
238.440720	154.880000
238.533478	154.880000
238.626266	154.500000
238.719025	154.860000
238.811783	154.460000
238.904541	154.400000
238.997314	154.020000
239.090073	154.080000
239.182831	154.520000
239.275604	155.040000
239.368362	154.980000
239.461136	155.540000
239.553909	156.040000
239.646667	155.400000
239.739441	154.900000
239.832214	155.200000
239.925003	155.060000
240.017761	155.560000
240.110535	156.340000
240.203308	155.940000
240.296082	155.960000
240.388855	155.840000
240.481628	155.880000
240.574417	155.540000
240.667191	155.620000
240.759964	155.260000
240.852737	154.900000
240.945526	154.280000
241.038315	154.020000
241.131088	154.160000
241.223877	154.320000
241.316650	154.140000
241.409439	154.560000
241.502228	154.440000
241.595001	154.820000
241.687790	154.800000
241.780579	155.200000
241.873367	155.200000
241.966141	155.160000
242.058929	154.820000
242.151718	154.780000
242.244507	155.020000
242.337311	154.340000
242.430099	155.120000
242.522903	155.140000
242.615692	154.980000
242.708481	155.000000
242.801270	155.720000
242.894073	155.160000
242.986862	155.340000
243.079651	156.200000
243.172455	155.860000
243.265244	155.900000
243.358063	155.560000
243.450867	155.760000
243.543655	155.320000
243.636459	155.480000
243.729263	155.580000
243.822067	155.740000
243.914856	155.940000
244.007660	155.540000
244.100464	155.440000
244.193268	154.920000
244.286072	154.880000
244.378876	154.040000
244.471680	154.060000
244.564499	154.460000
244.657318	155.560000
244.750122	155.680000
244.842926	155.620000
244.935745	156.280000
245.028549	155.720000
245.121368	154.580000
245.214172	154.780000
245.306992	154.980000
245.399796	154.280000
245.492615	154.480000
245.585434	154.320000
245.678253	154.200000
245.771072	154.320000
245.863892	154.580000
245.956711	154.760000
246.049530	154.860000
246.142349	154.460000
246.235168	154.520000
246.327988	154.780000
246.420807	154.440000
246.513626	154.580000
246.606445	154.340000
246.699280	154.560000
246.792099	154.120000
246.884918	154.020000
246.977753	153.700000
247.070587	153.960000
247.163422	153.620000
247.256241	153.940000
247.349075	154.320000
247.441895	154.680000
247.534729	154.740000
247.627563	154.760000
247.720383	155.160000
247.813217	155.020000
247.906052	154.860000
247.998886	155.120000
248.091736	154.920000
248.184570	154.260000
248.277405	154.340000
248.370239	155.460000
248.463074	156.280000
248.555908	156.500000
248.648743	156.640000
248.741592	156.940000
248.834427	155.780000
248.927261	154.420000
249.020111	154.900000
249.112946	155.680000
249.205795	155.020000
249.298630	155.340000
249.391495	155.360000
249.484344	154.980000
249.577179	154.400000
249.670029	154.700000
249.762878	155.420000
249.855728	155.880000
249.948563	156.020000
250.041412	155.420000
250.134262	155.680000
250.227112	155.240000
250.319962	155.420000
250.412827	155.240000
250.505692	155.140000
250.598541	154.860000
250.691391	154.400000
250.784241	154.140000
250.877106	154.260000
250.969955	154.340000
251.062805	154.980000
251.155670	155.640000
251.248520	155.400000
251.341385	155.680000
251.434235	155.800000
251.527100	155.160000
251.619965	154.460000
251.712814	155.420000
251.805695	155.140000
251.898560	155.280000
251.991425	155.920000
252.084290	156.280000
252.177155	155.280000
252.270020	155.220000
252.362885	155.220000
252.455750	154.820000
252.548615	154.500000
252.641479	154.760000
252.734360	154.500000
252.827240	154.160000
252.920105	154.320000
253.012970	154.400000
253.105850	154.180000
253.198715	153.960000
253.291595	154.180000
253.384460	153.540000
253.477341	153.660000
253.570221	154.040000
253.663086	154.060000
253.755966	154.600000
253.848846	155.000000
253.941727	155.160000
254.034592	154.840000
254.127472	154.500000
254.220367	154.400000
254.313248	154.260000
254.406128	153.880000
254.499008	154.360000
254.591904	155.560000
254.684784	155.800000
254.777664	155.940000
254.870544	155.720000
254.963440	155.480000
255.056335	154.880000
255.149216	154.560000
255.242111	154.940000
255.334991	155.360000
255.427887	155.180000
255.520767	155.360000
255.613663	155.540000
255.706558	154.840000
255.799438	154.400000
255.892334	154.500000
255.985229	154.760000
256.078125	154.580000
256.171021	154.820000
256.263916	155.560000
256.356812	155.840000
256.449707	155.700000
256.542603	155.280000
256.635498	155.540000
256.728394	155.140000
256.821289	154.700000
256.914215	154.940000
257.007080	155.320000
257.100006	155.300000
257.192932	155.760000
257.285828	156.180000
257.378723	155.600000
257.471619	155.320000
257.564545	154.840000
257.657440	154.900000
257.750336	155.120000
257.843262	154.840000
257.936157	156.080000
258.029053	156.820000
258.121979	156.640000
258.214874	156.060000
258.307800	156.240000
258.400696	155.040000
258.493622	154.500000
258.586517	153.360000
258.679443	153.900000
258.772339	153.560000
258.865265	153.340000
258.958160	153.020000
259.051086	154.760000
259.144012	154.440000
259.236938	155.380000
259.329834	155.580000
259.422791	155.620000
259.515717	154.280000
259.608612	154.040000
259.701538	153.720000
259.794464	153.860000
259.887390	154.040000
259.980316	154.320000
260.073212	154.460000
260.166138	153.680000
260.259064	153.900000
260.351990	154.280000
260.444916	154.280000
260.537842	154.340000
260.630768	155.460000
260.723694	155.420000
260.816620	155.480000
260.909546	155.580000
261.002472	155.340000
261.095398	154.500000
261.188354	154.220000
261.281281	153.560000
261.374207	153.860000
261.467133	154.580000
261.560089	154.900000
261.653015	154.720000
261.745972	155.460000
261.838867	155.600000
261.931824	155.920000
262.024780	155.680000
262.117706	156.180000
262.210663	156.160000
262.303589	155.820000
262.396515	155.420000
262.489471	156.380000
262.582397	156.260000
262.675354	155.720000
262.768280	155.800000
262.861237	155.660000
262.954163	155.340000
263.047119	155.300000
263.140045	155.100000
263.233002	155.080000
263.325958	154.980000
263.418884	154.320000
263.511841	154.220000
263.604797	154.440000
263.697723	154.480000
263.790680	154.180000
263.883636	155.000000
263.976593	154.940000
264.069550	155.100000
264.162476	154.660000
264.255463	154.880000
264.348419	154.240000
264.441376	154.580000
264.534332	154.080000
264.627289	154.620000
264.720245	155.060000
264.813202	154.820000
264.906158	154.920000
264.999115	155.680000
265.092072	155.360000
265.185028	155.780000
265.277985	156.240000
265.370941	156.020000
265.463898	155.500000
265.556854	155.220000
265.649811	154.020000
265.742798	153.860000
265.835754	153.980000
265.928711	154.600000
266.021667	154.960000
266.114655	155.580000
266.207611	156.000000
266.300568	155.300000
266.393585	154.620000
266.486511	154.760000
266.579498	153.920000
266.672485	153.660000
266.765442	154.020000
266.858429	154.820000
266.951385	154.300000
267.044342	154.900000
267.137329	154.860000
267.230316	154.960000
267.323273	154.340000
267.416260	154.900000
267.509216	154.480000
267.602203	154.460000
267.695160	154.880000
267.788147	154.900000
267.881134	154.380000
267.974091	154.700000
268.067078	154.480000
268.160065	154.100000
268.253052	154.220000
268.346008	154.260000
268.438995	153.960000
268.531982	154.240000
268.624969	154.000000
268.717987	154.240000
268.810944	154.480000
268.903961	154.740000
268.996948	154.340000
269.089905	155.040000
269.182892	155.040000
269.275879	155.160000
269.368866	154.620000
269.461853	155.120000
269.554871	154.700000
269.647858	154.400000
269.740845	154.620000
269.833832	155.480000
269.926819	155.240000
270.019806	155.340000
270.112793	154.960000
270.205811	155.000000
270.298798	154.820000
270.391785	155.440000
270.484772	155.220000
270.577789	155.660000
270.670776	155.400000
270.763763	155.440000
270.856750	155.120000
270.949768	154.700000
271.042786	154.620000
271.135773	154.380000
271.228790	154.480000
271.321808	153.940000
271.414795	154.000000
271.507782	153.960000
271.600800	153.840000
271.693817	154.100000
271.786804	154.820000
271.879822	155.280000
271.972809	155.180000
272.065826	155.900000
272.158844	154.980000
272.251831	155.220000
272.344849	155.040000
272.437866	155.000000
272.530853	154.840000
272.623871	155.500000
272.716888	154.460000
272.809906	154.760000
272.902893	154.720000
272.995911	154.100000
273.088928	153.680000
273.181946	154.140000
273.274963	153.500000
273.367981	153.580000
273.460999	153.840000
273.554047	154.280000
273.647003	154.740000
273.740051	155.180000
273.833069	155.480000
273.926086	155.940000
274.019135	155.680000
274.112152	155.260000
274.205170	155.300000
274.298187	155.540000
274.391205	154.940000
274.484222	155.020000
274.577240	155.020000
274.670258	154.840000
274.763306	154.340000
274.856323	154.900000
274.949341	154.780000
275.042358	155.020000
275.135406	154.680000
275.228424	154.820000
275.321442	154.720000
275.414490	154.460000
275.507507	154.660000
275.600525	155.680000
275.693573	155.300000
275.786591	154.580000
275.879669	155.200000
275.972656	154.440000
276.065735	153.860000
276.158752	154.760000
276.251801	155.940000
276.344818	155.920000
276.437866	156.440000
276.530884	156.440000
276.623932	155.720000
276.716980	155.360000
276.809998	155.300000
276.903046	155.180000
276.996094	155.920000
277.089111	156.380000
277.182159	156.980000
277.275208	156.640000
277.368256	156.900000
277.461304	156.420000
277.554321	155.660000
277.647369	155.220000
277.740417	155.040000
277.833466	154.740000
277.926514	154.400000
278.019562	155.500000
278.112610	154.820000
278.205688	155.080000
278.298706	155.020000
278.391785	155.020000
278.484833	154.300000
278.577881	154.280000
278.670929	154.760000
278.763977	154.940000
278.857025	154.960000
278.950073	154.960000
279.043121	155.000000
279.136169	154.520000
279.229248	154.020000
279.322296	154.160000
279.415344	154.100000
279.508392	153.940000
279.601440	154.020000
279.694519	154.200000
279.787567	154.200000
279.880615	153.840000
279.973694	153.880000
280.066742	153.780000
280.159790	153.860000
280.252869	153.320000
280.345917	153.980000
280.438995	153.880000
280.532074	153.800000
280.625122	154.320000
280.718201	155.440000
280.811279	155.300000
280.904327	155.580000
280.997406	155.960000
281.090454	155.880000
281.183533	154.980000
281.276581	154.760000
281.369659	154.480000
281.462738	154.440000
281.555786	154.620000
281.648865	154.960000
281.741943	155.040000
281.835022	155.840000
281.928070	155.680000
282.021149	154.900000
282.114227	154.800000
282.207306	154.700000
282.300385	154.800000
282.393433	154.900000
282.486511	155.200000
282.579590	155.640000
282.672668	156.200000
282.765747	155.380000
282.858856	155.300000
282.951904	155.600000
283.045013	155.600000
283.138062	155.300000
283.231171	155.820000
283.324249	155.860000
283.417328	155.740000
283.510406	155.340000
283.603485	155.480000
283.696564	155.060000
283.789642	155.100000
283.882751	155.100000
283.975830	155.360000
284.068909	154.940000
284.161987	155.720000
284.255066	155.060000
284.348175	154.760000
284.441254	154.740000
284.534332	155.060000
284.627441	154.460000
284.720520	154.580000
284.813599	154.780000
284.906708	154.980000
284.999786	154.260000
285.092896	154.000000
285.185974	155.420000
285.279053	154.560000
285.372192	154.400000
285.465240	155.400000
285.558380	155.440000
285.651459	154.380000
285.744568	155.860000
285.837677	155.600000
285.930756	155.380000
286.023865	155.780000
286.116943	155.300000
286.210052	154.940000
286.303162	154.860000
286.396240	154.780000
286.489349	154.400000
286.582458	155.040000
286.675568	154.740000
286.768646	154.980000
286.861755	155.640000
286.954865	156.580000
287.047974	156.080000
287.141083	155.780000
287.234161	155.260000
287.327271	154.520000
287.420380	154.220000
287.513519	154.280000
287.606598	154.600000
287.699738	155.260000
287.792816	155.260000
287.885956	155.260000
287.979034	155.540000
288.072174	155.360000
288.165283	154.940000
288.258392	155.100000
288.351501	154.340000
288.444611	154.340000
288.537720	154.980000
288.630859	155.180000
288.723969	155.580000
288.817078	156.220000
288.910187	156.300000
289.003296	155.360000
289.096436	155.020000
289.189545	154.620000
289.282654	154.000000
289.375763	154.240000
289.468903	154.980000
289.562012	155.140000
289.655121	154.920000
289.748260	155.600000
289.841400	155.940000
289.934509	155.460000
290.027649	155.920000
290.120728	155.900000
290.213898	155.440000
290.306976	154.800000
290.400146	155.020000
290.493256	154.340000
290.586395	154.260000
290.679535	154.680000
290.772644	154.580000
290.865784	153.740000
290.958893	154.120000
291.052032	154.100000
291.145172	153.920000
291.238281	153.620000
291.331421	154.220000
291.424561	154.600000
291.517670	154.480000
291.610809	154.340000
291.703949	154.180000
291.797089	154.300000
291.890228	153.480000
291.983337	153.700000
292.076477	153.580000
292.169617	154.340000
292.262756	154.140000
292.355927	154.300000
292.449036	153.840000
292.542206	154.160000
292.635315	153.980000
292.728485	154.880000
292.821625	154.580000
292.914764	156.200000
293.007904	156.020000
293.101044	155.800000
293.194183	155.120000
293.287323	155.400000
293.380463	154.380000
293.473602	154.280000
293.566742	154.840000
293.659882	155.300000
293.753021	155.600000
293.846191	155.580000
293.939331	155.220000
294.032471	154.800000
294.125610	154.060000
294.218781	154.220000
294.311920	154.740000
294.405060	155.100000
294.498230	155.000000
294.591370	155.400000
294.684540	154.880000
294.777679	154.280000
294.870850	154.440000
294.963959	154.320000
295.057159	154.260000
295.150299	154.420000
295.243469	154.400000
295.336609	154.040000
295.429779	154.040000
295.522919	154.320000
295.616089	154.520000
295.709229	155.080000
295.802399	155.320000
295.895569	155.220000
295.988708	154.760000
296.081879	154.680000
296.175018	153.980000
296.268188	153.700000
296.361359	154.280000
296.454529	154.860000
296.547668	154.540000
296.640839	154.980000
296.734009	155.040000
296.827179	155.220000
296.920319	155.220000
297.013519	155.400000
297.106659	155.400000
297.199860	155.360000
297.292999	154.860000
297.386200	154.260000
297.479309	154.040000
297.572510	153.940000
297.665680	153.860000
297.758850	154.140000
297.852020	154.380000
297.945190	154.600000
298.038361	154.340000
298.131531	155.520000
298.224701	155.060000
298.317871	154.900000
298.411072	154.660000
298.504242	154.600000
298.597412	153.620000
298.690582	154.400000
298.783752	154.700000
298.876923	155.160000
298.970093	155.380000
299.063293	156.000000
299.156464	156.100000
299.249634	156.080000
299.342834	156.140000
299.436005	156.640000
299.529205	156.200000
299.622345	155.760000
299.715576	154.900000
299.808716	154.820000
299.901917	154.220000
299.995117	154.420000
300.088287	154.460000
300.181488	154.720000
300.274658	154.460000
300.367828	154.560000
300.461029	154.660000
300.554199	154.960000
300.647400	155.000000
300.740601	155.460000
300.833771	155.360000
300.926971	155.640000
301.020142	154.860000
301.113342	155.080000
301.206512	154.940000
301.299713	155.260000
301.392914	154.700000
301.486084	155.160000
301.579285	155.100000
301.672516	155.620000
301.765686	155.500000
301.858887	155.560000
301.952057	155.640000
302.045288	155.920000
302.138458	155.060000
302.231659	154.840000
302.324860	154.800000
302.418060	154.460000
302.511261	154.120000
302.604462	154.700000
302.697662	154.520000
302.790863	154.260000
302.884064	154.060000
302.977264	154.100000
303.070465	154.120000
303.163666	154.940000
303.256866	155.580000
303.350067	155.680000
303.443268	155.580000
303.536469	155.860000
303.629669	154.880000
303.722870	154.740000
303.816071	154.480000
303.909271	154.740000
304.002472	153.800000
304.095673	154.020000
304.188934	153.640000
304.282104	154.960000
304.375336	154.820000
304.468506	154.840000
304.561768	154.680000
304.654968	155.040000
304.748169	154.320000
304.841370	154.280000
304.934601	154.680000
305.027802	154.600000
305.121002	154.400000
305.214233	154.280000
305.307434	154.460000
305.400665	155.100000
305.493866	155.160000
