Model Number: SPM-002-B   
Serial Number: 70087108
Firmware Version: 004.15.4
Exposure Time: 100000.000000us
Data Taken on: 15-01-2021 17:51:08.830
Wavelength	Amplitude
221.570786	0.000000
221.663406	0.000000
221.756027	0.000000
221.848648	0.000000
221.941269	0.000000
222.033905	0.000000
222.126526	0.000000
222.219162	0.000000
222.311798	0.000000
222.404419	0.000000
222.497055	0.000000
222.589676	0.000000
222.682312	0.000000
222.774933	0.000000
222.867569	0.000000
222.960205	0.000000
223.052841	0.000000
223.145462	0.000000
223.238098	0.000000
223.330734	0.000000
223.423386	0.000000
223.516022	0.000000
223.608658	0.000000
223.701309	0.000000
223.793945	0.000000
223.886581	0.000000
223.979218	0.000000
224.071869	0.000000
224.164505	0.000000
224.257156	0.000000
224.349792	0.000000
224.442444	0.000000
224.535095	0.000000
224.627747	0.000000
224.720398	0.000000
224.813034	0.000000
224.905685	0.000000
224.998337	154.380000
225.090988	153.960000
225.183640	154.620000
225.276291	154.440000
225.368942	154.400000
225.461594	155.040000
225.554245	155.460000
225.646912	155.080000
225.739578	155.600000
225.832230	156.260000
225.924896	155.360000
226.017548	155.440000
226.110199	155.900000
226.202866	155.180000
226.295532	154.760000
226.388184	154.740000
226.480850	153.980000
226.573517	153.660000
226.666168	154.100000
226.758835	154.560000
226.851501	155.400000
226.944183	155.520000
227.036850	154.960000
227.129517	154.900000
227.222183	154.880000
227.314850	154.320000
227.407516	155.000000
227.500198	156.020000
227.592865	155.440000
227.685532	154.940000
227.778214	154.940000
227.870880	154.940000
227.963562	155.160000
228.056229	156.100000
228.148926	156.040000
228.241592	156.960000
228.334274	156.560000
228.426956	156.120000
228.519638	155.900000
228.612305	155.600000
228.704987	155.140000
228.797668	155.440000
228.890350	155.180000
228.983032	154.800000
229.075714	155.680000
229.168396	155.180000
229.261108	154.500000
229.353790	154.360000
229.446472	154.500000
229.539169	154.240000
229.631851	154.040000
229.724533	154.260000
229.817230	154.720000
229.909912	155.860000
230.002609	155.620000
230.095306	155.960000
230.187988	156.400000
230.280685	156.140000
230.373383	154.820000
230.466095	154.800000
230.558792	154.820000
230.651474	154.400000
230.744171	153.940000
230.836868	153.880000
230.929581	154.040000
231.022278	154.320000
231.114975	154.400000
231.207672	154.440000
231.300369	155.040000
231.393082	155.260000
231.485779	154.960000
231.578506	155.140000
231.671204	155.660000
231.763916	155.160000
231.856613	155.000000
231.949326	155.180000
232.042023	155.020000
232.134735	154.780000
232.227448	154.840000
232.320160	154.980000
232.412872	154.920000
232.505585	155.640000
232.598297	156.080000
232.691010	155.880000
232.783722	155.540000
232.876450	155.700000
232.969162	155.000000
233.061874	154.180000
233.154587	154.180000
233.247314	154.540000
233.340027	154.140000
233.432739	154.640000
233.525467	154.800000
233.618179	155.200000
233.710907	154.560000
233.803635	154.960000
233.896347	154.560000
233.989090	155.600000
234.081818	155.440000
234.174545	155.700000
234.267258	155.300000
234.359985	155.540000
234.452713	154.980000
234.545441	154.860000
234.638168	154.740000
234.730896	155.200000
234.823639	154.900000
234.916367	155.120000
235.009094	155.320000
235.101822	155.300000
235.194580	155.340000
235.287308	155.360000
235.380051	154.360000
235.472778	154.560000
235.565521	155.000000
235.658249	154.420000
235.750992	154.680000
235.843719	155.160000
235.936462	155.320000
236.029205	154.820000
236.121948	154.480000
236.214691	154.760000
236.307449	155.420000
236.400192	154.800000
236.492935	154.680000
236.585678	155.420000
236.678421	155.040000
236.771164	154.800000
236.863907	155.380000
236.956665	155.920000
237.049408	157.520000
237.142151	156.980000
237.234909	157.680000
237.327652	157.340000
237.420410	157.060000
237.513153	155.780000
237.605927	156.100000
237.698669	155.100000
237.791428	154.560000
237.884186	155.160000
237.976944	154.400000
238.069702	154.740000
238.162445	154.420000
238.255203	155.040000
238.347961	154.920000
238.440720	155.160000
238.533478	155.060000
238.626266	154.920000
238.719025	155.020000
238.811783	154.680000
238.904541	154.500000
238.997314	154.260000
239.090073	154.340000
239.182831	154.560000
239.275604	155.540000
239.368362	155.440000
239.461136	155.520000
239.553909	155.560000
239.646667	155.340000
239.739441	154.760000
239.832214	155.280000
239.925003	155.700000
240.017761	156.620000
240.110535	156.960000
240.203308	156.420000
240.296082	156.520000
240.388855	155.960000
240.481628	155.640000
240.574417	155.920000
240.667191	156.300000
240.759964	155.760000
240.852737	156.020000
240.945526	155.680000
241.038315	155.040000
241.131088	155.000000
241.223877	155.460000
241.316650	155.160000
241.409439	155.580000
241.502228	155.180000
241.595001	155.680000
241.687790	155.260000
241.780579	155.160000
241.873367	155.320000
241.966141	155.800000
242.058929	154.860000
242.151718	155.420000
242.244507	155.880000
242.337311	155.080000
242.430099	155.580000
242.522903	155.840000
242.615692	155.120000
242.708481	154.980000
242.801270	155.420000
242.894073	155.020000
242.986862	155.200000
243.079651	155.940000
243.172455	155.840000
243.265244	156.140000
243.358063	155.700000
243.450867	155.900000
243.543655	155.600000
243.636459	155.680000
243.729263	155.720000
243.822067	155.980000
243.914856	156.180000
244.007660	156.260000
244.100464	156.180000
244.193268	155.540000
244.286072	155.300000
244.378876	154.800000
244.471680	154.540000
244.564499	154.640000
244.657318	155.600000
244.750122	156.020000
244.842926	155.280000
244.935745	155.640000
245.028549	155.360000
245.121368	154.680000
245.214172	154.320000
245.306992	155.000000
245.399796	154.720000
245.492615	154.880000
245.585434	154.820000
245.678253	154.940000
245.771072	155.020000
245.863892	155.520000
245.956711	155.780000
246.049530	155.840000
246.142349	155.720000
246.235168	155.860000
246.327988	155.980000
246.420807	155.560000
246.513626	155.440000
246.606445	155.180000
246.699280	154.880000
246.792099	154.460000
246.884918	154.320000
246.977753	153.860000
247.070587	153.960000
247.163422	154.220000
247.256241	154.180000
247.349075	154.780000
247.441895	155.280000
247.534729	155.360000
247.627563	155.020000
247.720383	155.780000
247.813217	155.460000
247.906052	155.160000
247.998886	155.360000
248.091736	155.260000
248.184570	154.360000
248.277405	154.520000
248.370239	155.560000
248.463074	156.440000
248.555908	156.940000
248.648743	156.900000
248.741592	156.920000
248.834427	156.280000
248.927261	154.800000
249.020111	155.200000
249.112946	156.100000
249.205795	155.660000
249.298630	155.740000
249.391495	156.380000
249.484344	155.820000
249.577179	155.600000
249.670029	156.240000
249.762878	156.520000
249.855728	156.540000
249.948563	156.740000
250.041412	156.060000
250.134262	155.800000
250.227112	155.560000
250.319962	155.300000
250.412827	155.120000
250.505692	154.780000
250.598541	155.000000
250.691391	154.780000
250.784241	154.880000
250.877106	154.940000
250.969955	155.140000
251.062805	155.540000
251.155670	156.240000
251.248520	156.120000
251.341385	156.560000
251.434235	156.460000
251.527100	155.760000
251.619965	154.980000
251.712814	155.780000
251.805695	155.580000
251.898560	155.900000
251.991425	156.360000
252.084290	156.420000
252.177155	155.440000
252.270020	155.160000
252.362885	155.080000
252.455750	155.080000
252.548615	155.020000
252.641479	155.100000
252.734360	154.860000
252.827240	154.560000
252.920105	154.460000
253.012970	154.480000
253.105850	154.580000
253.198715	154.520000
253.291595	154.880000
253.384460	154.200000
253.477341	154.220000
253.570221	154.700000
253.663086	154.700000
253.755966	155.340000
253.848846	155.700000
253.941727	155.920000
254.034592	155.360000
254.127472	155.140000
254.220367	154.960000
254.313248	155.120000
254.406128	154.720000
254.499008	155.240000
254.591904	156.020000
254.684784	156.180000
254.777664	156.200000
254.870544	156.000000
254.963440	155.900000
255.056335	155.680000
255.149216	155.280000
255.242111	155.640000
255.334991	155.960000
255.427887	155.940000
255.520767	156.080000
255.613663	156.360000
255.706558	155.480000
255.799438	155.580000
255.892334	155.240000
255.985229	155.120000
256.078125	154.580000
256.171021	154.920000
256.263916	155.100000
256.356812	155.420000
256.449707	155.520000
256.542603	155.520000
256.635498	156.260000
256.728394	155.940000
256.821289	155.360000
256.914215	155.500000
257.007080	155.640000
257.100006	155.240000
257.192932	156.000000
257.285828	156.420000
257.378723	155.880000
257.471619	155.780000
257.564545	155.380000
257.657440	155.080000
257.750336	155.740000
257.843262	155.880000
257.936157	157.020000
258.029053	157.440000
258.121979	157.280000
258.214874	156.540000
258.307800	156.140000
258.400696	155.060000
258.493622	154.660000
258.586517	153.900000
258.679443	154.320000
258.772339	154.120000
258.865265	153.960000
258.958160	153.780000
259.051086	155.180000
259.144012	155.020000
259.236938	156.200000
259.329834	156.400000
259.422791	156.500000
259.515717	155.300000
259.608612	155.020000
259.701538	154.620000
259.794464	154.620000
259.887390	154.640000
259.980316	154.880000
260.073212	154.900000
260.166138	154.140000
260.259064	154.620000
260.351990	155.320000
260.444916	155.300000
260.537842	155.580000
260.630768	156.500000
260.723694	156.340000
260.816620	156.040000
260.909546	155.820000
261.002472	155.680000
261.095398	154.960000
261.188354	154.580000
261.281281	153.800000
261.374207	154.380000
261.467133	154.900000
261.560089	155.160000
261.653015	155.000000
261.745972	156.260000
261.838867	156.600000
261.931824	157.100000
262.024780	156.880000
262.117706	157.280000
262.210663	156.960000
262.303589	156.420000
262.396515	155.780000
262.489471	156.880000
262.582397	156.560000
262.675354	156.000000
262.768280	156.040000
262.861237	155.980000
262.954163	155.660000
263.047119	156.020000
263.140045	155.880000
263.233002	155.960000
263.325958	155.720000
263.418884	154.800000
263.511841	154.580000
263.604797	154.860000
263.697723	154.760000
263.790680	154.640000
263.883636	155.660000
263.976593	155.720000
264.069550	155.900000
264.162476	155.740000
264.255463	155.740000
264.348419	155.100000
264.441376	155.340000
264.534332	154.720000
264.627289	155.040000
264.720245	155.780000
264.813202	155.420000
264.906158	155.560000
264.999115	156.340000
265.092072	156.340000
265.185028	156.540000
265.277985	157.080000
265.370941	156.560000
265.463898	156.200000
265.556854	155.660000
265.649811	154.440000
265.742798	154.140000
265.835754	154.380000
265.928711	154.740000
266.021667	155.280000
266.114655	155.920000
266.207611	156.080000
266.300568	155.940000
266.393585	155.440000
266.486511	155.340000
266.579498	154.460000
266.672485	154.440000
266.765442	153.920000
266.858429	154.260000
266.951385	154.220000
267.044342	154.660000
267.137329	154.960000
267.230316	155.540000
267.323273	155.240000
267.416260	155.660000
267.509216	155.600000
267.602203	155.380000
267.695160	155.940000
267.788147	155.960000
267.881134	155.340000
267.974091	155.860000
268.067078	155.640000
268.160065	154.820000
268.253052	154.700000
268.346008	155.020000
268.438995	154.740000
268.531982	154.900000
268.624969	155.040000
268.717987	155.580000
268.810944	155.300000
268.903961	155.400000
268.996948	155.080000
269.089905	155.560000
269.182892	155.400000
269.275879	155.760000
269.368866	155.260000
269.461853	155.860000
269.554871	155.780000
269.647858	155.720000
269.740845	155.920000
269.833832	156.480000
269.926819	155.960000
270.019806	155.800000
270.112793	155.440000
270.205811	155.440000
270.298798	154.880000
270.391785	155.440000
270.484772	155.100000
270.577789	155.280000
270.670776	154.660000
270.763763	154.660000
270.856750	154.740000
270.949768	154.600000
271.042786	154.640000
271.135773	154.940000
271.228790	155.740000
271.321808	154.920000
271.414795	154.620000
271.507782	154.500000
271.600800	154.220000
271.693817	153.820000
271.786804	154.380000
271.879822	154.960000
271.972809	154.740000
272.065826	155.200000
272.158844	154.880000
272.251831	155.620000
272.344849	155.260000
272.437866	155.200000
272.530853	155.080000
272.623871	155.560000
272.716888	154.040000
272.809906	154.420000
272.902893	154.320000
272.995911	153.760000
273.088928	153.560000
273.181946	154.280000
273.274963	153.960000
273.367981	154.500000
273.460999	154.840000
273.554047	155.100000
273.647003	155.720000
273.740051	156.040000
273.833069	156.200000
273.926086	156.640000
274.019135	156.280000
274.112152	155.680000
274.205170	155.660000
274.298187	155.800000
274.391205	155.160000
274.484222	155.220000
274.577240	155.280000
274.670258	155.260000
274.763306	154.900000
274.856323	155.540000
274.949341	155.660000
275.042358	155.920000
275.135406	155.660000
275.228424	155.660000
275.321442	155.280000
275.414490	155.160000
275.507507	155.320000
275.600525	155.820000
275.693573	155.800000
275.786591	155.580000
275.879669	155.740000
275.972656	155.360000
276.065735	155.140000
276.158752	155.480000
276.251801	156.280000
276.344818	156.480000
276.437866	156.480000
276.530884	156.140000
276.623932	155.680000
276.716980	155.300000
276.809998	155.240000
276.903046	155.040000
276.996094	156.500000
277.089111	156.980000
277.182159	157.480000
277.275208	157.100000
277.368256	157.300000
277.461304	156.580000
277.554321	155.900000
277.647369	155.740000
277.740417	156.020000
277.833466	155.780000
277.926514	155.400000
278.019562	156.360000
278.112610	155.380000
278.205688	155.080000
278.298706	155.320000
278.391785	155.040000
278.484833	154.140000
278.577881	154.360000
278.670929	155.080000
278.763977	155.160000
278.857025	155.540000
278.950073	155.560000
279.043121	155.540000
279.136169	154.860000
279.229248	154.460000
279.322296	154.380000
279.415344	154.320000
279.508392	154.360000
279.601440	154.340000
279.694519	154.180000
279.787567	154.020000
279.880615	153.820000
279.973694	153.860000
280.066742	153.960000
280.159790	154.240000
280.252869	153.860000
280.345917	154.440000
280.438995	154.540000
280.532074	154.440000
280.625122	154.800000
280.718201	156.040000
280.811279	155.880000
280.904327	155.920000
280.997406	156.200000
281.090454	156.100000
281.183533	155.440000
281.276581	155.320000
281.369659	154.860000
281.462738	154.860000
281.555786	154.780000
281.648865	154.840000
281.741943	154.920000
281.835022	155.680000
281.928070	155.180000
282.021149	154.940000
282.114227	154.500000
282.207306	154.540000
282.300385	154.700000
282.393433	155.160000
282.486511	155.520000
282.579590	156.340000
282.672668	156.640000
282.765747	156.220000
282.858856	155.800000
282.951904	155.840000
283.045013	155.340000
283.138062	155.480000
283.231171	155.620000
283.324249	156.380000
283.417328	156.660000
283.510406	156.600000
283.603485	156.380000
283.696564	156.360000
283.789642	155.840000
283.882751	155.080000
283.975830	155.680000
284.068909	155.120000
284.161987	155.560000
284.255066	155.100000
284.348175	155.660000
284.441254	155.240000
284.534332	155.720000
284.627441	154.860000
284.720520	154.880000
284.813599	154.480000
284.906708	154.720000
284.999786	154.020000
285.092896	154.100000
285.185974	155.240000
285.279053	154.900000
285.372192	154.660000
285.465240	155.960000
285.558380	155.900000
285.651459	155.360000
285.744568	156.380000
285.837677	156.040000
285.930756	155.840000
286.023865	156.060000
286.116943	155.300000
286.210052	155.260000
286.303162	155.300000
286.396240	154.980000
286.489349	154.760000
286.582458	155.520000
286.675568	155.180000
286.768646	155.480000
286.861755	155.460000
286.954865	156.240000
287.047974	155.800000
287.141083	155.420000
287.234161	155.100000
287.327271	155.200000
287.420380	155.580000
287.513519	155.560000
287.606598	155.840000
287.699738	156.220000
287.792816	155.900000
287.885956	155.300000
287.979034	155.480000
288.072174	155.340000
288.165283	154.960000
288.258392	155.400000
288.351501	154.740000
288.444611	154.980000
288.537720	155.500000
288.630859	155.240000
288.723969	155.560000
288.817078	156.420000
288.910187	156.160000
289.003296	155.460000
289.096436	155.700000
289.189545	155.060000
289.282654	154.340000
289.375763	154.800000
289.468903	155.260000
289.562012	155.440000
289.655121	155.340000
289.748260	155.620000
289.841400	155.820000
289.934509	155.680000
290.027649	155.940000
290.120728	156.000000
290.213898	156.140000
290.306976	155.460000
290.400146	155.780000
290.493256	155.220000
290.586395	155.260000
290.679535	155.180000
290.772644	155.200000
290.865784	154.020000
290.958893	154.300000
291.052032	154.100000
291.145172	154.100000
291.238281	153.960000
291.331421	154.540000
291.424561	154.940000
291.517670	155.200000
291.610809	155.340000
291.703949	155.120000
291.797089	155.380000
291.890228	154.800000
291.983337	154.820000
292.076477	154.520000
292.169617	155.200000
292.262756	155.040000
292.355927	154.940000
292.449036	154.660000
292.542206	154.940000
292.635315	154.780000
292.728485	155.080000
292.821625	155.060000
292.914764	156.060000
293.007904	156.060000
293.101044	156.220000
293.194183	155.980000
293.287323	156.120000
293.380463	155.520000
293.473602	155.300000
293.566742	155.220000
293.659882	155.840000
293.753021	156.160000
293.846191	155.860000
293.939331	155.600000
294.032471	155.280000
294.125610	154.600000
294.218781	154.600000
294.311920	154.940000
294.405060	155.080000
294.498230	155.300000
294.591370	155.420000
294.684540	155.000000
294.777679	154.580000
294.870850	154.980000
294.963959	154.980000
295.057159	154.720000
295.150299	155.120000
295.243469	155.320000
295.336609	154.860000
295.429779	154.900000
295.522919	155.560000
295.616089	155.320000
295.709229	156.000000
295.802399	156.180000
295.895569	156.040000
295.988708	155.500000
296.081879	155.520000
296.175018	154.820000
296.268188	154.720000
296.361359	155.280000
296.454529	155.460000
296.547668	155.580000
296.640839	155.800000
296.734009	155.580000
296.827179	155.620000
296.920319	156.020000
297.013519	155.440000
297.106659	155.260000
297.199860	155.180000
297.292999	154.720000
297.386200	154.340000
297.479309	154.540000
297.572510	154.780000
297.665680	154.600000
297.758850	154.620000
297.852020	154.400000
297.945190	154.340000
298.038361	153.860000
298.131531	154.980000
298.224701	154.780000
298.317871	154.360000
298.411072	154.320000
298.504242	154.340000
298.597412	153.840000
298.690582	154.060000
298.783752	154.660000
298.876923	155.220000
298.970093	155.300000
299.063293	155.660000
299.156464	156.040000
299.249634	156.300000
299.342834	156.180000
299.436005	156.320000
299.529205	155.780000
299.622345	155.560000
299.715576	154.680000
299.808716	154.800000
299.901917	154.760000
299.995117	155.340000
300.088287	155.220000
300.181488	155.420000
300.274658	155.060000
300.367828	155.380000
300.461029	155.080000
300.554199	155.480000
300.647400	155.800000
300.740601	156.340000
300.833771	155.660000
300.926971	155.760000
301.020142	155.160000
301.113342	154.720000
301.206512	154.660000
301.299713	155.280000
301.392914	155.440000
301.486084	155.740000
301.579285	156.020000
301.672516	156.180000
301.765686	155.660000
301.858887	155.360000
301.952057	155.360000
302.045288	155.360000
302.138458	155.260000
302.231659	155.600000
302.324860	155.500000
302.418060	155.240000
302.511261	155.360000
302.604462	155.500000
302.697662	155.000000
302.790863	154.900000
302.884064	154.200000
302.977264	154.140000
303.070465	154.160000
303.163666	155.100000
303.256866	155.520000
303.350067	156.080000
303.443268	156.180000
303.536469	156.180000
303.629669	155.500000
303.722870	155.160000
303.816071	154.900000
303.909271	154.900000
304.002472	153.800000
304.095673	153.680000
304.188934	153.180000
304.282104	154.280000
304.375336	154.340000
304.468506	154.680000
304.561768	154.600000
304.654968	155.460000
304.748169	154.620000
304.841370	154.320000
304.934601	154.840000
305.027802	154.920000
305.121002	154.320000
305.214233	154.640000
305.307434	154.600000
305.400665	155.040000
305.493866	154.900000
