Model Number: SPM-002-B   
Serial Number: 70087108
Firmware Version: 004.15.4
Exposure Time: 100000.000000us
Data Taken on: 15-01-2021 17:51:33.409
Wavelength	Amplitude
221.570786	0.000000
221.663406	0.000000
221.756027	0.000000
221.848648	0.000000
221.941269	0.000000
222.033905	0.000000
222.126526	0.000000
222.219162	0.000000
222.311798	0.000000
222.404419	0.000000
222.497055	0.000000
222.589676	0.000000
222.682312	0.000000
222.774933	0.000000
222.867569	0.000000
222.960205	0.000000
223.052841	0.000000
223.145462	0.000000
223.238098	0.000000
223.330734	0.000000
223.423386	0.000000
223.516022	0.000000
223.608658	0.000000
223.701309	0.000000
223.793945	0.000000
223.886581	0.000000
223.979218	0.000000
224.071869	0.000000
224.164505	0.000000
224.257156	0.000000
224.349792	0.000000
224.442444	0.000000
224.535095	0.000000
224.627747	0.000000
224.720398	0.000000
224.813034	0.000000
224.905685	0.000000
224.998337	154.360000
225.090988	154.000000
225.183640	154.120000
225.276291	153.920000
225.368942	154.320000
225.461594	155.220000
225.554245	155.780000
225.646912	155.700000
225.739578	156.600000
225.832230	156.940000
225.924896	155.640000
226.017548	155.720000
226.110199	156.100000
226.202866	155.140000
226.295532	155.080000
226.388184	155.420000
226.480850	154.860000
226.573517	154.500000
226.666168	154.940000
226.758835	154.980000
226.851501	155.640000
226.944183	155.880000
227.036850	155.540000
227.129517	155.600000
227.222183	155.980000
227.314850	155.600000
227.407516	155.820000
227.500198	156.880000
227.592865	156.420000
227.685532	155.840000
227.778214	155.820000
227.870880	155.940000
227.963562	155.700000
228.056229	156.260000
228.148926	156.240000
228.241592	157.240000
228.334274	156.840000
228.426956	156.700000
228.519638	156.800000
228.612305	156.060000
228.704987	155.480000
228.797668	155.620000
228.890350	155.320000
228.983032	154.680000
229.075714	155.920000
229.168396	155.300000
229.261108	154.800000
229.353790	154.680000
229.446472	154.860000
229.539169	154.480000
229.631851	154.180000
229.724533	154.640000
229.817230	155.100000
229.909912	156.120000
230.002609	155.960000
230.095306	156.320000
230.187988	156.480000
230.280685	155.980000
230.373383	155.000000
230.466095	155.040000
230.558792	155.180000
230.651474	154.960000
230.744171	154.880000
230.836868	154.600000
230.929581	154.760000
231.022278	154.820000
231.114975	154.660000
231.207672	154.620000
231.300369	155.200000
231.393082	155.240000
231.485779	155.180000
231.578506	155.140000
231.671204	155.280000
231.763916	154.980000
231.856613	154.960000
231.949326	155.140000
232.042023	155.160000
232.134735	155.280000
232.227448	155.180000
232.320160	155.460000
232.412872	155.400000
232.505585	156.300000
232.598297	156.700000
232.691010	156.800000
232.783722	156.300000
232.876450	156.760000
232.969162	156.000000
233.061874	155.360000
233.154587	154.980000
233.247314	155.400000
233.340027	154.920000
233.432739	155.560000
233.525467	155.940000
233.618179	156.680000
233.710907	156.180000
233.803635	156.400000
233.896347	155.640000
233.989090	156.060000
234.081818	155.900000
234.174545	156.380000
234.267258	155.900000
234.359985	156.300000
234.452713	155.880000
234.545441	155.520000
234.638168	155.180000
234.730896	155.920000
234.823639	155.700000
234.916367	156.080000
235.009094	156.200000
235.101822	156.280000
235.194580	156.060000
235.287308	156.280000
235.380051	155.340000
235.472778	155.580000
235.565521	155.900000
235.658249	155.560000
235.750992	155.760000
235.843719	156.220000
235.936462	156.260000
236.029205	155.880000
236.121948	155.520000
236.214691	155.680000
236.307449	156.140000
236.400192	155.580000
236.492935	155.500000
236.585678	156.000000
236.678421	155.880000
236.771164	155.500000
236.863907	156.320000
236.956665	156.080000
237.049408	157.400000
237.142151	156.840000
237.234909	157.800000
237.327652	157.380000
237.420410	157.600000
237.513153	156.460000
237.605927	156.440000
237.698669	155.780000
237.791428	155.280000
237.884186	155.880000
237.976944	155.320000
238.069702	155.560000
238.162445	154.760000
238.255203	155.180000
238.347961	155.300000
238.440720	155.500000
238.533478	155.420000
238.626266	155.260000
238.719025	155.220000
238.811783	154.940000
238.904541	154.760000
238.997314	154.480000
239.090073	154.480000
239.182831	154.980000
239.275604	155.520000
239.368362	155.580000
239.461136	155.800000
239.553909	156.240000
239.646667	155.780000
239.739441	155.020000
239.832214	155.240000
239.925003	155.420000
240.017761	155.760000
240.110535	156.200000
240.203308	155.900000
240.296082	156.000000
240.388855	155.920000
240.481628	156.060000
240.574417	156.200000
240.667191	156.620000
240.759964	156.180000
240.852737	156.020000
240.945526	155.520000
241.038315	155.000000
241.131088	154.800000
241.223877	155.040000
241.316650	154.740000
241.409439	155.320000
241.502228	154.980000
241.595001	155.520000
241.687790	155.500000
241.780579	155.580000
241.873367	155.560000
241.966141	155.900000
242.058929	154.820000
242.151718	155.100000
242.244507	155.800000
242.337311	155.080000
242.430099	155.600000
242.522903	156.240000
242.615692	155.660000
242.708481	155.480000
242.801270	155.880000
242.894073	155.540000
242.986862	155.420000
243.079651	156.280000
243.172455	156.100000
243.265244	156.220000
243.358063	155.560000
243.450867	155.840000
243.543655	155.460000
243.636459	155.580000
243.729263	156.020000
243.822067	156.680000
243.914856	156.740000
244.007660	156.640000
244.100464	156.660000
244.193268	155.820000
244.286072	155.800000
244.378876	155.400000
244.471680	155.380000
244.564499	155.400000
244.657318	156.320000
244.750122	156.520000
244.842926	156.160000
244.935745	156.180000
245.028549	156.040000
245.121368	155.200000
245.214172	155.000000
245.306992	155.900000
245.399796	155.660000
245.492615	155.880000
245.585434	155.820000
245.678253	155.920000
245.771072	155.520000
245.863892	156.180000
245.956711	156.260000
246.049530	156.320000
246.142349	155.900000
246.235168	155.940000
246.327988	156.120000
246.420807	155.440000
246.513626	155.260000
246.606445	155.120000
246.699280	155.220000
246.792099	154.620000
246.884918	154.660000
246.977753	154.640000
247.070587	154.780000
247.163422	154.660000
247.256241	154.860000
247.349075	155.180000
247.441895	155.460000
247.534729	155.320000
247.627563	155.220000
247.720383	155.940000
247.813217	155.720000
247.906052	155.480000
247.998886	155.820000
248.091736	155.640000
248.184570	154.700000
248.277405	154.960000
248.370239	156.160000
248.463074	157.160000
248.555908	157.680000
248.648743	157.760000
248.741592	157.760000
248.834427	156.920000
248.927261	155.600000
249.020111	155.800000
249.112946	156.380000
249.205795	156.060000
249.298630	155.960000
249.391495	156.200000
249.484344	155.680000
249.577179	155.440000
249.670029	155.820000
249.762878	156.420000
249.855728	156.500000
249.948563	156.600000
250.041412	156.080000
250.134262	156.100000
250.227112	156.020000
250.319962	155.860000
250.412827	155.880000
250.505692	155.460000
250.598541	155.800000
250.691391	155.120000
250.784241	155.460000
250.877106	155.460000
250.969955	155.680000
251.062805	155.860000
251.155670	156.440000
251.248520	156.200000
251.341385	156.660000
251.434235	156.680000
251.527100	155.920000
251.619965	155.740000
251.712814	156.420000
251.805695	155.840000
251.898560	156.260000
251.991425	156.500000
252.084290	156.620000
252.177155	155.760000
252.270020	156.020000
252.362885	155.840000
252.455750	156.140000
252.548615	155.720000
252.641479	155.820000
252.734360	155.500000
252.827240	155.280000
252.920105	155.160000
253.012970	155.240000
253.105850	155.020000
253.198715	154.880000
253.291595	155.160000
253.384460	154.760000
253.477341	154.960000
253.570221	155.460000
253.663086	155.340000
253.755966	156.020000
253.848846	156.140000
253.941727	156.120000
254.034592	155.960000
254.127472	155.720000
254.220367	155.680000
254.313248	155.860000
254.406128	155.140000
254.499008	155.560000
254.591904	156.560000
254.684784	156.900000
254.777664	156.900000
254.870544	157.040000
254.963440	156.540000
255.056335	156.320000
255.149216	155.240000
255.242111	155.340000
255.334991	155.820000
255.427887	155.980000
255.520767	156.180000
255.613663	156.600000
255.706558	155.940000
255.799438	155.800000
255.892334	155.520000
255.985229	155.180000
256.078125	155.020000
256.171021	155.660000
256.263916	156.180000
256.356812	156.520000
256.449707	156.620000
256.542603	156.420000
256.635498	156.780000
256.728394	156.240000
256.821289	156.220000
256.914215	156.400000
257.007080	156.700000
257.100006	156.500000
257.192932	157.080000
257.285828	157.040000
257.378723	156.600000
257.471619	156.240000
257.564545	155.340000
257.657440	155.300000
257.750336	155.700000
257.843262	155.180000
257.936157	156.260000
258.029053	157.020000
258.121979	156.680000
258.214874	156.160000
258.307800	156.580000
258.400696	155.440000
258.493622	155.260000
258.586517	154.560000
258.679443	155.140000
258.772339	154.800000
258.865265	154.880000
258.958160	154.560000
259.051086	155.780000
259.144012	155.180000
259.236938	156.380000
259.329834	156.560000
259.422791	156.740000
259.515717	156.000000
259.608612	155.680000
259.701538	155.000000
259.794464	154.860000
259.887390	154.640000
259.980316	154.520000
260.073212	154.460000
260.166138	153.860000
260.259064	154.440000
260.351990	155.380000
260.444916	155.280000
260.537842	155.860000
260.630768	156.840000
260.723694	156.480000
260.816620	156.120000
260.909546	156.400000
261.002472	155.940000
261.095398	155.440000
261.188354	155.300000
261.281281	154.940000
261.374207	155.140000
261.467133	156.140000
261.560089	156.340000
261.653015	156.240000
261.745972	156.940000
261.838867	157.080000
261.931824	156.960000
262.024780	156.360000
262.117706	156.780000
262.210663	156.600000
262.303589	156.500000
262.396515	156.420000
262.489471	157.820000
262.582397	157.560000
262.675354	157.000000
262.768280	156.980000
262.861237	156.840000
262.954163	156.180000
263.047119	156.160000
263.140045	155.900000
263.233002	155.780000
263.325958	155.680000
263.418884	155.240000
263.511841	155.320000
263.604797	155.680000
263.697723	155.780000
263.790680	155.640000
263.883636	156.440000
263.976593	156.440000
264.069550	156.360000
264.162476	156.040000
264.255463	156.060000
264.348419	155.760000
264.441376	155.880000
264.534332	155.600000
264.627289	155.820000
264.720245	156.220000
264.813202	155.600000
264.906158	155.740000
264.999115	156.460000
265.092072	156.300000
265.185028	156.500000
265.277985	156.760000
265.370941	156.540000
265.463898	155.960000
265.556854	155.820000
265.649811	154.860000
265.742798	154.960000
265.835754	154.980000
265.928711	155.900000
266.021667	156.120000
266.114655	156.600000
266.207611	156.780000
266.300568	156.240000
266.393585	155.320000
266.486511	155.600000
266.579498	155.040000
266.672485	154.820000
266.765442	154.880000
266.858429	155.420000
266.951385	155.020000
267.044342	155.480000
267.137329	155.540000
267.230316	155.840000
267.323273	155.420000
267.416260	156.260000
267.509216	155.980000
267.602203	155.900000
267.695160	156.300000
267.788147	156.560000
267.881134	155.860000
267.974091	156.100000
268.067078	155.920000
268.160065	155.660000
268.253052	155.420000
268.346008	155.700000
268.438995	155.400000
268.531982	155.720000
268.624969	155.400000
268.717987	155.640000
268.810944	155.020000
268.903961	155.280000
268.996948	154.820000
269.089905	155.320000
269.182892	155.160000
269.275879	155.840000
269.368866	155.300000
269.461853	155.560000
269.554871	155.260000
269.647858	155.380000
269.740845	155.520000
269.833832	156.180000
269.926819	156.100000
270.019806	156.100000
270.112793	155.740000
270.205811	155.740000
270.298798	155.480000
270.391785	156.040000
270.484772	155.900000
270.577789	156.160000
270.670776	155.480000
270.763763	155.260000
270.856750	155.160000
270.949768	155.020000
271.042786	155.040000
271.135773	155.220000
271.228790	155.760000
271.321808	155.180000
271.414795	154.880000
271.507782	154.280000
271.600800	154.200000
271.693817	154.180000
271.786804	154.700000
271.879822	155.340000
271.972809	155.520000
272.065826	155.840000
272.158844	155.300000
272.251831	155.880000
272.344849	155.620000
272.437866	155.600000
272.530853	155.700000
272.623871	156.120000
272.716888	154.680000
272.809906	155.200000
272.902893	155.120000
272.995911	154.360000
273.088928	154.120000
273.181946	154.700000
273.274963	154.180000
273.367981	154.460000
273.460999	154.920000
273.554047	155.440000
273.647003	156.000000
273.740051	156.160000
273.833069	156.380000
273.926086	156.360000
274.019135	155.840000
274.112152	155.200000
274.205170	155.140000
274.298187	155.280000
274.391205	155.040000
274.484222	155.360000
274.577240	155.660000
274.670258	155.460000
274.763306	155.160000
274.856323	155.960000
274.949341	155.780000
275.042358	156.000000
275.135406	155.880000
275.228424	155.960000
275.321442	155.600000
275.414490	155.560000
275.507507	155.760000
275.600525	156.540000
275.693573	156.320000
275.786591	155.840000
275.879669	156.020000
275.972656	155.220000
276.065735	154.780000
276.158752	155.340000
276.251801	156.260000
276.344818	156.240000
276.437866	156.600000
276.530884	156.700000
276.623932	155.760000
276.716980	155.680000
276.809998	155.640000
276.903046	155.620000
276.996094	156.360000
277.089111	157.400000
277.182159	157.700000
277.275208	157.560000
277.368256	157.720000
277.461304	156.940000
277.554321	156.180000
277.647369	155.580000
277.740417	155.720000
277.833466	155.400000
277.926514	155.240000
278.019562	155.900000
278.112610	155.380000
278.205688	155.540000
278.298706	155.860000
278.391785	156.000000
278.484833	155.460000
278.577881	155.440000
278.670929	155.640000
278.763977	155.680000
278.857025	156.060000
278.950073	156.080000
279.043121	155.900000
279.136169	155.500000
279.229248	154.840000
279.322296	154.800000
279.415344	154.820000
279.508392	155.080000
279.601440	155.140000
279.694519	155.120000
279.787567	154.840000
279.880615	154.620000
279.973694	154.740000
280.066742	154.700000
280.159790	154.940000
280.252869	154.520000
280.345917	155.020000
280.438995	154.740000
280.532074	154.980000
280.625122	155.460000
280.718201	156.620000
280.811279	156.400000
280.904327	156.600000
280.997406	156.420000
281.090454	156.340000
281.183533	155.540000
281.276581	155.500000
281.369659	155.460000
281.462738	155.460000
281.555786	155.720000
281.648865	156.040000
281.741943	155.840000
281.835022	156.440000
281.928070	156.300000
282.021149	155.860000
282.114227	155.500000
282.207306	155.740000
282.300385	155.780000
282.393433	156.060000
282.486511	156.200000
282.579590	156.780000
282.672668	156.840000
282.765747	156.200000
282.858856	156.020000
282.951904	156.100000
283.045013	156.100000
283.138062	156.500000
283.231171	157.120000
283.324249	157.460000
283.417328	157.480000
283.510406	156.980000
283.603485	156.460000
283.696564	156.100000
283.789642	155.840000
283.882751	155.520000
283.975830	155.980000
284.068909	155.760000
284.161987	156.260000
284.255066	155.860000
284.348175	156.120000
284.441254	155.720000
284.534332	156.340000
284.627441	155.720000
284.720520	155.320000
284.813599	155.200000
284.906708	155.400000
284.999786	154.720000
285.092896	154.540000
285.185974	155.840000
285.279053	155.360000
285.372192	155.460000
285.465240	156.340000
285.558380	156.160000
285.651459	155.640000
285.744568	156.500000
285.837677	155.880000
285.930756	155.460000
286.023865	155.760000
286.116943	155.400000
286.210052	155.320000
286.303162	155.320000
286.396240	155.160000
286.489349	154.880000
286.582458	155.100000
286.675568	154.760000
286.768646	155.200000
286.861755	155.900000
286.954865	156.940000
287.047974	156.660000
287.141083	156.400000
287.234161	156.160000
287.327271	155.580000
287.420380	155.600000
287.513519	155.680000
287.606598	155.820000
287.699738	156.040000
287.792816	155.980000
287.885956	155.640000
287.979034	155.540000
288.072174	155.860000
288.165283	155.780000
288.258392	156.180000
288.351501	155.320000
288.444611	155.760000
288.537720	155.900000
288.630859	155.640000
288.723969	155.600000
288.817078	156.460000
288.910187	156.280000
289.003296	155.700000
289.096436	155.480000
289.189545	155.260000
289.282654	154.600000
289.375763	155.060000
289.468903	155.800000
289.562012	156.540000
289.655121	156.500000
289.748260	156.920000
289.841400	157.020000
289.934509	156.640000
290.027649	156.700000
290.120728	156.780000
290.213898	156.920000
290.306976	156.500000
290.400146	156.840000
290.493256	156.140000
290.586395	156.060000
290.679535	156.060000
290.772644	156.220000
290.865784	155.420000
290.958893	155.540000
291.052032	155.560000
291.145172	155.520000
291.238281	154.860000
291.331421	155.080000
291.424561	155.620000
291.517670	155.180000
291.610809	155.120000
291.703949	155.160000
291.797089	155.280000
291.890228	154.600000
291.983337	154.860000
292.076477	154.800000
292.169617	155.180000
292.262756	155.040000
292.355927	155.060000
292.449036	154.940000
292.542206	155.000000
292.635315	155.060000
292.728485	155.300000
292.821625	155.100000
292.914764	156.300000
293.007904	156.500000
293.101044	156.640000
293.194183	156.580000
293.287323	156.840000
293.380463	156.100000
293.473602	156.020000
293.566742	156.020000
293.659882	156.280000
293.753021	157.020000
293.846191	156.700000
293.939331	156.320000
294.032471	156.120000
294.125610	155.960000
294.218781	155.560000
294.311920	155.960000
294.405060	156.080000
294.498230	156.060000
294.591370	155.640000
294.684540	154.940000
294.777679	154.420000
294.870850	154.960000
294.963959	154.980000
295.057159	155.200000
295.150299	155.960000
295.243469	156.080000
295.336609	155.260000
295.429779	155.360000
295.522919	155.680000
295.616089	155.380000
295.709229	155.760000
295.802399	155.820000
295.895569	155.380000
295.988708	155.100000
296.081879	155.420000
296.175018	155.100000
296.268188	155.480000
296.361359	156.280000
296.454529	156.620000
296.547668	156.380000
296.640839	156.800000
296.734009	156.440000
296.827179	156.340000
296.920319	156.400000
297.013519	156.120000
297.106659	156.240000
297.199860	156.240000
297.292999	156.120000
297.386200	155.640000
297.479309	155.680000
297.572510	155.000000
297.665680	154.800000
297.758850	154.500000
297.852020	154.580000
297.945190	154.380000
298.038361	154.300000
298.131531	155.260000
298.224701	155.340000
298.317871	155.200000
298.411072	154.960000
298.504242	154.980000
298.597412	154.400000
298.690582	154.320000
298.783752	154.500000
298.876923	155.280000
298.970093	155.520000
299.063293	155.960000
299.156464	156.560000
299.249634	156.740000
299.342834	156.920000
299.436005	157.280000
299.529205	156.840000
299.622345	156.700000
299.715576	155.880000
299.808716	155.460000
299.901917	155.180000
299.995117	155.260000
300.088287	155.060000
300.181488	155.120000
300.274658	155.140000
300.367828	155.180000
300.461029	155.580000
300.554199	155.760000
300.647400	155.920000
300.740601	156.500000
300.833771	156.240000
300.926971	156.280000
301.020142	155.740000
301.113342	155.840000
301.206512	155.440000
301.299713	155.660000
301.392914	155.140000
301.486084	155.400000
301.579285	155.580000
301.672516	155.960000
301.765686	155.820000
301.858887	156.000000
301.952057	156.120000
302.045288	155.980000
302.138458	155.760000
302.231659	155.740000
302.324860	155.980000
302.418060	155.680000
302.511261	155.920000
302.604462	156.000000
302.697662	155.820000
302.790863	155.320000
302.884064	155.120000
302.977264	154.940000
303.070465	154.900000
303.163666	155.940000
303.256866	156.280000
303.350067	156.320000
303.443268	156.420000
303.536469	156.400000
303.629669	155.260000
303.722870	155.140000
303.816071	155.380000
303.909271	155.320000
304.002472	154.700000
304.095673	154.780000
304.188934	154.260000
304.282104	155.200000
304.375336	155.320000
304.468506	155.700000
304.561768	155.700000
304.654968	156.440000
304.748169	155.300000
304.841370	154.940000
304.934601	155.280000
305.027802	155.000000
305.121002	154.300000
305.214233	154.680000
305.307434	154.940000
305.400665	155.160000
305.493866	155.340000
