Model Number: SPM-002-B   
Serial Number: 70087108
Firmware Version: 004.15.4
Exposure Time: 100000.000000us
Data Taken on: 15-01-2021 16:39:42.177
Wavelength	Amplitude
221.570786	0.000000
221.663406	0.000000
221.756027	0.000000
221.848648	0.000000
221.941269	0.000000
222.033905	0.000000
222.126526	0.000000
222.219162	0.000000
222.311798	0.000000
222.404419	0.000000
222.497055	0.000000
222.589676	0.000000
222.682312	0.000000
222.774933	0.000000
222.867569	0.000000
222.960205	0.000000
223.052841	0.000000
223.145462	0.000000
223.238098	0.000000
223.330734	0.000000
223.423386	0.000000
223.516022	0.000000
223.608658	0.000000
223.701309	0.000000
223.793945	0.000000
223.886581	0.000000
223.979218	0.000000
224.071869	0.000000
224.164505	0.000000
224.257156	0.000000
224.349792	0.000000
224.442444	0.000000
224.535095	0.000000
224.627747	0.000000
224.720398	0.000000
224.813034	0.000000
224.905685	0.000000
224.998337	153.140000
225.090988	153.140000
225.183640	153.240000
225.276291	152.980000
225.368942	153.480000
225.461594	153.920000
225.554245	154.180000
225.646912	154.160000
225.739578	154.960000
225.832230	155.420000
225.924896	154.600000
226.017548	154.940000
226.110199	155.420000
226.202866	154.620000
226.295532	154.040000
226.388184	154.080000
226.480850	153.280000
226.573517	152.740000
226.666168	153.100000
226.758835	153.480000
226.851501	154.340000
226.944183	154.440000
227.036850	154.220000
227.129517	154.180000
227.222183	154.140000
227.314850	153.740000
227.407516	154.300000
227.500198	155.300000
227.592865	154.960000
227.685532	154.540000
227.778214	154.320000
227.870880	154.480000
227.963562	154.560000
228.056229	154.820000
228.148926	155.040000
228.241592	155.780000
228.334274	155.000000
228.426956	154.500000
228.519638	154.840000
228.612305	154.340000
228.704987	153.920000
228.797668	154.220000
228.890350	153.920000
228.983032	153.160000
229.075714	154.160000
229.168396	153.980000
229.261108	153.600000
229.353790	153.760000
229.446472	154.140000
229.539169	153.560000
229.631851	153.320000
229.724533	153.580000
229.817230	153.640000
229.909912	154.440000
230.002609	154.780000
230.095306	154.680000
230.187988	154.860000
230.280685	154.720000
230.373383	153.600000
230.466095	152.980000
230.558792	153.200000
230.651474	153.100000
230.744171	152.860000
230.836868	152.860000
230.929581	153.060000
231.022278	153.100000
231.114975	153.160000
231.207672	153.020000
231.300369	153.740000
231.393082	154.060000
231.485779	153.920000
231.578506	153.880000
231.671204	154.480000
231.763916	154.360000
231.856613	154.160000
231.949326	154.460000
232.042023	154.300000
232.134735	153.860000
232.227448	153.380000
232.320160	153.740000
232.412872	153.880000
232.505585	154.820000
232.598297	155.180000
232.691010	155.260000
232.783722	154.820000
232.876450	155.100000
232.969162	154.200000
233.061874	153.840000
233.154587	153.440000
233.247314	153.740000
233.340027	153.020000
233.432739	153.720000
233.525467	153.720000
233.618179	154.180000
233.710907	153.760000
233.803635	154.380000
233.896347	153.820000
233.989090	154.420000
234.081818	154.500000
234.174545	154.760000
234.267258	154.220000
234.359985	154.700000
234.452713	154.400000
234.545441	154.300000
234.638168	154.240000
234.730896	154.880000
234.823639	154.560000
234.916367	154.940000
235.009094	155.000000
235.101822	155.040000
235.194580	154.540000
235.287308	154.340000
235.380051	153.720000
235.472778	153.880000
235.565521	154.240000
235.658249	154.100000
235.750992	154.100000
235.843719	153.980000
235.936462	154.160000
236.029205	153.660000
236.121948	153.160000
236.214691	153.600000
236.307449	154.520000
236.400192	153.900000
236.492935	153.560000
236.585678	154.260000
236.678421	154.140000
236.771164	153.520000
236.863907	154.340000
236.956665	154.620000
237.049408	155.880000
237.142151	155.420000
237.234909	156.280000
237.327652	156.040000
237.420410	156.140000
237.513153	155.040000
237.605927	155.180000
237.698669	154.380000
237.791428	153.780000
237.884186	153.980000
237.976944	153.740000
238.069702	154.080000
238.162445	153.600000
238.255203	154.200000
238.347961	154.400000
238.440720	154.440000
238.533478	154.080000
238.626266	153.980000
238.719025	153.740000
238.811783	153.560000
238.904541	153.420000
238.997314	153.260000
239.090073	153.220000
239.182831	153.340000
239.275604	153.920000
239.368362	153.740000
239.461136	153.860000
239.553909	153.980000
239.646667	153.800000
239.739441	153.080000
239.832214	153.340000
239.925003	153.420000
240.017761	154.040000
240.110535	154.540000
240.203308	154.420000
240.296082	154.460000
240.388855	154.560000
240.481628	154.780000
240.574417	154.880000
240.667191	154.760000
240.759964	154.480000
240.852737	154.660000
240.945526	153.880000
241.038315	153.620000
241.131088	153.960000
241.223877	154.360000
241.316650	153.720000
241.409439	154.500000
241.502228	154.020000
241.595001	154.380000
241.687790	153.960000
241.780579	154.220000
241.873367	154.100000
241.966141	154.420000
242.058929	153.660000
242.151718	154.040000
242.244507	154.480000
242.337311	153.620000
242.430099	153.900000
242.522903	154.460000
242.615692	154.300000
242.708481	154.140000
242.801270	154.940000
242.894073	154.640000
242.986862	154.620000
243.079651	155.100000
243.172455	154.560000
243.265244	154.560000
243.358063	154.180000
243.450867	154.320000
243.543655	154.080000
243.636459	154.460000
243.729263	154.660000
243.822067	155.160000
243.914856	155.220000
244.007660	155.160000
244.100464	155.140000
244.193268	154.360000
244.286072	154.040000
244.378876	153.620000
244.471680	152.880000
244.564499	153.020000
244.657318	154.020000
244.750122	154.340000
244.842926	153.880000
244.935745	154.820000
245.028549	154.540000
245.121368	153.960000
245.214172	153.620000
245.306992	154.360000
245.399796	154.060000
245.492615	154.280000
245.585434	154.420000
245.678253	154.600000
245.771072	154.180000
245.863892	154.480000
245.956711	154.560000
246.049530	154.320000
246.142349	153.980000
246.235168	153.980000
246.327988	154.240000
246.420807	154.180000
246.513626	154.120000
246.606445	154.080000
246.699280	154.360000
246.792099	153.880000
246.884918	153.180000
246.977753	152.500000
247.070587	153.100000
247.163422	152.940000
247.256241	152.900000
247.349075	153.460000
247.441895	154.280000
247.534729	153.740000
247.627563	153.540000
247.720383	154.160000
247.813217	154.140000
247.906052	153.880000
247.998886	154.260000
248.091736	154.300000
248.184570	153.680000
248.277405	153.680000
248.370239	154.620000
248.463074	155.360000
248.555908	155.580000
248.648743	155.520000
248.741592	155.980000
248.834427	155.360000
248.927261	154.120000
249.020111	154.480000
249.112946	154.940000
249.205795	154.100000
249.298630	154.000000
249.391495	154.020000
249.484344	153.480000
249.577179	153.440000
249.670029	153.980000
249.762878	154.440000
249.855728	154.760000
249.948563	154.780000
250.041412	154.120000
250.134262	154.100000
250.227112	154.020000
250.319962	153.920000
250.412827	153.880000
250.505692	153.760000
250.598541	153.840000
250.691391	153.580000
250.784241	153.960000
250.877106	154.140000
250.969955	154.220000
251.062805	154.420000
251.155670	154.680000
251.248520	154.760000
251.341385	155.180000
251.434235	155.280000
251.527100	154.840000
251.619965	154.420000
251.712814	154.900000
251.805695	154.460000
251.898560	154.780000
251.991425	155.140000
252.084290	155.380000
252.177155	154.500000
252.270020	154.620000
252.362885	154.440000
252.455750	154.260000
252.548615	153.920000
252.641479	153.960000
252.734360	153.620000
252.827240	153.580000
252.920105	153.480000
253.012970	153.660000
253.105850	153.380000
253.198715	153.080000
253.291595	153.160000
253.384460	152.960000
253.477341	152.840000
253.570221	153.340000
253.663086	153.480000
253.755966	154.220000
253.848846	154.660000
253.941727	154.660000
254.034592	154.380000
254.127472	154.080000
254.220367	153.820000
254.313248	153.520000
254.406128	153.240000
254.499008	153.620000
254.591904	154.800000
254.684784	154.880000
254.777664	155.200000
254.870544	155.060000
254.963440	154.840000
255.056335	154.780000
255.149216	154.320000
255.242111	154.480000
255.334991	155.140000
255.427887	155.060000
255.520767	154.700000
255.613663	155.080000
255.706558	154.040000
255.799438	153.700000
255.892334	153.540000
255.985229	153.600000
256.078125	153.260000
256.171021	153.940000
256.263916	154.580000
256.356812	155.140000
256.449707	155.060000
256.542603	154.740000
256.635498	155.400000
256.728394	154.880000
256.821289	154.440000
256.914215	154.800000
257.007080	155.220000
257.100006	154.740000
257.192932	155.340000
257.285828	155.700000
257.378723	155.220000
257.471619	155.060000
257.564545	154.620000
257.657440	154.380000
257.750336	154.720000
257.843262	154.600000
257.936157	155.740000
258.029053	156.460000
258.121979	156.360000
258.214874	155.440000
258.307800	155.200000
258.400696	153.680000
258.493622	153.320000
258.586517	152.300000
258.679443	152.760000
258.772339	152.600000
258.865265	152.800000
258.958160	152.160000
259.051086	153.500000
259.144012	153.280000
259.236938	154.280000
259.329834	154.400000
259.422791	154.580000
259.515717	153.740000
259.608612	153.300000
259.701538	153.060000
259.794464	152.960000
259.887390	152.900000
259.980316	153.020000
260.073212	153.060000
260.166138	151.840000
260.259064	152.360000
260.351990	153.060000
260.444916	153.240000
260.537842	153.760000
260.630768	154.960000
260.723694	154.580000
260.816620	154.300000
260.909546	153.940000
261.002472	153.640000
261.095398	153.220000
261.188354	153.140000
261.281281	152.800000
261.374207	153.260000
261.467133	154.140000
261.560089	154.220000
261.653015	154.080000
261.745972	154.940000
261.838867	154.900000
261.931824	155.040000
262.024780	154.860000
262.117706	155.220000
262.210663	155.000000
262.303589	154.760000
262.396515	154.160000
262.489471	155.040000
262.582397	154.740000
262.675354	154.180000
262.768280	154.360000
262.861237	154.380000
262.954163	153.840000
263.047119	153.900000
263.140045	153.780000
263.233002	153.720000
263.325958	153.540000
263.418884	153.060000
263.511841	153.320000
263.604797	153.620000
263.697723	153.480000
263.790680	153.600000
263.883636	154.220000
263.976593	154.060000
264.069550	154.040000
264.162476	153.880000
264.255463	153.620000
264.348419	153.360000
264.441376	153.820000
264.534332	153.000000
264.627289	153.340000
264.720245	154.340000
264.813202	154.180000
264.906158	153.780000
264.999115	154.820000
265.092072	154.620000
265.185028	154.340000
265.277985	154.760000
265.370941	155.040000
265.463898	154.720000
265.556854	154.560000
265.649811	153.940000
265.742798	153.500000
265.835754	153.080000
265.928711	153.540000
266.021667	153.700000
266.114655	153.900000
266.207611	154.400000
266.300568	154.280000
266.393585	153.680000
266.486511	154.260000
266.579498	153.760000
266.672485	153.440000
266.765442	153.180000
266.858429	153.760000
266.951385	153.200000
267.044342	153.520000
267.137329	153.480000
267.230316	154.200000
267.323273	153.760000
267.416260	154.700000
267.509216	154.420000
267.602203	154.600000
267.695160	154.640000
267.788147	154.560000
267.881134	153.620000
267.974091	154.100000
268.067078	153.740000
268.160065	153.260000
268.253052	153.620000
268.346008	153.940000
268.438995	153.640000
268.531982	154.240000
268.624969	154.220000
268.717987	154.200000
268.810944	154.040000
268.903961	154.160000
268.996948	153.220000
269.089905	153.880000
269.182892	153.920000
269.275879	154.280000
269.368866	153.860000
269.461853	154.620000
269.554871	154.360000
269.647858	154.380000
269.740845	154.560000
269.833832	154.920000
269.926819	154.740000
270.019806	154.840000
270.112793	154.440000
270.205811	154.380000
270.298798	154.320000
270.391785	154.700000
270.484772	154.140000
270.577789	154.360000
270.670776	153.620000
270.763763	153.620000
270.856750	153.160000
270.949768	153.120000
271.042786	153.220000
271.135773	153.480000
271.228790	154.100000
271.321808	154.060000
271.414795	153.820000
271.507782	153.240000
271.600800	153.260000
271.693817	153.180000
271.786804	153.580000
271.879822	154.040000
271.972809	154.320000
272.065826	154.480000
272.158844	153.660000
272.251831	154.240000
272.344849	154.240000
272.437866	154.060000
272.530853	154.220000
272.623871	154.840000
272.716888	153.500000
272.809906	153.760000
272.902893	153.920000
272.995911	153.200000
273.088928	152.960000
273.181946	153.780000
273.274963	153.300000
273.367981	153.340000
273.460999	153.780000
273.554047	154.360000
273.647003	154.880000
273.740051	155.120000
273.833069	155.500000
273.926086	155.660000
274.019135	155.040000
274.112152	154.200000
274.205170	154.460000
274.298187	154.540000
274.391205	153.980000
274.484222	154.000000
274.577240	153.960000
274.670258	153.920000
274.763306	153.540000
274.856323	154.060000
274.949341	154.080000
275.042358	154.520000
275.135406	154.120000
275.228424	154.140000
275.321442	153.940000
275.414490	153.680000
275.507507	154.040000
275.600525	154.920000
275.693573	154.960000
275.786591	154.760000
275.879669	155.220000
275.972656	154.580000
276.065735	153.860000
276.158752	154.320000
276.251801	155.160000
276.344818	155.140000
276.437866	154.880000
276.530884	154.720000
276.623932	153.860000
276.716980	153.780000
276.809998	153.820000
276.903046	153.960000
276.996094	154.940000
277.089111	155.940000
277.182159	156.300000
277.275208	156.020000
277.368256	156.240000
277.461304	155.720000
277.554321	154.840000
277.647369	154.340000
277.740417	154.520000
277.833466	153.960000
277.926514	153.520000
278.019562	154.120000
278.112610	153.580000
278.205688	153.420000
278.298706	153.740000
278.391785	153.740000
278.484833	153.240000
278.577881	153.120000
278.670929	153.700000
278.763977	153.620000
278.857025	153.980000
278.950073	154.040000
279.043121	153.820000
279.136169	153.420000
279.229248	153.400000
279.322296	153.440000
279.415344	153.400000
279.508392	153.660000
279.601440	153.680000
279.694519	153.780000
279.787567	153.840000
279.880615	153.580000
279.973694	153.500000
280.066742	153.460000
280.159790	153.660000
280.252869	153.120000
280.345917	153.320000
280.438995	153.460000
280.532074	153.320000
280.625122	153.540000
280.718201	154.640000
280.811279	154.720000
280.904327	154.680000
280.997406	154.820000
281.090454	154.480000
281.183533	153.680000
281.276581	153.640000
281.369659	153.340000
281.462738	153.340000
281.555786	153.520000
281.648865	153.780000
281.741943	153.720000
281.835022	154.760000
281.928070	154.540000
282.021149	154.280000
282.114227	153.680000
282.207306	153.800000
282.300385	153.540000
282.393433	153.600000
282.486511	153.780000
282.579590	154.840000
282.672668	155.140000
282.765747	154.760000
282.858856	154.620000
282.951904	154.640000
283.045013	154.520000
283.138062	154.620000
283.231171	154.880000
283.324249	155.480000
283.417328	155.660000
283.510406	154.960000
283.603485	154.660000
283.696564	154.600000
283.789642	154.500000
283.882751	154.020000
283.975830	154.880000
284.068909	154.380000
284.161987	154.700000
284.255066	154.000000
284.348175	154.200000
284.441254	153.580000
284.534332	154.260000
284.627441	153.720000
284.720520	153.620000
284.813599	153.760000
284.906708	153.840000
284.999786	153.200000
285.092896	153.260000
285.185974	154.740000
285.279053	154.140000
285.372192	154.220000
285.465240	155.080000
285.558380	154.740000
285.651459	153.820000
285.744568	155.020000
285.837677	154.700000
285.930756	154.500000
286.023865	154.880000
286.116943	154.300000
286.210052	154.220000
286.303162	154.180000
286.396240	153.940000
286.489349	153.640000
286.582458	154.500000
286.675568	153.880000
286.768646	153.940000
286.861755	154.240000
286.954865	155.120000
287.047974	154.460000
287.141083	154.260000
287.234161	154.220000
287.327271	153.820000
287.420380	153.900000
287.513519	153.880000
287.606598	154.260000
287.699738	154.380000
287.792816	154.380000
287.885956	153.820000
287.979034	153.880000
288.072174	153.840000
288.165283	153.900000
288.258392	154.460000
288.351501	153.880000
288.444611	154.380000
288.537720	154.640000
288.630859	154.420000
288.723969	154.260000
288.817078	155.120000
288.910187	154.800000
289.003296	154.200000
289.096436	153.820000
289.189545	153.500000
289.282654	152.860000
289.375763	153.360000
289.468903	153.760000
289.562012	154.500000
289.655121	154.400000
289.748260	154.660000
289.841400	154.600000
289.934509	154.420000
290.027649	154.400000
290.120728	154.700000
290.213898	154.760000
290.306976	154.360000
290.400146	154.520000
290.493256	153.940000
290.586395	153.900000
290.679535	154.120000
290.772644	154.180000
290.865784	153.320000
290.958893	153.520000
291.052032	153.080000
291.145172	152.920000
291.238281	152.560000
291.331421	152.940000
291.424561	153.460000
291.517670	153.800000
291.610809	154.020000
291.703949	154.120000
291.797089	154.480000
291.890228	154.000000
291.983337	153.700000
292.076477	153.540000
292.169617	154.040000
292.262756	153.820000
292.355927	153.740000
292.449036	153.780000
292.542206	153.580000
292.635315	153.700000
292.728485	154.200000
292.821625	153.960000
292.914764	155.360000
293.007904	155.560000
293.101044	155.120000
293.194183	154.780000
293.287323	155.140000
293.380463	154.200000
293.473602	154.120000
293.566742	154.320000
293.659882	154.700000
293.753021	155.060000
293.846191	154.920000
293.939331	154.860000
294.032471	154.740000
294.125610	154.240000
294.218781	154.160000
294.311920	154.560000
294.405060	154.540000
294.498230	154.500000
294.591370	154.720000
294.684540	154.040000
294.777679	153.540000
294.870850	153.980000
294.963959	153.960000
295.057159	153.780000
295.150299	154.280000
295.243469	153.920000
295.336609	153.280000
295.429779	153.500000
295.522919	154.040000
295.616089	154.140000
295.709229	155.100000
295.802399	155.260000
295.895569	154.760000
295.988708	154.360000
296.081879	154.320000
296.175018	153.420000
296.268188	153.380000
296.361359	154.200000
296.454529	154.400000
296.547668	154.220000
296.640839	155.000000
296.734009	154.900000
296.827179	154.820000
296.920319	155.000000
297.013519	154.660000
297.106659	154.320000
297.199860	154.300000
297.292999	154.080000
297.386200	153.820000
297.479309	153.780000
297.572510	153.460000
297.665680	153.500000
297.758850	153.160000
297.852020	152.800000
297.945190	152.660000
298.038361	152.560000
298.131531	153.720000
298.224701	153.780000
298.317871	153.640000
298.411072	153.300000
298.504242	153.700000
298.597412	152.540000
298.690582	152.720000
298.783752	153.040000
298.876923	154.180000
298.970093	154.020000
299.063293	154.780000
299.156464	155.160000
299.249634	155.380000
299.342834	155.240000
299.436005	155.680000
299.529205	154.960000
299.622345	154.980000
299.715576	154.280000
299.808716	154.000000
299.901917	153.900000
299.995117	154.280000
300.088287	153.860000
300.181488	154.040000
300.274658	153.700000
300.367828	153.620000
300.461029	153.560000
300.554199	153.940000
300.647400	154.200000
300.740601	154.880000
300.833771	154.620000
300.926971	154.780000
301.020142	154.280000
301.113342	154.220000
301.206512	154.300000
301.299713	154.680000
301.392914	154.480000
301.486084	154.880000
301.579285	154.820000
301.672516	155.100000
301.765686	154.820000
301.858887	154.760000
301.952057	154.380000
302.045288	154.300000
302.138458	153.940000
302.231659	153.860000
302.324860	153.940000
302.418060	153.880000
302.511261	154.260000
302.604462	154.420000
302.697662	154.320000
302.790863	154.160000
302.884064	154.060000
302.977264	153.780000
303.070465	153.520000
303.163666	154.460000
303.256866	154.580000
303.350067	154.640000
303.443268	154.640000
303.536469	154.840000
303.629669	153.780000
303.722870	154.100000
303.816071	154.020000
303.909271	154.120000
304.002472	153.660000
304.095673	153.740000
304.188934	152.880000
304.282104	153.820000
304.375336	153.940000
304.468506	153.800000
304.561768	153.720000
304.654968	154.340000
304.748169	153.620000
304.841370	153.340000
304.934601	153.940000
305.027802	153.960000
305.121002	153.660000
305.214233	153.840000
305.307434	154.080000
305.400665	154.380000
305.493866	154.420000
