Model Number: SPM-002-B   
Serial Number: 70087108
Firmware Version: 004.15.4
Exposure Time: 100000.000000us
Data Taken on: 15-01-2021 16:40:17.186
Wavelength	Amplitude
221.570786	0.000000
221.663406	0.000000
221.756027	0.000000
221.848648	0.000000
221.941269	0.000000
222.033905	0.000000
222.126526	0.000000
222.219162	0.000000
222.311798	0.000000
222.404419	0.000000
222.497055	0.000000
222.589676	0.000000
222.682312	0.000000
222.774933	0.000000
222.867569	0.000000
222.960205	0.000000
223.052841	0.000000
223.145462	0.000000
223.238098	0.000000
223.330734	0.000000
223.423386	0.000000
223.516022	0.000000
223.608658	0.000000
223.701309	0.000000
223.793945	0.000000
223.886581	0.000000
223.979218	0.000000
224.071869	0.000000
224.164505	0.000000
224.257156	0.000000
224.349792	0.000000
224.442444	0.000000
224.535095	0.000000
224.627747	0.000000
224.720398	0.000000
224.813034	0.000000
224.905685	0.000000
224.998337	153.400000
225.090988	153.100000
225.183640	153.240000
225.276291	152.860000
225.368942	153.080000
225.461594	153.160000
225.554245	153.680000
225.646912	153.640000
225.739578	153.980000
225.832230	154.740000
225.924896	154.080000
226.017548	154.020000
226.110199	154.420000
226.202866	154.020000
226.295532	153.720000
226.388184	153.700000
226.480850	153.100000
226.573517	152.560000
226.666168	152.740000
226.758835	152.800000
226.851501	153.680000
226.944183	154.000000
227.036850	153.620000
227.129517	153.600000
227.222183	153.940000
227.314850	153.700000
227.407516	154.180000
227.500198	155.480000
227.592865	155.100000
227.685532	154.400000
227.778214	154.080000
227.870880	154.340000
227.963562	154.020000
228.056229	154.600000
228.148926	154.760000
228.241592	155.520000
228.334274	154.540000
228.426956	154.420000
228.519638	154.620000
228.612305	154.360000
228.704987	154.260000
228.797668	154.880000
228.890350	154.600000
228.983032	153.800000
229.075714	154.680000
229.168396	154.260000
229.261108	153.500000
229.353790	153.600000
229.446472	154.160000
229.539169	153.680000
229.631851	153.180000
229.724533	153.880000
229.817230	154.100000
229.909912	155.060000
230.002609	155.140000
230.095306	155.220000
230.187988	155.060000
230.280685	154.820000
230.373383	153.200000
230.466095	153.020000
230.558792	153.500000
230.651474	153.460000
230.744171	153.080000
230.836868	153.300000
230.929581	153.740000
231.022278	153.940000
231.114975	154.020000
231.207672	153.780000
231.300369	154.620000
231.393082	154.360000
231.485779	154.100000
231.578506	154.100000
231.671204	154.540000
231.763916	154.200000
231.856613	154.100000
231.949326	154.180000
232.042023	153.940000
232.134735	153.960000
232.227448	153.460000
232.320160	154.020000
232.412872	154.080000
232.505585	154.840000
232.598297	155.240000
232.691010	155.280000
232.783722	154.560000
232.876450	155.020000
232.969162	154.360000
233.061874	153.780000
233.154587	153.540000
233.247314	153.840000
233.340027	152.900000
233.432739	153.360000
233.525467	153.320000
233.618179	153.980000
233.710907	153.440000
233.803635	153.920000
233.896347	153.560000
233.989090	154.500000
234.081818	154.260000
234.174545	154.760000
234.267258	154.740000
234.359985	155.000000
234.452713	154.360000
234.545441	154.500000
234.638168	154.440000
234.730896	154.840000
234.823639	154.680000
234.916367	155.280000
235.009094	155.060000
235.101822	154.940000
235.194580	154.580000
235.287308	154.660000
235.380051	153.720000
235.472778	154.080000
235.565521	154.360000
235.658249	153.880000
235.750992	153.740000
235.843719	153.820000
235.936462	154.140000
236.029205	153.880000
236.121948	153.680000
236.214691	154.220000
236.307449	154.960000
236.400192	154.420000
236.492935	154.380000
236.585678	154.920000
236.678421	154.780000
236.771164	154.260000
236.863907	154.720000
236.956665	154.860000
237.049408	156.600000
237.142151	156.180000
237.234909	157.220000
237.327652	157.060000
237.420410	156.760000
237.513153	155.540000
237.605927	155.320000
237.698669	154.560000
237.791428	153.980000
237.884186	154.440000
237.976944	153.580000
238.069702	154.080000
238.162445	153.500000
238.255203	153.860000
238.347961	154.100000
238.440720	154.400000
238.533478	154.160000
238.626266	154.080000
238.719025	153.940000
238.811783	153.360000
238.904541	153.100000
238.997314	153.120000
239.090073	153.040000
239.182831	153.340000
239.275604	154.200000
239.368362	154.360000
239.461136	154.280000
239.553909	154.480000
239.646667	154.100000
239.739441	153.780000
239.832214	154.200000
239.925003	154.460000
240.017761	154.940000
240.110535	155.580000
240.203308	155.040000
240.296082	154.840000
240.388855	154.820000
240.481628	154.840000
240.574417	155.200000
240.667191	155.480000
240.759964	155.040000
240.852737	155.040000
240.945526	154.580000
241.038315	154.000000
241.131088	153.900000
241.223877	154.280000
241.316650	153.880000
241.409439	154.360000
241.502228	154.040000
241.595001	154.640000
241.687790	154.400000
241.780579	154.560000
241.873367	154.740000
241.966141	154.840000
242.058929	154.040000
242.151718	154.440000
242.244507	154.780000
242.337311	154.120000
242.430099	154.580000
242.522903	154.760000
242.615692	154.220000
242.708481	154.020000
242.801270	154.560000
242.894073	154.360000
242.986862	154.280000
243.079651	154.880000
243.172455	154.660000
243.265244	154.480000
243.358063	153.840000
243.450867	154.120000
243.543655	154.000000
243.636459	153.940000
243.729263	154.280000
243.822067	155.120000
243.914856	155.560000
244.007660	155.400000
244.100464	155.560000
244.193268	154.920000
244.286072	154.200000
244.378876	153.340000
244.471680	153.300000
244.564499	153.820000
244.657318	154.880000
244.750122	155.300000
244.842926	154.860000
244.935745	155.300000
245.028549	154.600000
245.121368	153.880000
245.214172	153.500000
245.306992	154.480000
245.399796	153.900000
245.492615	154.140000
245.585434	153.840000
245.678253	153.900000
245.771072	153.400000
245.863892	153.640000
245.956711	153.720000
246.049530	153.900000
246.142349	153.560000
246.235168	153.840000
246.327988	154.380000
246.420807	154.320000
246.513626	154.420000
246.606445	154.580000
246.699280	154.380000
246.792099	153.760000
246.884918	153.260000
246.977753	152.580000
247.070587	152.660000
247.163422	152.800000
247.256241	152.660000
247.349075	153.240000
247.441895	153.680000
247.534729	153.760000
247.627563	153.540000
247.720383	154.420000
247.813217	154.040000
247.906052	153.700000
247.998886	153.840000
248.091736	153.980000
248.184570	153.420000
248.277405	153.580000
248.370239	154.980000
248.463074	155.900000
248.555908	155.940000
248.648743	155.860000
248.741592	156.120000
248.834427	155.060000
248.927261	153.620000
249.020111	153.960000
249.112946	154.380000
249.205795	153.900000
249.298630	154.060000
249.391495	154.420000
249.484344	154.180000
249.577179	154.080000
249.670029	154.380000
249.762878	154.740000
249.855728	154.860000
249.948563	155.040000
250.041412	154.600000
250.134262	154.660000
250.227112	154.580000
250.319962	154.480000
250.412827	154.020000
250.505692	153.560000
250.598541	153.780000
250.691391	153.460000
250.784241	153.740000
250.877106	154.420000
250.969955	154.460000
251.062805	154.860000
251.155670	155.520000
251.248520	155.340000
251.341385	155.380000
251.434235	155.480000
251.527100	154.620000
251.619965	154.040000
251.712814	154.860000
251.805695	154.600000
251.898560	154.960000
251.991425	155.560000
252.084290	155.400000
252.177155	154.340000
252.270020	154.120000
252.362885	154.160000
252.455750	154.060000
252.548615	154.240000
252.641479	154.480000
252.734360	154.460000
252.827240	154.240000
252.920105	154.080000
253.012970	153.800000
253.105850	153.700000
253.198715	153.500000
253.291595	153.700000
253.384460	153.240000
253.477341	153.280000
253.570221	153.500000
253.663086	153.480000
253.755966	154.100000
253.848846	154.360000
253.941727	154.760000
254.034592	154.580000
254.127472	154.060000
254.220367	153.720000
254.313248	153.920000
254.406128	153.400000
254.499008	153.840000
254.591904	154.900000
254.684784	155.380000
254.777664	155.280000
254.870544	155.140000
254.963440	154.880000
255.056335	154.760000
255.149216	153.840000
255.242111	154.800000
255.334991	155.100000
255.427887	155.040000
255.520767	154.840000
255.613663	155.240000
255.706558	154.040000
255.799438	153.840000
255.892334	153.640000
255.985229	153.580000
256.078125	153.300000
256.171021	153.720000
256.263916	154.300000
256.356812	154.580000
256.449707	154.860000
256.542603	154.800000
256.635498	155.080000
256.728394	154.780000
256.821289	154.620000
256.914215	154.580000
257.007080	154.980000
257.100006	154.800000
257.192932	155.360000
257.285828	155.700000
257.378723	155.600000
257.471619	155.340000
257.564545	154.820000
257.657440	154.460000
257.750336	154.860000
257.843262	154.180000
257.936157	155.280000
258.029053	155.640000
258.121979	155.880000
258.214874	155.380000
258.307800	155.660000
258.400696	154.600000
258.493622	154.420000
258.586517	153.680000
258.679443	153.960000
258.772339	153.880000
258.865265	153.700000
258.958160	153.320000
259.051086	154.340000
259.144012	154.060000
259.236938	154.720000
259.329834	155.060000
259.422791	155.160000
259.515717	154.320000
259.608612	154.160000
259.701538	154.080000
259.794464	153.780000
259.887390	153.920000
259.980316	153.960000
260.073212	153.680000
260.166138	152.780000
260.259064	153.120000
260.351990	153.880000
260.444916	153.860000
260.537842	154.500000
260.630768	155.360000
260.723694	155.200000
260.816620	154.600000
260.909546	154.680000
261.002472	153.980000
261.095398	153.440000
261.188354	153.440000
261.281281	153.340000
261.374207	153.180000
261.467133	154.100000
261.560089	154.360000
261.653015	154.120000
261.745972	154.740000
261.838867	155.460000
261.931824	155.560000
262.024780	155.240000
262.117706	155.660000
262.210663	155.720000
262.303589	155.160000
262.396515	154.660000
262.489471	155.660000
262.582397	155.300000
262.675354	154.480000
262.768280	154.700000
262.861237	154.660000
262.954163	154.220000
263.047119	154.580000
263.140045	154.500000
263.233002	154.420000
263.325958	154.560000
263.418884	154.220000
263.511841	153.920000
263.604797	154.040000
263.697723	154.040000
263.790680	153.820000
263.883636	154.460000
263.976593	154.180000
264.069550	154.600000
264.162476	154.060000
264.255463	154.180000
264.348419	153.920000
264.441376	154.260000
264.534332	153.660000
264.627289	154.380000
264.720245	154.600000
264.813202	154.000000
264.906158	154.160000
264.999115	154.980000
265.092072	154.840000
265.185028	155.400000
265.277985	155.840000
265.370941	155.720000
265.463898	154.940000
265.556854	154.480000
265.649811	153.280000
265.742798	153.320000
265.835754	153.300000
265.928711	154.220000
266.021667	154.540000
266.114655	155.060000
266.207611	155.260000
266.300568	154.860000
266.393585	153.960000
266.486511	154.240000
266.579498	153.580000
266.672485	153.380000
266.765442	153.300000
266.858429	153.920000
266.951385	153.300000
267.044342	153.780000
267.137329	153.760000
267.230316	154.080000
267.323273	153.580000
267.416260	154.320000
267.509216	154.240000
267.602203	153.980000
267.695160	154.560000
267.788147	154.540000
267.881134	154.020000
267.974091	154.040000
268.067078	154.160000
268.160065	153.980000
268.253052	154.240000
268.346008	154.260000
268.438995	154.320000
268.531982	154.640000
268.624969	153.920000
268.717987	153.920000
268.810944	153.880000
268.903961	153.740000
268.996948	153.180000
269.089905	153.820000
269.182892	153.820000
269.275879	154.120000
269.368866	153.660000
269.461853	153.960000
269.554871	153.960000
269.647858	154.060000
269.740845	154.200000
269.833832	154.920000
269.926819	154.720000
270.019806	154.660000
270.112793	154.400000
270.205811	154.580000
270.298798	154.280000
270.391785	154.760000
270.484772	154.340000
270.577789	154.400000
270.670776	153.700000
270.763763	153.640000
270.856750	153.500000
270.949768	153.800000
271.042786	153.640000
271.135773	154.020000
271.228790	154.380000
271.321808	154.000000
271.414795	153.420000
271.507782	153.200000
271.600800	152.900000
271.693817	153.040000
271.786804	153.640000
271.879822	153.860000
271.972809	153.900000
272.065826	154.380000
272.158844	153.860000
272.251831	154.140000
272.344849	154.380000
272.437866	154.420000
272.530853	154.320000
272.623871	154.640000
272.716888	153.500000
272.809906	154.060000
272.902893	153.960000
272.995911	153.180000
273.088928	153.220000
273.181946	154.080000
273.274963	153.420000
273.367981	153.600000
273.460999	154.280000
273.554047	154.640000
273.647003	154.800000
273.740051	154.880000
273.833069	155.380000
273.926086	155.300000
274.019135	154.960000
274.112152	154.640000
274.205170	154.680000
274.298187	154.660000
274.391205	154.300000
274.484222	154.320000
274.577240	154.020000
274.670258	154.080000
274.763306	153.760000
274.856323	154.320000
274.949341	154.320000
275.042358	154.940000
275.135406	154.660000
275.228424	154.600000
275.321442	154.560000
275.414490	154.340000
275.507507	154.580000
275.600525	155.080000
275.693573	155.060000
275.786591	154.560000
275.879669	154.620000
275.972656	153.940000
276.065735	153.800000
276.158752	154.540000
276.251801	155.260000
276.344818	155.440000
276.437866	155.640000
276.530884	155.340000
276.623932	154.140000
276.716980	154.440000
276.809998	154.340000
276.903046	153.940000
276.996094	155.020000
277.089111	156.040000
277.182159	156.000000
277.275208	155.600000
277.368256	156.080000
277.461304	155.540000
277.554321	154.640000
277.647369	154.320000
277.740417	154.740000
277.833466	154.280000
277.926514	153.920000
278.019562	154.840000
278.112610	154.180000
278.205688	154.260000
278.298706	154.400000
278.391785	154.280000
278.484833	153.760000
278.577881	154.140000
278.670929	154.540000
278.763977	155.000000
278.857025	155.340000
278.950073	155.360000
279.043121	155.000000
279.136169	154.200000
279.229248	153.700000
279.322296	153.460000
279.415344	153.320000
279.508392	153.440000
279.601440	153.780000
279.694519	153.840000
279.787567	153.880000
279.880615	153.640000
279.973694	153.560000
280.066742	153.360000
280.159790	153.480000
280.252869	152.920000
280.345917	153.420000
280.438995	153.640000
280.532074	154.100000
280.625122	154.560000
280.718201	155.980000
280.811279	155.440000
280.904327	154.940000
280.997406	154.640000
281.090454	154.200000
281.183533	153.240000
281.276581	153.720000
281.369659	153.920000
281.462738	153.840000
281.555786	154.180000
281.648865	154.640000
281.741943	154.300000
281.835022	154.980000
281.928070	154.820000
282.021149	154.320000
282.114227	153.760000
282.207306	153.940000
282.300385	154.120000
282.393433	154.240000
282.486511	154.280000
282.579590	154.820000
282.672668	154.900000
282.765747	154.200000
282.858856	153.860000
282.951904	154.060000
283.045013	154.260000
283.138062	154.580000
283.231171	155.000000
283.324249	155.440000
283.417328	155.260000
283.510406	154.480000
283.603485	154.340000
283.696564	153.960000
283.789642	154.100000
283.882751	153.840000
283.975830	154.740000
284.068909	154.340000
284.161987	155.160000
284.255066	154.460000
284.348175	155.140000
284.441254	154.600000
284.534332	155.180000
284.627441	154.420000
284.720520	154.400000
284.813599	154.260000
284.906708	154.180000
284.999786	153.280000
285.092896	153.060000
285.185974	154.140000
285.279053	153.420000
285.372192	153.680000
285.465240	154.660000
285.558380	154.800000
285.651459	154.360000
285.744568	155.680000
285.837677	155.460000
285.930756	155.380000
286.023865	155.520000
286.116943	155.000000
286.210052	154.840000
286.303162	154.740000
286.396240	154.580000
286.489349	154.240000
286.582458	154.820000
286.675568	154.240000
286.768646	154.380000
286.861755	154.820000
286.954865	155.700000
287.047974	155.260000
287.141083	155.100000
287.234161	154.880000
287.327271	154.420000
287.420380	154.380000
287.513519	154.580000
287.606598	154.820000
287.699738	154.960000
287.792816	154.900000
287.885956	154.440000
287.979034	154.200000
288.072174	154.240000
288.165283	154.540000
288.258392	154.680000
288.351501	154.360000
288.444611	154.780000
288.537720	155.140000
288.630859	154.580000
288.723969	154.520000
288.817078	155.120000
288.910187	154.980000
289.003296	154.140000
289.096436	154.040000
289.189545	154.000000
289.282654	153.380000
289.375763	153.640000
289.468903	154.160000
289.562012	154.360000
289.655121	154.160000
289.748260	154.560000
289.841400	154.860000
289.934509	154.600000
290.027649	155.020000
290.120728	155.060000
290.213898	154.760000
290.306976	154.200000
290.400146	154.300000
290.493256	153.660000
290.586395	154.000000
290.679535	154.540000
290.772644	154.540000
290.865784	153.760000
290.958893	153.860000
291.052032	153.580000
291.145172	153.440000
291.238281	152.980000
291.331421	153.500000
291.424561	154.160000
291.517670	153.960000
291.610809	154.120000
291.703949	154.300000
291.797089	154.580000
291.890228	153.940000
291.983337	154.140000
292.076477	153.780000
292.169617	154.220000
292.262756	154.100000
292.355927	153.980000
292.449036	153.880000
292.542206	153.960000
292.635315	153.780000
292.728485	154.340000
292.821625	154.320000
292.914764	155.240000
293.007904	155.340000
293.101044	155.320000
293.194183	154.900000
293.287323	155.140000
293.380463	154.340000
293.473602	154.180000
293.566742	154.380000
293.659882	154.560000
293.753021	154.620000
293.846191	154.500000
293.939331	154.240000
294.032471	154.220000
294.125610	153.740000
294.218781	154.080000
294.311920	154.680000
294.405060	154.980000
294.498230	154.720000
294.591370	154.860000
294.684540	154.100000
294.777679	153.040000
294.870850	153.020000
294.963959	152.860000
295.057159	152.780000
295.150299	153.280000
295.243469	153.660000
295.336609	153.400000
295.429779	153.540000
295.522919	153.820000
295.616089	153.620000
295.709229	154.200000
295.802399	154.340000
295.895569	154.220000
295.988708	153.960000
296.081879	154.500000
296.175018	154.020000
296.268188	154.140000
296.361359	154.760000
296.454529	155.120000
296.547668	154.600000
296.640839	154.780000
296.734009	154.540000
296.827179	154.320000
296.920319	154.540000
297.013519	154.320000
297.106659	154.500000
297.199860	154.340000
297.292999	154.080000
297.386200	153.560000
297.479309	153.660000
297.572510	153.320000
297.665680	153.340000
297.758850	153.680000
297.852020	153.600000
297.945190	153.420000
298.038361	153.280000
298.131531	154.560000
298.224701	154.260000
298.317871	154.160000
298.411072	153.980000
298.504242	154.100000
298.597412	153.060000
298.690582	153.180000
298.783752	153.060000
298.876923	154.080000
298.970093	154.080000
299.063293	154.560000
299.156464	154.720000
299.249634	155.240000
299.342834	154.740000
299.436005	155.180000
299.529205	154.640000
299.622345	154.480000
299.715576	153.740000
299.808716	153.580000
299.901917	153.320000
299.995117	153.760000
300.088287	154.020000
300.181488	154.140000
300.274658	154.220000
300.367828	154.160000
300.461029	153.860000
300.554199	154.120000
300.647400	154.260000
300.740601	154.500000
300.833771	154.380000
300.926971	154.720000
301.020142	154.240000
301.113342	154.240000
301.206512	154.340000
301.299713	154.840000
301.392914	154.740000
301.486084	154.880000
301.579285	155.020000
301.672516	155.080000
301.765686	154.580000
301.858887	154.780000
301.952057	154.580000
302.045288	154.380000
302.138458	154.020000
302.231659	153.720000
302.324860	153.180000
302.418060	152.760000
302.511261	152.700000
302.604462	153.120000
302.697662	153.280000
302.790863	153.080000
302.884064	153.060000
302.977264	153.200000
303.070465	153.140000
303.163666	154.020000
303.256866	154.460000
303.350067	154.460000
303.443268	154.420000
303.536469	154.800000
303.629669	154.000000
303.722870	154.000000
303.816071	154.100000
303.909271	154.080000
304.002472	153.000000
304.095673	152.700000
304.188934	152.160000
304.282104	153.340000
304.375336	153.400000
304.468506	153.760000
304.561768	153.980000
304.654968	154.600000
304.748169	153.420000
304.841370	153.180000
304.934601	153.780000
305.027802	153.780000
305.121002	153.340000
305.214233	153.520000
305.307434	153.600000
305.400665	153.940000
305.493866	153.580000
