Model Number: SPM-002-B   
Serial Number: 70087108
Firmware Version: 004.15.4
Exposure Time: 100000.000000us
Data Taken on: 15-01-2021 16:40:22.134
Wavelength	Amplitude
221.570786	0.000000
221.663406	0.000000
221.756027	0.000000
221.848648	0.000000
221.941269	0.000000
222.033905	0.000000
222.126526	0.000000
222.219162	0.000000
222.311798	0.000000
222.404419	0.000000
222.497055	0.000000
222.589676	0.000000
222.682312	0.000000
222.774933	0.000000
222.867569	0.000000
222.960205	0.000000
223.052841	0.000000
223.145462	0.000000
223.238098	0.000000
223.330734	0.000000
223.423386	0.000000
223.516022	0.000000
223.608658	0.000000
223.701309	0.000000
223.793945	0.000000
223.886581	0.000000
223.979218	0.000000
224.071869	0.000000
224.164505	0.000000
224.257156	0.000000
224.349792	0.000000
224.442444	0.000000
224.535095	0.000000
224.627747	0.000000
224.720398	0.000000
224.813034	0.000000
224.905685	0.000000
224.998337	153.040000
225.090988	152.780000
225.183640	152.780000
225.276291	152.700000
225.368942	153.180000
225.461594	153.400000
225.554245	153.640000
225.646912	153.600000
225.739578	154.300000
225.832230	154.720000
225.924896	154.340000
226.017548	154.480000
226.110199	154.920000
226.202866	154.240000
226.295532	154.040000
226.388184	153.540000
226.480850	153.080000
226.573517	152.800000
226.666168	152.960000
226.758835	153.400000
226.851501	154.680000
226.944183	155.020000
227.036850	154.400000
227.129517	154.660000
227.222183	154.620000
227.314850	154.020000
227.407516	154.040000
227.500198	155.160000
227.592865	154.580000
227.685532	153.980000
227.778214	153.720000
227.870880	154.280000
227.963562	154.440000
228.056229	155.000000
228.148926	155.300000
228.241592	156.160000
228.334274	155.320000
228.426956	155.040000
228.519638	154.760000
228.612305	153.960000
228.704987	153.700000
228.797668	153.660000
228.890350	153.040000
228.983032	152.520000
229.075714	153.520000
229.168396	153.020000
229.261108	152.980000
229.353790	153.380000
229.446472	153.680000
229.539169	153.420000
229.631851	153.360000
229.724533	153.600000
229.817230	153.680000
229.909912	155.040000
230.002609	155.180000
230.095306	155.300000
230.187988	155.000000
230.280685	154.720000
230.373383	153.220000
230.466095	152.920000
230.558792	153.280000
230.651474	153.480000
230.744171	153.220000
230.836868	153.140000
230.929581	153.320000
231.022278	153.140000
231.114975	153.520000
231.207672	153.540000
231.300369	154.140000
231.393082	154.320000
231.485779	154.000000
231.578506	153.760000
231.671204	154.100000
231.763916	154.040000
231.856613	153.600000
231.949326	153.900000
232.042023	153.600000
232.134735	153.760000
232.227448	153.500000
232.320160	154.040000
232.412872	154.100000
232.505585	155.060000
232.598297	155.220000
232.691010	155.000000
232.783722	154.300000
232.876450	154.800000
232.969162	154.000000
233.061874	153.360000
233.154587	153.240000
233.247314	153.840000
233.340027	152.940000
233.432739	153.480000
233.525467	153.540000
233.618179	154.260000
233.710907	153.800000
233.803635	154.340000
233.896347	153.860000
233.989090	154.740000
234.081818	154.420000
234.174545	154.660000
234.267258	154.060000
234.359985	154.360000
234.452713	153.660000
234.545441	153.560000
234.638168	153.320000
234.730896	154.020000
234.823639	153.700000
234.916367	154.280000
235.009094	154.520000
235.101822	154.660000
235.194580	154.420000
235.287308	154.740000
235.380051	154.200000
235.472778	154.460000
235.565521	154.660000
235.658249	154.380000
235.750992	154.120000
235.843719	153.960000
235.936462	153.920000
236.029205	153.680000
236.121948	153.560000
236.214691	154.140000
236.307449	154.820000
236.400192	154.240000
236.492935	153.980000
236.585678	153.960000
236.678421	153.540000
236.771164	153.360000
236.863907	154.140000
236.956665	154.580000
237.049408	156.440000
237.142151	155.980000
237.234909	156.800000
237.327652	156.440000
237.420410	156.420000
237.513153	155.300000
237.605927	155.700000
237.698669	154.400000
237.791428	153.820000
237.884186	153.960000
237.976944	153.380000
238.069702	153.340000
238.162445	153.320000
238.255203	153.860000
238.347961	154.240000
238.440720	154.080000
238.533478	153.880000
238.626266	153.720000
238.719025	153.600000
238.811783	152.860000
238.904541	152.960000
238.997314	153.020000
239.090073	152.920000
239.182831	153.320000
239.275604	154.420000
239.368362	154.340000
239.461136	154.620000
239.553909	154.940000
239.646667	154.860000
239.739441	154.100000
239.832214	154.520000
239.925003	154.460000
240.017761	155.040000
240.110535	155.180000
240.203308	154.680000
240.296082	154.540000
240.388855	154.480000
240.481628	154.240000
240.574417	154.400000
240.667191	154.700000
240.759964	154.400000
240.852737	154.380000
240.945526	153.900000
241.038315	153.500000
241.131088	153.480000
241.223877	153.720000
241.316650	153.060000
241.409439	153.580000
241.502228	153.320000
241.595001	153.960000
241.687790	154.000000
241.780579	154.400000
241.873367	154.280000
241.966141	154.640000
242.058929	153.720000
242.151718	154.020000
242.244507	154.420000
242.337311	154.020000
242.430099	154.520000
242.522903	155.040000
242.615692	154.540000
242.708481	154.440000
242.801270	155.040000
242.894073	154.340000
242.986862	154.240000
243.079651	154.780000
243.172455	154.600000
243.265244	154.420000
243.358063	154.220000
243.450867	154.500000
243.543655	154.500000
243.636459	154.840000
243.729263	155.300000
243.822067	155.260000
243.914856	155.420000
244.007660	155.060000
244.100464	154.640000
244.193268	153.960000
244.286072	154.220000
244.378876	153.680000
244.471680	153.460000
244.564499	154.160000
244.657318	155.140000
244.750122	155.280000
244.842926	154.940000
244.935745	155.500000
245.028549	154.780000
245.121368	153.800000
245.214172	153.600000
245.306992	154.380000
245.399796	153.980000
245.492615	154.300000
245.585434	154.420000
245.678253	154.600000
245.771072	154.180000
245.863892	154.580000
245.956711	154.320000
246.049530	154.260000
246.142349	154.020000
246.235168	153.900000
246.327988	154.200000
246.420807	154.360000
246.513626	154.300000
246.606445	153.920000
246.699280	154.120000
246.792099	153.740000
246.884918	153.420000
246.977753	153.260000
247.070587	153.660000
247.163422	153.660000
247.256241	153.860000
247.349075	154.220000
247.441895	154.240000
247.534729	154.120000
247.627563	153.780000
247.720383	154.200000
247.813217	154.140000
247.906052	154.000000
247.998886	154.120000
248.091736	154.220000
248.184570	153.520000
248.277405	153.380000
248.370239	154.580000
248.463074	155.520000
248.555908	156.060000
248.648743	156.080000
248.741592	156.480000
248.834427	155.400000
248.927261	154.300000
249.020111	154.300000
249.112946	154.900000
249.205795	154.220000
249.298630	154.620000
249.391495	154.680000
249.484344	154.300000
249.577179	154.000000
249.670029	154.340000
249.762878	154.540000
249.855728	154.620000
249.948563	154.520000
250.041412	153.780000
250.134262	153.780000
250.227112	153.920000
250.319962	154.020000
250.412827	154.120000
250.505692	154.140000
250.598541	154.720000
250.691391	154.060000
250.784241	153.960000
250.877106	154.100000
250.969955	153.840000
251.062805	153.880000
251.155670	154.540000
251.248520	154.300000
251.341385	154.200000
251.434235	154.440000
251.527100	153.940000
251.619965	153.260000
251.712814	153.940000
251.805695	154.180000
251.898560	154.520000
251.991425	154.760000
252.084290	155.240000
252.177155	154.580000
252.270020	154.140000
252.362885	154.140000
252.455750	153.820000
252.548615	153.640000
252.641479	153.700000
252.734360	153.780000
252.827240	153.560000
252.920105	153.600000
253.012970	153.240000
253.105850	153.060000
253.198715	152.880000
253.291595	152.940000
253.384460	152.880000
253.477341	153.020000
253.570221	153.620000
253.663086	153.800000
253.755966	154.400000
253.848846	154.280000
253.941727	154.620000
254.034592	154.400000
254.127472	154.120000
254.220367	154.020000
254.313248	154.380000
254.406128	153.680000
254.499008	153.780000
254.591904	154.560000
254.684784	155.000000
254.777664	155.080000
254.870544	155.080000
254.963440	154.980000
255.056335	154.900000
255.149216	154.220000
255.242111	154.540000
255.334991	154.900000
255.427887	154.900000
255.520767	154.780000
255.613663	154.800000
255.706558	154.060000
255.799438	153.700000
255.892334	153.640000
255.985229	153.400000
256.078125	153.520000
256.171021	153.720000
256.263916	154.720000
256.356812	154.760000
256.449707	155.040000
256.542603	154.620000
256.635498	155.320000
256.728394	154.700000
256.821289	154.660000
256.914215	154.640000
257.007080	154.980000
257.100006	154.940000
257.192932	155.300000
257.285828	155.640000
257.378723	155.240000
257.471619	155.100000
257.564545	154.260000
257.657440	154.080000
257.750336	154.300000
257.843262	154.340000
257.936157	155.500000
258.029053	155.920000
258.121979	156.040000
258.214874	155.540000
258.307800	155.460000
258.400696	154.240000
258.493622	154.020000
258.586517	153.100000
258.679443	153.620000
258.772339	153.500000
258.865265	153.520000
258.958160	153.340000
259.051086	154.640000
259.144012	153.840000
259.236938	154.540000
259.329834	154.660000
259.422791	154.560000
259.515717	153.680000
259.608612	153.840000
259.701538	153.420000
259.794464	153.280000
259.887390	153.440000
259.980316	153.260000
260.073212	153.140000
260.166138	152.780000
260.259064	153.020000
260.351990	153.680000
260.444916	154.180000
260.537842	154.820000
260.630768	155.400000
260.723694	155.240000
260.816620	154.760000
260.909546	154.680000
261.002472	154.120000
261.095398	153.260000
261.188354	153.180000
261.281281	152.720000
261.374207	152.840000
261.467133	153.740000
261.560089	154.380000
261.653015	154.060000
261.745972	155.060000
261.838867	155.240000
261.931824	154.880000
262.024780	154.600000
262.117706	155.320000
262.210663	155.100000
262.303589	154.980000
262.396515	154.880000
262.489471	155.680000
262.582397	155.340000
262.675354	154.640000
262.768280	154.520000
262.861237	154.620000
262.954163	154.380000
263.047119	154.320000
263.140045	154.160000
263.233002	154.220000
263.325958	153.960000
263.418884	153.440000
263.511841	153.720000
263.604797	153.960000
263.697723	153.740000
263.790680	153.840000
263.883636	154.380000
263.976593	154.300000
264.069550	154.520000
264.162476	154.420000
264.255463	154.420000
264.348419	154.080000
264.441376	154.100000
264.534332	153.420000
264.627289	153.580000
264.720245	154.140000
264.813202	153.740000
264.906158	153.960000
264.999115	154.840000
265.092072	155.040000
265.185028	155.220000
265.277985	155.720000
265.370941	155.600000
265.463898	155.260000
265.556854	154.940000
265.649811	153.820000
265.742798	153.660000
265.835754	153.520000
265.928711	154.120000
266.021667	154.120000
266.114655	154.500000
266.207611	155.080000
266.300568	154.420000
266.393585	153.720000
266.486511	154.120000
266.579498	153.480000
266.672485	152.980000
266.765442	153.280000
266.858429	153.920000
266.951385	153.500000
267.044342	154.080000
267.137329	154.040000
267.230316	154.420000
267.323273	153.920000
267.416260	154.760000
267.509216	154.600000
267.602203	154.500000
267.695160	154.720000
267.788147	155.120000
267.881134	154.260000
267.974091	154.500000
268.067078	154.400000
268.160065	154.360000
268.253052	154.060000
268.346008	154.220000
268.438995	153.980000
268.531982	154.340000
268.624969	153.980000
268.717987	154.180000
268.810944	154.260000
268.903961	154.260000
268.996948	153.720000
269.089905	154.340000
269.182892	154.420000
269.275879	154.580000
269.368866	154.280000
269.461853	155.040000
269.554871	154.720000
269.647858	154.380000
269.740845	154.840000
269.833832	155.320000
269.926819	154.420000
270.019806	154.320000
270.112793	153.780000
270.205811	153.380000
270.298798	152.960000
270.391785	153.760000
270.484772	153.100000
270.577789	153.660000
270.670776	153.220000
270.763763	153.460000
270.856750	153.460000
270.949768	153.720000
271.042786	153.740000
271.135773	154.020000
271.228790	154.400000
271.321808	153.960000
271.414795	153.660000
271.507782	153.340000
271.600800	152.720000
271.693817	152.520000
271.786804	153.000000
271.879822	153.540000
271.972809	153.640000
272.065826	154.580000
272.158844	154.260000
272.251831	154.720000
272.344849	154.620000
272.437866	154.300000
272.530853	154.220000
272.623871	154.420000
272.716888	153.260000
272.809906	153.780000
272.902893	153.920000
272.995911	153.040000
273.088928	152.700000
273.181946	153.080000
273.274963	152.480000
273.367981	152.960000
273.460999	153.600000
273.554047	154.360000
273.647003	155.040000
273.740051	155.100000
273.833069	155.240000
273.926086	155.100000
274.019135	154.660000
274.112152	154.300000
274.205170	154.360000
274.298187	154.580000
274.391205	154.300000
274.484222	154.560000
274.577240	154.240000
274.670258	154.080000
274.763306	153.560000
274.856323	154.280000
274.949341	154.220000
275.042358	154.620000
275.135406	154.640000
275.228424	154.700000
275.321442	154.240000
275.414490	153.940000
275.507507	154.220000
275.600525	154.760000
275.693573	154.480000
275.786591	154.360000
275.879669	154.500000
275.972656	154.000000
276.065735	153.580000
276.158752	154.340000
276.251801	155.140000
276.344818	155.420000
276.437866	155.620000
276.530884	155.380000
276.623932	154.460000
276.716980	154.460000
276.809998	154.100000
276.903046	154.000000
276.996094	154.960000
277.089111	155.780000
277.182159	155.840000
277.275208	155.780000
277.368256	155.840000
277.461304	155.360000
277.554321	154.800000
277.647369	154.520000
277.740417	154.720000
277.833466	154.400000
277.926514	154.300000
278.019562	154.720000
278.112610	154.240000
278.205688	154.040000
278.298706	154.340000
278.391785	154.040000
278.484833	153.460000
278.577881	153.400000
278.670929	153.680000
278.763977	153.820000
278.857025	154.340000
278.950073	154.400000
279.043121	154.320000
279.136169	154.240000
279.229248	153.880000
279.322296	153.820000
279.415344	153.780000
279.508392	153.780000
279.601440	153.780000
279.694519	153.880000
279.787567	153.500000
279.880615	153.380000
279.973694	153.460000
280.066742	153.480000
280.159790	153.640000
280.252869	153.440000
280.345917	153.980000
280.438995	154.120000
280.532074	154.000000
280.625122	154.300000
280.718201	155.480000
280.811279	155.200000
280.904327	155.140000
280.997406	155.240000
281.090454	154.780000
281.183533	153.940000
281.276581	153.700000
281.369659	153.360000
281.462738	153.480000
281.555786	153.760000
281.648865	153.960000
281.741943	154.120000
281.835022	154.980000
281.928070	154.700000
282.021149	154.320000
282.114227	154.040000
282.207306	153.940000
282.300385	153.860000
282.393433	154.000000
282.486511	154.160000
282.579590	154.580000
282.672668	155.040000
282.765747	154.400000
282.858856	153.920000
282.951904	153.960000
283.045013	154.140000
283.138062	154.060000
283.231171	154.580000
283.324249	155.320000
283.417328	154.940000
283.510406	154.680000
283.603485	154.440000
283.696564	154.340000
283.789642	153.940000
283.882751	153.940000
283.975830	154.180000
284.068909	154.040000
284.161987	154.620000
284.255066	154.340000
284.348175	154.660000
284.441254	154.480000
284.534332	155.220000
284.627441	154.780000
284.720520	154.880000
284.813599	154.840000
284.906708	154.860000
284.999786	154.020000
285.092896	153.700000
285.185974	154.540000
285.279053	153.900000
285.372192	153.800000
285.465240	154.700000
285.558380	154.540000
285.651459	154.120000
285.744568	155.140000
285.837677	154.880000
285.930756	154.720000
286.023865	154.820000
286.116943	154.400000
286.210052	154.580000
286.303162	154.300000
286.396240	154.120000
286.489349	153.780000
286.582458	154.360000
286.675568	153.740000
286.768646	154.220000
286.861755	154.260000
286.954865	155.460000
287.047974	154.880000
287.141083	154.860000
287.234161	154.560000
287.327271	154.240000
287.420380	154.040000
287.513519	153.820000
287.606598	153.780000
287.699738	154.140000
287.792816	154.220000
287.885956	153.700000
287.979034	154.120000
288.072174	154.480000
288.165283	154.300000
288.258392	154.480000
288.351501	153.880000
288.444611	154.100000
288.537720	154.300000
288.630859	153.940000
288.723969	154.300000
288.817078	155.100000
288.910187	154.880000
289.003296	154.160000
289.096436	154.140000
289.189545	153.320000
289.282654	152.600000
289.375763	152.900000
289.468903	153.600000
289.562012	154.300000
289.655121	154.660000
289.748260	155.420000
289.841400	155.840000
289.934509	155.500000
290.027649	155.520000
290.120728	155.260000
290.213898	155.280000
290.306976	154.660000
290.400146	154.700000
290.493256	154.180000
290.586395	154.580000
290.679535	154.580000
290.772644	154.480000
290.865784	153.660000
290.958893	153.620000
291.052032	153.500000
291.145172	153.300000
291.238281	152.940000
291.331421	153.500000
291.424561	153.920000
291.517670	153.700000
291.610809	153.880000
291.703949	154.080000
291.797089	154.340000
291.890228	153.800000
291.983337	153.700000
292.076477	153.440000
292.169617	153.660000
292.262756	153.500000
292.355927	153.540000
292.449036	153.460000
292.542206	153.660000
292.635315	153.620000
292.728485	153.860000
292.821625	153.720000
292.914764	155.120000
293.007904	155.260000
293.101044	155.280000
293.194183	154.900000
293.287323	154.940000
293.380463	153.920000
293.473602	153.360000
293.566742	153.620000
293.659882	154.440000
293.753021	155.060000
293.846191	154.980000
293.939331	154.720000
294.032471	154.360000
294.125610	153.860000
294.218781	154.020000
294.311920	154.660000
294.405060	155.240000
294.498230	155.440000
294.591370	155.160000
294.684540	154.140000
294.777679	153.400000
294.870850	153.680000
294.963959	153.380000
295.057159	153.460000
295.150299	154.120000
295.243469	154.060000
295.336609	153.200000
295.429779	153.300000
295.522919	153.680000
295.616089	153.600000
295.709229	154.420000
295.802399	154.860000
295.895569	154.500000
295.988708	154.020000
296.081879	154.120000
296.175018	153.400000
296.268188	153.380000
296.361359	154.440000
296.454529	154.780000
296.547668	154.360000
296.640839	154.580000
296.734009	154.280000
296.827179	153.980000
296.920319	154.040000
297.013519	154.320000
297.106659	154.400000
297.199860	154.620000
297.292999	154.680000
297.386200	154.620000
297.479309	154.400000
297.572510	154.220000
297.665680	153.960000
297.758850	153.780000
297.852020	153.640000
297.945190	153.700000
298.038361	153.440000
298.131531	154.400000
298.224701	154.100000
298.317871	153.720000
298.411072	153.240000
298.504242	153.380000
298.597412	152.720000
298.690582	152.860000
298.783752	152.980000
298.876923	153.680000
298.970093	153.700000
299.063293	154.020000
299.156464	154.460000
299.249634	154.700000
299.342834	154.940000
299.436005	155.360000
299.529205	155.240000
299.622345	155.060000
299.715576	154.600000
299.808716	153.880000
299.901917	153.520000
299.995117	153.780000
300.088287	153.660000
300.181488	153.380000
300.274658	153.400000
300.367828	153.100000
300.461029	152.960000
300.554199	153.160000
300.647400	153.420000
300.740601	154.080000
300.833771	153.980000
300.926971	153.960000
301.020142	153.480000
301.113342	153.520000
301.206512	153.220000
301.299713	153.880000
301.392914	153.680000
301.486084	154.120000
301.579285	154.320000
301.672516	154.780000
301.765686	154.380000
301.858887	154.320000
301.952057	154.140000
302.045288	154.260000
302.138458	153.740000
302.231659	153.640000
302.324860	153.660000
302.418060	153.220000
302.511261	153.140000
302.604462	153.500000
302.697662	153.400000
302.790863	153.080000
302.884064	152.900000
302.977264	152.680000
303.070465	152.680000
303.163666	153.500000
303.256866	154.040000
303.350067	154.200000
303.443268	154.320000
303.536469	154.200000
303.629669	153.400000
303.722870	153.240000
303.816071	153.300000
303.909271	153.320000
304.002472	152.640000
304.095673	152.520000
304.188934	151.820000
304.282104	152.740000
304.375336	152.860000
304.468506	153.340000
304.561768	153.160000
304.654968	154.080000
304.748169	153.280000
304.841370	152.840000
304.934601	152.960000
305.027802	152.800000
305.121002	152.340000
305.214233	152.560000
305.307434	152.560000
305.400665	153.060000
305.493866	153.260000
