Model Number: SPM-002-B   
Serial Number: 70087108
Firmware Version: 004.15.4
Exposure Time: 100000.000000us
Data Taken on: 15-01-2021 16:40:30.242
Wavelength	Amplitude
221.570786	0.000000
221.663406	0.000000
221.756027	0.000000
221.848648	0.000000
221.941269	0.000000
222.033905	0.000000
222.126526	0.000000
222.219162	0.000000
222.311798	0.000000
222.404419	0.000000
222.497055	0.000000
222.589676	0.000000
222.682312	0.000000
222.774933	0.000000
222.867569	0.000000
222.960205	0.000000
223.052841	0.000000
223.145462	0.000000
223.238098	0.000000
223.330734	0.000000
223.423386	0.000000
223.516022	0.000000
223.608658	0.000000
223.701309	0.000000
223.793945	0.000000
223.886581	0.000000
223.979218	0.000000
224.071869	0.000000
224.164505	0.000000
224.257156	0.000000
224.349792	0.000000
224.442444	0.000000
224.535095	0.000000
224.627747	0.000000
224.720398	0.000000
224.813034	0.000000
224.905685	0.000000
224.998337	153.380000
225.090988	152.980000
225.183640	152.720000
225.276291	152.500000
225.368942	152.720000
225.461594	153.200000
225.554245	153.440000
225.646912	153.580000
225.739578	153.980000
225.832230	154.400000
225.924896	153.400000
226.017548	153.780000
226.110199	154.220000
226.202866	153.720000
226.295532	153.780000
226.388184	154.100000
226.480850	153.520000
226.573517	153.120000
226.666168	153.300000
226.758835	153.100000
226.851501	153.400000
226.944183	153.600000
227.036850	153.140000
227.129517	153.380000
227.222183	153.600000
227.314850	153.200000
227.407516	153.660000
227.500198	154.860000
227.592865	154.560000
227.685532	154.000000
227.778214	154.040000
227.870880	154.100000
227.963562	154.300000
228.056229	154.440000
228.148926	154.560000
228.241592	155.340000
228.334274	154.860000
228.426956	154.080000
228.519638	154.040000
228.612305	154.060000
228.704987	153.780000
228.797668	153.860000
228.890350	153.780000
228.983032	153.200000
229.075714	153.740000
229.168396	153.460000
229.261108	152.960000
229.353790	152.840000
229.446472	153.480000
229.539169	152.780000
229.631851	152.180000
229.724533	152.860000
229.817230	153.280000
229.909912	154.100000
230.002609	154.420000
230.095306	154.780000
230.187988	154.640000
230.280685	154.180000
230.373383	152.960000
230.466095	152.680000
230.558792	152.840000
230.651474	152.600000
230.744171	152.540000
230.836868	152.600000
230.929581	153.020000
231.022278	153.200000
231.114975	153.540000
231.207672	153.560000
231.300369	153.840000
231.393082	153.600000
231.485779	153.400000
231.578506	152.920000
231.671204	153.080000
231.763916	153.140000
231.856613	153.220000
231.949326	153.520000
232.042023	153.700000
232.134735	153.920000
232.227448	153.660000
232.320160	153.860000
232.412872	153.880000
232.505585	154.980000
232.598297	154.860000
232.691010	154.680000
232.783722	154.220000
232.876450	154.260000
232.969162	153.160000
233.061874	152.700000
233.154587	152.640000
233.247314	153.060000
233.340027	152.520000
233.432739	153.120000
233.525467	153.320000
233.618179	153.800000
233.710907	153.500000
233.803635	154.280000
233.896347	153.840000
233.989090	154.440000
234.081818	154.120000
234.174545	154.340000
234.267258	153.420000
234.359985	153.700000
234.452713	153.220000
234.545441	153.500000
234.638168	153.080000
234.730896	153.720000
234.823639	153.280000
234.916367	153.840000
235.009094	153.880000
235.101822	154.080000
235.194580	153.740000
235.287308	154.060000
235.380051	153.440000
235.472778	153.620000
235.565521	153.760000
235.658249	153.400000
235.750992	153.360000
235.843719	153.320000
235.936462	153.260000
236.029205	152.880000
236.121948	152.860000
236.214691	153.260000
236.307449	153.900000
236.400192	153.420000
236.492935	153.380000
236.585678	153.560000
236.678421	153.460000
236.771164	153.160000
236.863907	154.040000
236.956665	154.440000
237.049408	156.460000
237.142151	155.820000
237.234909	156.740000
237.327652	156.280000
237.420410	155.880000
237.513153	154.460000
237.605927	154.500000
237.698669	153.520000
237.791428	152.940000
237.884186	153.640000
237.976944	153.060000
238.069702	153.540000
238.162445	153.400000
238.255203	153.840000
238.347961	153.920000
238.440720	154.140000
238.533478	153.640000
238.626266	153.140000
238.719025	152.960000
238.811783	152.500000
238.904541	152.340000
238.997314	152.260000
239.090073	152.140000
239.182831	152.780000
239.275604	153.840000
239.368362	153.740000
239.461136	154.160000
239.553909	154.480000
239.646667	154.000000
239.739441	153.140000
239.832214	153.520000
239.925003	153.420000
240.017761	154.320000
240.110535	154.900000
240.203308	154.360000
240.296082	154.500000
240.388855	154.520000
240.481628	154.320000
240.574417	154.100000
240.667191	154.540000
240.759964	154.180000
240.852737	154.180000
240.945526	153.780000
241.038315	153.240000
241.131088	153.300000
241.223877	153.460000
241.316650	152.880000
241.409439	153.220000
241.502228	153.140000
241.595001	153.360000
241.687790	152.960000
241.780579	153.340000
241.873367	153.380000
241.966141	153.620000
242.058929	153.220000
242.151718	153.720000
242.244507	154.220000
242.337311	153.560000
242.430099	153.760000
242.522903	153.840000
242.615692	153.160000
242.708481	152.940000
242.801270	153.620000
242.894073	153.740000
242.986862	153.880000
243.079651	154.900000
243.172455	154.560000
243.265244	154.400000
243.358063	153.820000
243.450867	153.960000
243.543655	153.700000
243.636459	154.220000
243.729263	154.280000
243.822067	154.520000
243.914856	154.860000
244.007660	154.800000
244.100464	154.420000
244.193268	154.140000
244.286072	154.280000
244.378876	153.600000
244.471680	153.460000
244.564499	153.860000
244.657318	154.600000
244.750122	154.780000
244.842926	154.280000
244.935745	154.520000
245.028549	153.980000
245.121368	153.500000
245.214172	153.440000
245.306992	154.340000
245.399796	153.820000
245.492615	154.120000
245.585434	153.760000
245.678253	153.840000
245.771072	153.540000
245.863892	154.280000
245.956711	154.240000
246.049530	154.020000
246.142349	153.480000
246.235168	153.480000
246.327988	153.780000
246.420807	153.680000
246.513626	153.780000
246.606445	153.560000
246.699280	153.700000
246.792099	153.000000
246.884918	152.800000
246.977753	152.600000
247.070587	152.840000
247.163422	152.760000
247.256241	152.920000
247.349075	153.360000
247.441895	154.060000
247.534729	154.040000
247.627563	153.900000
247.720383	154.580000
247.813217	154.440000
247.906052	153.820000
247.998886	154.120000
248.091736	154.200000
248.184570	153.280000
248.277405	153.200000
248.370239	154.440000
248.463074	155.320000
248.555908	155.360000
248.648743	155.380000
248.741592	155.740000
248.834427	154.820000
248.927261	153.460000
249.020111	153.940000
249.112946	154.640000
249.205795	153.740000
249.298630	153.940000
249.391495	154.240000
249.484344	153.800000
249.577179	153.520000
249.670029	154.200000
249.762878	154.600000
249.855728	154.980000
249.948563	154.860000
250.041412	154.020000
250.134262	153.980000
250.227112	153.740000
250.319962	153.700000
250.412827	153.540000
250.505692	153.440000
250.598541	153.700000
250.691391	153.300000
250.784241	152.980000
250.877106	153.180000
250.969955	153.280000
251.062805	153.240000
251.155670	153.900000
251.248520	153.740000
251.341385	154.080000
251.434235	154.260000
251.527100	154.020000
251.619965	153.340000
251.712814	154.140000
251.805695	153.740000
251.898560	154.120000
251.991425	154.280000
252.084290	154.200000
252.177155	153.460000
252.270020	153.700000
252.362885	153.520000
252.455750	153.460000
252.548615	153.740000
252.641479	153.720000
252.734360	153.120000
252.827240	153.040000
252.920105	153.080000
253.012970	152.840000
253.105850	152.740000
253.198715	152.720000
253.291595	152.840000
253.384460	152.700000
253.477341	152.620000
253.570221	153.100000
253.663086	153.220000
253.755966	153.940000
253.848846	153.860000
253.941727	154.260000
254.034592	154.100000
254.127472	153.860000
254.220367	153.460000
254.313248	153.760000
254.406128	153.280000
254.499008	153.500000
254.591904	154.420000
254.684784	154.580000
254.777664	154.440000
254.870544	154.500000
254.963440	154.380000
255.056335	154.160000
255.149216	153.900000
255.242111	154.260000
255.334991	154.620000
255.427887	154.860000
255.520767	154.840000
255.613663	154.820000
255.706558	154.300000
255.799438	153.960000
255.892334	153.400000
255.985229	153.140000
256.078125	153.120000
256.171021	153.140000
256.263916	153.540000
256.356812	153.960000
256.449707	154.240000
256.542603	153.840000
256.635498	154.100000
256.728394	153.680000
256.821289	153.260000
256.914215	153.300000
257.007080	153.760000
257.100006	153.820000
257.192932	154.520000
257.285828	154.680000
257.378723	154.320000
257.471619	153.780000
257.564545	153.440000
257.657440	153.060000
257.750336	153.680000
257.843262	153.500000
257.936157	154.820000
258.029053	155.100000
258.121979	155.120000
258.214874	154.500000
258.307800	154.620000
258.400696	153.480000
258.493622	153.460000
258.586517	152.640000
258.679443	152.920000
258.772339	152.540000
258.865265	152.600000
258.958160	152.320000
259.051086	153.740000
259.144012	153.560000
259.236938	154.320000
259.329834	154.400000
259.422791	154.200000
259.515717	153.040000
259.608612	152.800000
259.701538	153.000000
259.794464	152.820000
259.887390	152.960000
259.980316	153.300000
260.073212	152.920000
260.166138	151.900000
260.259064	152.420000
260.351990	152.940000
260.444916	152.860000
260.537842	153.740000
260.630768	154.480000
260.723694	154.240000
260.816620	154.100000
260.909546	154.380000
261.002472	153.860000
261.095398	153.440000
261.188354	153.260000
261.281281	152.600000
261.374207	152.420000
261.467133	153.320000
261.560089	153.620000
261.653015	153.300000
261.745972	154.260000
261.838867	154.760000
261.931824	154.640000
262.024780	154.320000
262.117706	154.860000
262.210663	154.720000
262.303589	154.600000
262.396515	154.320000
262.489471	155.360000
262.582397	155.300000
262.675354	154.740000
262.768280	154.600000
262.861237	154.400000
262.954163	153.820000
263.047119	153.760000
263.140045	153.540000
263.233002	153.560000
263.325958	153.640000
263.418884	153.060000
263.511841	153.020000
263.604797	153.340000
263.697723	153.260000
263.790680	152.940000
263.883636	153.480000
263.976593	153.580000
264.069550	153.400000
264.162476	153.100000
264.255463	153.320000
264.348419	153.000000
264.441376	153.260000
264.534332	152.940000
264.627289	153.220000
264.720245	153.560000
264.813202	153.020000
264.906158	153.040000
264.999115	153.720000
265.092072	153.620000
265.185028	153.940000
265.277985	154.720000
265.370941	154.320000
265.463898	153.820000
265.556854	153.440000
265.649811	152.540000
265.742798	152.260000
265.835754	152.560000
265.928711	153.560000
266.021667	153.560000
266.114655	153.940000
266.207611	154.200000
266.300568	153.400000
266.393585	152.400000
266.486511	152.980000
266.579498	152.380000
266.672485	152.240000
266.765442	152.300000
266.858429	152.940000
266.951385	152.360000
267.044342	152.740000
267.137329	152.740000
267.230316	153.160000
267.323273	152.880000
267.416260	153.800000
267.509216	153.500000
267.602203	153.640000
267.695160	154.160000
267.788147	154.140000
267.881134	153.240000
267.974091	153.260000
268.067078	152.860000
268.160065	152.540000
268.253052	152.520000
268.346008	152.860000
268.438995	152.840000
268.531982	153.220000
268.624969	152.880000
268.717987	152.820000
268.810944	152.620000
268.903961	153.040000
268.996948	152.540000
269.089905	153.020000
269.182892	153.140000
269.275879	153.620000
269.368866	152.960000
269.461853	153.580000
269.554871	153.580000
269.647858	153.620000
269.740845	153.860000
269.833832	154.420000
269.926819	154.120000
270.019806	154.000000
270.112793	153.540000
270.205811	153.340000
270.298798	153.280000
270.391785	153.980000
270.484772	153.820000
270.577789	154.040000
270.670776	153.400000
270.763763	153.260000
270.856750	152.860000
270.949768	152.500000
271.042786	152.740000
271.135773	153.020000
271.228790	153.660000
271.321808	153.200000
271.414795	153.080000
271.507782	152.880000
271.600800	152.840000
271.693817	152.440000
271.786804	153.080000
271.879822	153.300000
271.972809	153.300000
272.065826	153.800000
272.158844	153.480000
272.251831	154.180000
272.344849	154.240000
272.437866	153.880000
272.530853	153.840000
272.623871	154.120000
272.716888	152.620000
272.809906	152.960000
272.902893	153.100000
272.995911	152.400000
273.088928	152.340000
273.181946	152.920000
273.274963	152.600000
273.367981	152.680000
273.460999	153.200000
273.554047	153.700000
273.647003	154.160000
273.740051	154.400000
273.833069	154.880000
273.926086	155.060000
274.019135	154.620000
274.112152	154.000000
274.205170	153.700000
274.298187	153.960000
274.391205	153.140000
274.484222	153.260000
274.577240	153.520000
274.670258	153.500000
274.763306	153.060000
274.856323	153.800000
274.949341	153.780000
275.042358	154.160000
275.135406	154.140000
275.228424	154.360000
275.321442	154.320000
275.414490	154.120000
275.507507	154.180000
275.600525	154.920000
275.693573	154.400000
275.786591	153.820000
275.879669	153.880000
275.972656	153.240000
276.065735	152.720000
276.158752	153.080000
276.251801	154.120000
276.344818	154.280000
276.437866	154.700000
276.530884	154.480000
276.623932	153.780000
276.716980	153.320000
276.809998	153.340000
276.903046	152.920000
276.996094	153.640000
277.089111	154.760000
277.182159	155.380000
277.275208	155.220000
277.368256	155.400000
277.461304	155.200000
277.554321	154.320000
277.647369	153.840000
277.740417	153.920000
277.833466	153.480000
277.926514	153.260000
278.019562	154.000000
278.112610	153.420000
278.205688	153.420000
278.298706	153.660000
278.391785	153.460000
278.484833	152.740000
278.577881	152.840000
278.670929	152.900000
278.763977	153.340000
278.857025	153.580000
278.950073	154.040000
279.043121	153.980000
279.136169	154.200000
279.229248	153.560000
279.322296	153.820000
279.415344	153.400000
279.508392	153.520000
279.601440	153.220000
279.694519	153.320000
279.787567	153.060000
279.880615	153.100000
279.973694	153.000000
280.066742	153.000000
280.159790	153.180000
280.252869	152.760000
280.345917	152.960000
280.438995	152.900000
280.532074	152.860000
280.625122	153.060000
280.718201	154.160000
280.811279	154.360000
280.904327	154.480000
280.997406	154.660000
281.090454	154.480000
281.183533	153.440000
281.276581	153.100000
281.369659	152.760000
281.462738	152.800000
281.555786	153.300000
281.648865	153.840000
281.741943	154.100000
281.835022	154.860000
281.928070	154.380000
282.021149	153.780000
282.114227	153.400000
282.207306	153.220000
282.300385	153.480000
282.393433	153.920000
282.486511	154.320000
282.579590	154.900000
282.672668	155.300000
282.765747	154.040000
282.858856	153.720000
282.951904	153.600000
283.045013	153.520000
283.138062	153.560000
283.231171	154.560000
283.324249	154.900000
283.417328	155.260000
283.510406	154.820000
283.603485	154.260000
283.696564	154.000000
283.789642	153.900000
283.882751	153.080000
283.975830	153.760000
284.068909	153.580000
284.161987	154.060000
284.255066	153.560000
284.348175	154.020000
284.441254	153.740000
284.534332	154.340000
284.627441	153.720000
284.720520	153.540000
284.813599	153.500000
284.906708	153.500000
284.999786	152.640000
285.092896	152.460000
285.185974	153.660000
285.279053	153.100000
285.372192	152.900000
285.465240	154.080000
285.558380	153.940000
285.651459	153.300000
285.744568	154.440000
285.837677	154.220000
285.930756	153.840000
286.023865	154.000000
286.116943	153.940000
286.210052	153.740000
286.303162	153.920000
286.396240	153.860000
286.489349	154.000000
286.582458	154.380000
286.675568	153.820000
286.768646	153.560000
286.861755	153.900000
286.954865	154.600000
287.047974	154.120000
287.141083	154.380000
287.234161	154.500000
287.327271	154.040000
287.420380	154.240000
287.513519	154.200000
287.606598	154.040000
287.699738	154.000000
287.792816	154.040000
287.885956	153.440000
287.979034	153.480000
288.072174	153.360000
288.165283	153.440000
288.258392	153.740000
288.351501	153.100000
288.444611	153.220000
288.537720	153.680000
288.630859	153.420000
288.723969	153.260000
288.817078	153.900000
288.910187	153.780000
289.003296	153.200000
289.096436	153.080000
289.189545	152.980000
289.282654	152.640000
289.375763	153.340000
289.468903	153.740000
289.562012	154.340000
289.655121	154.080000
289.748260	154.120000
289.841400	153.860000
289.934509	153.500000
290.027649	153.620000
290.120728	153.640000
290.213898	154.120000
290.306976	153.720000
290.400146	154.040000
290.493256	153.440000
290.586395	153.760000
290.679535	153.520000
290.772644	153.540000
290.865784	152.680000
290.958893	152.780000
291.052032	152.700000
291.145172	152.880000
291.238281	152.640000
291.331421	153.100000
291.424561	153.640000
291.517670	153.340000
291.610809	153.020000
291.703949	153.040000
291.797089	153.380000
291.890228	152.820000
291.983337	153.040000
292.076477	153.160000
292.169617	153.580000
292.262756	153.620000
292.355927	153.520000
292.449036	153.420000
292.542206	153.440000
292.635315	153.460000
292.728485	153.540000
292.821625	153.400000
292.914764	154.240000
293.007904	154.160000
293.101044	154.080000
293.194183	153.820000
293.287323	153.900000
293.380463	153.200000
293.473602	152.980000
293.566742	153.160000
293.659882	153.680000
293.753021	154.040000
293.846191	153.720000
293.939331	153.500000
294.032471	153.120000
294.125610	152.700000
294.218781	152.980000
294.311920	153.600000
294.405060	154.020000
294.498230	154.240000
294.591370	154.360000
294.684540	153.740000
294.777679	153.180000
294.870850	153.460000
294.963959	153.560000
295.057159	153.320000
295.150299	153.680000
295.243469	153.720000
295.336609	153.340000
295.429779	153.100000
295.522919	153.800000
295.616089	154.020000
295.709229	154.640000
295.802399	154.660000
295.895569	154.320000
295.988708	153.760000
296.081879	153.840000
296.175018	153.160000
296.268188	153.120000
296.361359	153.700000
296.454529	153.760000
296.547668	153.360000
296.640839	154.020000
296.734009	153.760000
296.827179	153.840000
296.920319	153.880000
297.013519	153.680000
297.106659	153.680000
297.199860	154.020000
297.292999	154.240000
297.386200	153.920000
297.479309	153.900000
297.572510	153.680000
297.665680	153.420000
297.758850	153.100000
297.852020	153.140000
297.945190	153.300000
298.038361	152.780000
298.131531	153.860000
298.224701	153.240000
298.317871	153.080000
298.411072	152.600000
298.504242	152.540000
298.597412	151.600000
298.690582	152.260000
298.783752	152.420000
298.876923	153.240000
298.970093	153.480000
299.063293	153.940000
299.156464	154.160000
299.249634	154.520000
299.342834	154.280000
299.436005	154.700000
299.529205	154.220000
299.622345	154.180000
299.715576	153.240000
299.808716	153.200000
299.901917	153.040000
299.995117	153.300000
300.088287	153.320000
300.181488	153.440000
300.274658	153.400000
300.367828	153.380000
300.461029	153.360000
300.554199	153.420000
300.647400	153.720000
300.740601	154.000000
300.833771	154.080000
300.926971	154.360000
301.020142	153.900000
301.113342	154.080000
301.206512	153.700000
301.299713	153.760000
301.392914	153.720000
301.486084	154.120000
301.579285	153.960000
301.672516	154.740000
301.765686	154.440000
301.858887	154.180000
301.952057	153.900000
302.045288	154.020000
302.138458	153.700000
302.231659	153.600000
302.324860	153.360000
302.418060	153.160000
302.511261	153.260000
302.604462	153.380000
302.697662	153.220000
302.790863	153.140000
302.884064	152.780000
302.977264	152.560000
303.070465	152.460000
303.163666	153.380000
303.256866	153.680000
303.350067	154.100000
303.443268	154.280000
303.536469	154.440000
303.629669	153.740000
303.722870	153.840000
303.816071	153.460000
303.909271	153.440000
304.002472	152.540000
304.095673	152.460000
304.188934	152.000000
304.282104	153.220000
304.375336	153.180000
304.468506	153.640000
304.561768	153.500000
304.654968	153.980000
304.748169	153.100000
304.841370	152.860000
304.934601	153.260000
305.027802	153.260000
305.121002	152.780000
305.214233	153.120000
305.307434	153.100000
305.400665	153.480000
305.493866	153.340000
