Model Number: SPM-002-B   
Serial Number: 70087108
Firmware Version: 004.15.4
Exposure Time: 100000.000000us
Data Taken on: 15-01-2021 16:40:40.054
Wavelength	Amplitude
221.570786	0.000000
221.663406	0.000000
221.756027	0.000000
221.848648	0.000000
221.941269	0.000000
222.033905	0.000000
222.126526	0.000000
222.219162	0.000000
222.311798	0.000000
222.404419	0.000000
222.497055	0.000000
222.589676	0.000000
222.682312	0.000000
222.774933	0.000000
222.867569	0.000000
222.960205	0.000000
223.052841	0.000000
223.145462	0.000000
223.238098	0.000000
223.330734	0.000000
223.423386	0.000000
223.516022	0.000000
223.608658	0.000000
223.701309	0.000000
223.793945	0.000000
223.886581	0.000000
223.979218	0.000000
224.071869	0.000000
224.164505	0.000000
224.257156	0.000000
224.349792	0.000000
224.442444	0.000000
224.535095	0.000000
224.627747	0.000000
224.720398	0.000000
224.813034	0.000000
224.905685	0.000000
224.998337	153.760000
225.090988	153.560000
225.183640	153.540000
225.276291	153.680000
225.368942	154.300000
225.461594	155.020000
225.554245	155.300000
225.646912	155.500000
225.739578	155.760000
225.832230	156.320000
225.924896	155.220000
226.017548	155.480000
226.110199	155.740000
226.202866	155.360000
226.295532	155.040000
226.388184	155.000000
226.480850	154.240000
226.573517	153.900000
226.666168	154.100000
226.758835	154.220000
226.851501	154.900000
226.944183	155.020000
227.036850	154.580000
227.129517	154.360000
227.222183	154.600000
227.314850	154.500000
227.407516	154.920000
227.500198	156.020000
227.592865	155.360000
227.685532	154.820000
227.778214	154.840000
227.870880	154.860000
227.963562	154.880000
228.056229	155.620000
228.148926	155.520000
228.241592	156.160000
228.334274	155.700000
228.426956	155.140000
228.519638	155.120000
228.612305	154.840000
228.704987	154.640000
228.797668	154.720000
228.890350	154.560000
228.983032	153.760000
229.075714	154.460000
229.168396	153.840000
229.261108	153.740000
229.353790	153.800000
229.446472	154.280000
229.539169	153.920000
229.631851	153.520000
229.724533	153.600000
229.817230	153.600000
229.909912	154.620000
230.002609	154.640000
230.095306	155.020000
230.187988	155.380000
230.280685	155.440000
230.373383	154.360000
230.466095	154.100000
230.558792	154.220000
230.651474	154.040000
230.744171	153.980000
230.836868	154.000000
230.929581	154.620000
231.022278	154.980000
231.114975	155.140000
231.207672	154.840000
231.300369	155.300000
231.393082	155.320000
231.485779	154.880000
231.578506	154.520000
231.671204	154.940000
231.763916	154.560000
231.856613	154.220000
231.949326	154.620000
232.042023	154.560000
232.134735	154.380000
232.227448	154.200000
232.320160	154.560000
232.412872	154.180000
232.505585	155.360000
232.598297	155.880000
232.691010	156.120000
232.783722	155.680000
232.876450	156.320000
232.969162	155.100000
233.061874	154.500000
233.154587	153.960000
233.247314	154.120000
233.340027	153.400000
233.432739	154.120000
233.525467	154.160000
233.618179	154.680000
233.710907	154.680000
233.803635	155.080000
233.896347	154.760000
233.989090	155.500000
234.081818	155.380000
234.174545	155.200000
234.267258	154.940000
234.359985	154.860000
234.452713	154.140000
234.545441	153.780000
234.638168	153.860000
234.730896	154.280000
234.823639	154.080000
234.916367	154.480000
235.009094	154.900000
235.101822	154.820000
235.194580	154.460000
235.287308	154.620000
235.380051	154.180000
235.472778	154.360000
235.565521	154.880000
235.658249	154.460000
235.750992	154.520000
235.843719	154.560000
235.936462	154.740000
236.029205	154.200000
236.121948	153.840000
236.214691	154.480000
236.307449	155.080000
236.400192	154.520000
236.492935	154.540000
236.585678	155.360000
236.678421	154.960000
236.771164	154.720000
236.863907	155.220000
236.956665	155.380000
237.049408	156.820000
237.142151	156.340000
237.234909	156.800000
237.327652	156.740000
237.420410	156.640000
237.513153	155.440000
237.605927	155.280000
237.698669	154.720000
237.791428	154.140000
237.884186	154.360000
237.976944	154.040000
238.069702	154.680000
238.162445	154.260000
238.255203	154.520000
238.347961	154.860000
238.440720	154.740000
238.533478	154.580000
238.626266	154.520000
238.719025	154.760000
238.811783	154.620000
238.904541	154.440000
238.997314	154.060000
239.090073	154.060000
239.182831	154.300000
239.275604	154.740000
239.368362	154.900000
239.461136	155.000000
239.553909	155.180000
239.646667	154.660000
239.739441	154.120000
239.832214	154.460000
239.925003	154.820000
240.017761	155.420000
240.110535	156.100000
240.203308	155.480000
240.296082	155.540000
240.388855	155.540000
240.481628	155.380000
240.574417	155.340000
240.667191	155.720000
240.759964	155.060000
240.852737	155.000000
240.945526	154.400000
241.038315	153.940000
241.131088	154.080000
241.223877	154.480000
241.316650	154.040000
241.409439	154.800000
241.502228	154.780000
241.595001	155.260000
241.687790	155.260000
241.780579	155.340000
241.873367	155.140000
241.966141	155.200000
242.058929	154.460000
242.151718	154.560000
242.244507	155.060000
242.337311	154.360000
242.430099	154.820000
242.522903	155.160000
242.615692	154.540000
242.708481	154.420000
242.801270	155.020000
242.894073	154.600000
242.986862	154.140000
243.079651	155.040000
243.172455	154.840000
243.265244	154.940000
243.358063	154.600000
243.450867	155.300000
243.543655	155.280000
243.636459	155.320000
243.729263	155.300000
243.822067	155.600000
243.914856	155.740000
244.007660	155.520000
244.100464	155.580000
244.193268	155.180000
244.286072	155.080000
244.378876	154.540000
244.471680	154.160000
244.564499	154.260000
244.657318	155.280000
244.750122	155.740000
244.842926	155.200000
244.935745	155.900000
245.028549	155.320000
245.121368	154.540000
245.214172	154.180000
245.306992	155.100000
245.399796	154.420000
245.492615	154.840000
245.585434	154.700000
245.678253	155.020000
245.771072	154.400000
245.863892	155.220000
245.956711	155.380000
246.049530	155.380000
246.142349	155.120000
246.235168	155.480000
246.327988	155.660000
246.420807	155.580000
246.513626	155.840000
246.606445	155.340000
246.699280	155.260000
246.792099	154.680000
246.884918	154.280000
246.977753	154.060000
247.070587	154.180000
247.163422	154.100000
247.256241	154.180000
247.349075	154.400000
247.441895	154.620000
247.534729	154.640000
247.627563	154.720000
247.720383	155.340000
247.813217	155.580000
247.906052	155.280000
247.998886	155.620000
248.091736	155.680000
248.184570	155.060000
248.277405	154.900000
248.370239	155.860000
248.463074	156.620000
248.555908	156.580000
248.648743	156.420000
248.741592	156.400000
248.834427	155.540000
248.927261	154.520000
249.020111	154.940000
249.112946	155.520000
249.205795	155.100000
249.298630	155.180000
249.391495	155.200000
249.484344	154.820000
249.577179	154.640000
249.670029	155.120000
249.762878	155.520000
249.855728	155.760000
249.948563	155.540000
250.041412	154.820000
250.134262	155.040000
250.227112	154.920000
250.319962	154.900000
250.412827	154.960000
250.505692	154.520000
250.598541	154.560000
250.691391	154.320000
250.784241	154.560000
250.877106	154.780000
250.969955	155.140000
251.062805	155.240000
251.155670	155.580000
251.248520	154.980000
251.341385	155.100000
251.434235	155.160000
251.527100	154.700000
251.619965	154.420000
251.712814	155.260000
251.805695	155.140000
251.898560	155.600000
251.991425	155.860000
252.084290	155.580000
252.177155	154.700000
252.270020	154.620000
252.362885	154.360000
252.455750	154.400000
252.548615	154.420000
252.641479	154.680000
252.734360	154.300000
252.827240	153.980000
252.920105	154.040000
253.012970	154.100000
253.105850	154.040000
253.198715	153.800000
253.291595	154.060000
253.384460	153.520000
253.477341	153.480000
253.570221	153.920000
253.663086	153.940000
253.755966	154.820000
253.848846	154.800000
253.941727	154.940000
254.034592	154.560000
254.127472	154.340000
254.220367	153.880000
254.313248	154.240000
254.406128	154.000000
254.499008	154.340000
254.591904	155.380000
254.684784	155.940000
254.777664	156.160000
254.870544	155.900000
254.963440	155.500000
255.056335	155.320000
255.149216	154.620000
255.242111	154.920000
255.334991	155.760000
255.427887	155.800000
255.520767	155.940000
255.613663	156.220000
255.706558	155.420000
255.799438	154.800000
255.892334	154.540000
255.985229	154.240000
256.078125	154.100000
256.171021	154.300000
256.263916	155.080000
256.356812	155.460000
256.449707	155.740000
256.542603	155.260000
256.635498	155.820000
256.728394	155.460000
256.821289	155.160000
256.914215	155.180000
257.007080	155.260000
257.100006	155.020000
257.192932	155.220000
257.285828	155.480000
257.378723	155.060000
257.471619	155.020000
257.564545	154.400000
257.657440	154.320000
257.750336	154.840000
257.843262	154.560000
257.936157	155.860000
258.029053	156.560000
258.121979	156.420000
258.214874	155.940000
258.307800	156.180000
258.400696	154.820000
258.493622	154.820000
258.586517	154.160000
258.679443	154.560000
258.772339	154.140000
258.865265	154.040000
258.958160	153.360000
259.051086	154.420000
259.144012	154.100000
259.236938	154.960000
259.329834	155.260000
259.422791	155.240000
259.515717	154.460000
259.608612	154.060000
259.701538	154.120000
259.794464	154.100000
259.887390	154.280000
259.980316	154.120000
260.073212	154.340000
260.166138	153.020000
260.259064	153.480000
260.351990	154.040000
260.444916	154.260000
260.537842	154.600000
260.630768	155.860000
260.723694	155.400000
260.816620	155.020000
260.909546	154.980000
261.002472	154.840000
261.095398	154.400000
261.188354	154.380000
261.281281	153.860000
261.374207	153.860000
261.467133	154.560000
261.560089	154.540000
261.653015	154.300000
261.745972	155.300000
261.838867	155.740000
261.931824	155.480000
262.024780	155.280000
262.117706	155.940000
262.210663	155.820000
262.303589	155.760000
262.396515	155.580000
262.489471	156.340000
262.582397	155.700000
262.675354	155.120000
262.768280	155.080000
262.861237	155.060000
262.954163	154.960000
263.047119	155.420000
263.140045	155.260000
263.233002	154.940000
263.325958	154.840000
263.418884	154.200000
263.511841	153.560000
263.604797	153.740000
263.697723	153.860000
263.790680	153.760000
263.883636	154.280000
263.976593	154.640000
264.069550	154.820000
264.162476	154.840000
264.255463	154.760000
264.348419	154.380000
264.441376	154.800000
264.534332	154.120000
264.627289	154.180000
264.720245	154.680000
264.813202	154.460000
264.906158	154.320000
264.999115	155.220000
265.092072	155.100000
265.185028	155.400000
265.277985	155.700000
265.370941	155.680000
265.463898	155.280000
265.556854	155.040000
265.649811	153.740000
265.742798	153.680000
265.835754	153.780000
265.928711	154.500000
266.021667	154.740000
266.114655	155.320000
266.207611	155.480000
266.300568	154.600000
266.393585	153.920000
266.486511	154.200000
266.579498	153.460000
266.672485	153.380000
266.765442	153.740000
266.858429	154.100000
266.951385	153.360000
267.044342	153.940000
267.137329	153.920000
267.230316	154.460000
267.323273	154.040000
267.416260	154.940000
267.509216	154.680000
267.602203	154.780000
267.695160	154.880000
267.788147	154.920000
267.881134	154.320000
267.974091	154.540000
268.067078	154.440000
268.160065	153.800000
268.253052	153.780000
268.346008	153.980000
268.438995	153.880000
268.531982	154.240000
268.624969	154.080000
268.717987	154.460000
268.810944	154.200000
268.903961	154.020000
268.996948	153.560000
269.089905	154.120000
269.182892	153.920000
269.275879	154.280000
269.368866	154.160000
269.461853	154.420000
269.554871	154.540000
269.647858	154.540000
269.740845	154.900000
269.833832	155.520000
269.926819	154.940000
270.019806	154.720000
270.112793	154.340000
270.205811	154.360000
270.298798	154.020000
270.391785	154.840000
270.484772	154.340000
270.577789	154.800000
270.670776	154.140000
270.763763	153.940000
270.856750	153.620000
270.949768	153.760000
271.042786	153.500000
271.135773	153.780000
271.228790	154.320000
271.321808	154.040000
271.414795	153.840000
271.507782	153.620000
271.600800	153.200000
271.693817	153.160000
271.786804	153.600000
271.879822	153.960000
271.972809	154.140000
272.065826	154.960000
272.158844	154.460000
272.251831	155.120000
272.344849	154.940000
272.437866	154.580000
272.530853	154.300000
272.623871	154.700000
272.716888	153.400000
272.809906	153.960000
272.902893	154.320000
272.995911	153.600000
273.088928	153.380000
273.181946	154.080000
273.274963	153.320000
273.367981	153.140000
273.460999	153.680000
273.554047	154.260000
273.647003	154.700000
273.740051	155.380000
273.833069	155.860000
273.926086	156.260000
274.019135	155.740000
274.112152	155.140000
274.205170	155.080000
274.298187	155.280000
274.391205	154.720000
274.484222	154.860000
274.577240	155.060000
274.670258	154.880000
274.763306	154.660000
274.856323	155.000000
274.949341	154.920000
275.042358	155.040000
275.135406	154.940000
275.228424	154.920000
275.321442	155.040000
275.414490	154.980000
275.507507	155.320000
275.600525	155.840000
275.693573	155.800000
275.786591	155.260000
275.879669	155.360000
275.972656	154.920000
276.065735	154.620000
276.158752	154.860000
276.251801	155.600000
276.344818	155.900000
276.437866	155.520000
276.530884	155.340000
276.623932	154.840000
276.716980	154.700000
276.809998	154.800000
276.903046	154.960000
276.996094	155.800000
277.089111	156.460000
277.182159	156.920000
277.275208	156.460000
277.368256	156.640000
277.461304	156.120000
277.554321	155.520000
277.647369	155.260000
277.740417	155.240000
277.833466	155.140000
277.926514	155.140000
278.019562	155.560000
278.112610	154.840000
278.205688	155.120000
278.298706	155.100000
278.391785	154.740000
278.484833	154.020000
278.577881	154.020000
278.670929	154.000000
278.763977	154.380000
278.857025	154.600000
278.950073	154.900000
279.043121	154.840000
279.136169	154.660000
279.229248	153.960000
279.322296	154.180000
279.415344	153.960000
279.508392	154.120000
279.601440	153.960000
279.694519	153.960000
279.787567	153.760000
279.880615	153.540000
279.973694	153.500000
280.066742	153.720000
280.159790	154.060000
280.252869	153.800000
280.345917	154.180000
280.438995	154.460000
280.532074	154.520000
280.625122	154.840000
280.718201	155.960000
280.811279	155.960000
280.904327	155.460000
280.997406	155.580000
281.090454	155.380000
281.183533	154.320000
281.276581	154.080000
281.369659	153.940000
281.462738	153.760000
281.555786	153.860000
281.648865	154.300000
281.741943	154.420000
281.835022	155.320000
281.928070	155.100000
282.021149	154.940000
282.114227	154.460000
282.207306	154.620000
282.300385	154.700000
282.393433	155.180000
282.486511	155.040000
282.579590	155.640000
282.672668	155.980000
282.765747	155.240000
282.858856	154.980000
282.951904	155.280000
283.045013	155.200000
283.138062	155.380000
283.231171	155.660000
283.324249	155.740000
283.417328	155.660000
283.510406	155.400000
283.603485	155.220000
283.696564	155.040000
283.789642	155.200000
283.882751	155.040000
283.975830	155.640000
284.068909	155.280000
284.161987	155.940000
284.255066	155.220000
284.348175	155.540000
284.441254	155.040000
284.534332	155.440000
284.627441	154.740000
284.720520	154.880000
284.813599	154.680000
284.906708	155.020000
284.999786	154.240000
285.092896	153.980000
285.185974	155.100000
285.279053	154.400000
285.372192	154.280000
285.465240	155.160000
285.558380	155.320000
285.651459	154.880000
285.744568	156.100000
285.837677	155.580000
285.930756	155.420000
286.023865	155.880000
286.116943	155.380000
286.210052	155.000000
286.303162	155.180000
286.396240	155.040000
286.489349	154.540000
286.582458	154.880000
286.675568	154.660000
286.768646	154.680000
286.861755	155.200000
286.954865	156.300000
287.047974	155.420000
287.141083	155.260000
287.234161	155.060000
287.327271	154.560000
287.420380	154.360000
287.513519	154.760000
287.606598	155.040000
287.699738	155.180000
287.792816	155.360000
287.885956	155.060000
287.979034	155.000000
288.072174	154.800000
288.165283	154.880000
288.258392	154.800000
288.351501	154.320000
288.444611	154.840000
288.537720	155.260000
288.630859	155.220000
288.723969	155.360000
288.817078	156.100000
288.910187	156.120000
289.003296	155.400000
289.096436	154.980000
289.189545	154.480000
289.282654	153.620000
289.375763	153.840000
289.468903	154.640000
289.562012	155.260000
289.655121	155.780000
289.748260	156.280000
289.841400	156.520000
289.934509	156.100000
290.027649	156.240000
290.120728	155.880000
290.213898	155.840000
290.306976	155.280000
290.400146	155.520000
290.493256	155.080000
290.586395	155.220000
290.679535	155.300000
290.772644	155.340000
290.865784	154.520000
290.958893	154.340000
291.052032	154.140000
291.145172	154.220000
291.238281	153.780000
291.331421	154.160000
291.424561	154.780000
291.517670	154.740000
291.610809	154.680000
291.703949	154.680000
291.797089	154.700000
291.890228	154.420000
291.983337	154.300000
292.076477	154.200000
292.169617	154.740000
292.262756	154.780000
292.355927	154.260000
292.449036	154.320000
292.542206	154.300000
292.635315	154.280000
292.728485	154.700000
292.821625	154.560000
292.914764	155.580000
293.007904	155.460000
293.101044	155.000000
293.194183	154.700000
293.287323	155.120000
293.380463	154.420000
293.473602	154.260000
293.566742	154.580000
293.659882	155.100000
293.753021	155.280000
293.846191	155.140000
293.939331	154.920000
294.032471	154.780000
294.125610	154.520000
294.218781	154.900000
294.311920	155.340000
294.405060	155.600000
294.498230	155.460000
294.591370	155.200000
294.684540	154.340000
294.777679	153.780000
294.870850	153.920000
294.963959	153.900000
295.057159	153.760000
295.150299	154.260000
295.243469	154.140000
295.336609	153.800000
295.429779	154.240000
295.522919	154.920000
295.616089	154.600000
295.709229	155.400000
295.802399	155.800000
295.895569	155.260000
295.988708	154.840000
296.081879	155.220000
296.175018	154.220000
296.268188	154.060000
296.361359	154.440000
296.454529	154.520000
296.547668	154.420000
296.640839	155.360000
296.734009	155.080000
296.827179	155.240000
296.920319	155.360000
297.013519	154.980000
297.106659	154.660000
297.199860	154.740000
297.292999	154.420000
297.386200	153.900000
297.479309	154.100000
297.572510	154.120000
297.665680	154.020000
297.758850	154.140000
297.852020	154.200000
297.945190	154.020000
298.038361	153.600000
298.131531	154.660000
298.224701	154.380000
298.317871	154.260000
298.411072	153.760000
298.504242	153.780000
298.597412	153.100000
298.690582	153.480000
298.783752	153.480000
298.876923	154.280000
298.970093	154.420000
299.063293	154.800000
299.156464	154.840000
299.249634	155.420000
299.342834	155.460000
299.436005	155.820000
299.529205	155.500000
299.622345	155.560000
299.715576	154.780000
299.808716	154.600000
299.901917	154.380000
299.995117	154.480000
300.088287	154.400000
300.181488	154.240000
300.274658	153.980000
300.367828	154.000000
300.461029	154.120000
300.554199	154.400000
300.647400	154.820000
300.740601	155.580000
300.833771	155.220000
300.926971	155.160000
301.020142	154.720000
301.113342	154.680000
301.206512	154.440000
301.299713	154.880000
301.392914	154.960000
301.486084	155.420000
301.579285	155.320000
301.672516	155.700000
301.765686	155.380000
301.858887	155.120000
301.952057	155.160000
302.045288	155.400000
302.138458	155.020000
302.231659	155.380000
302.324860	155.240000
302.418060	154.580000
302.511261	154.620000
302.604462	154.580000
302.697662	153.920000
302.790863	154.060000
302.884064	153.940000
302.977264	153.740000
303.070465	154.100000
303.163666	155.080000
303.256866	155.280000
303.350067	155.340000
303.443268	155.480000
303.536469	155.260000
303.629669	154.660000
303.722870	154.820000
303.816071	154.820000
303.909271	154.700000
304.002472	153.920000
304.095673	153.380000
304.188934	152.480000
304.282104	153.280000
304.375336	153.400000
304.468506	154.020000
304.561768	154.400000
304.654968	155.280000
304.748169	154.780000
304.841370	154.640000
304.934601	154.840000
305.027802	154.660000
305.121002	154.140000
305.214233	154.260000
305.307434	154.440000
305.400665	154.840000
305.493866	154.840000
