Model Number: SPM-002-B   
Serial Number: 70087108
Firmware Version: 004.15.4
Exposure Time: 100000.000000us
Data Taken on: 15-01-2021 16:40:35.413
Wavelength	Amplitude
221.570786	0.000000
221.663406	0.000000
221.756027	0.000000
221.848648	0.000000
221.941269	0.000000
222.033905	0.000000
222.126526	0.000000
222.219162	0.000000
222.311798	0.000000
222.404419	0.000000
222.497055	0.000000
222.589676	0.000000
222.682312	0.000000
222.774933	0.000000
222.867569	0.000000
222.960205	0.000000
223.052841	0.000000
223.145462	0.000000
223.238098	0.000000
223.330734	0.000000
223.423386	0.000000
223.516022	0.000000
223.608658	0.000000
223.701309	0.000000
223.793945	0.000000
223.886581	0.000000
223.979218	0.000000
224.071869	0.000000
224.164505	0.000000
224.257156	0.000000
224.349792	0.000000
224.442444	0.000000
224.535095	0.000000
224.627747	0.000000
224.720398	0.000000
224.813034	0.000000
224.905685	0.000000
224.998337	153.120000
225.090988	152.780000
225.183640	152.800000
225.276291	152.480000
225.368942	153.080000
225.461594	154.060000
225.554245	154.500000
225.646912	154.440000
225.739578	154.820000
225.832230	155.220000
225.924896	154.040000
226.017548	154.300000
226.110199	155.000000
226.202866	154.720000
226.295532	154.140000
226.388184	154.060000
226.480850	153.240000
226.573517	152.800000
226.666168	152.880000
226.758835	153.200000
226.851501	154.080000
226.944183	154.640000
227.036850	154.300000
227.129517	154.320000
227.222183	154.420000
227.314850	154.120000
227.407516	154.300000
227.500198	155.400000
227.592865	154.820000
227.685532	154.260000
227.778214	153.940000
227.870880	153.980000
227.963562	153.780000
228.056229	154.640000
228.148926	154.860000
228.241592	155.740000
228.334274	155.000000
228.426956	154.600000
228.519638	154.460000
228.612305	153.980000
228.704987	153.560000
228.797668	153.640000
228.890350	153.520000
228.983032	152.840000
229.075714	153.820000
229.168396	153.540000
229.261108	153.180000
229.353790	153.200000
229.446472	153.640000
229.539169	153.100000
229.631851	152.700000
229.724533	153.280000
229.817230	153.600000
229.909912	154.540000
230.002609	154.720000
230.095306	154.700000
230.187988	154.600000
230.280685	154.020000
230.373383	152.700000
230.466095	152.480000
230.558792	153.020000
230.651474	152.900000
230.744171	153.180000
230.836868	153.460000
230.929581	153.660000
231.022278	153.580000
231.114975	153.980000
231.207672	153.600000
231.300369	153.900000
231.393082	154.200000
231.485779	154.160000
231.578506	153.880000
231.671204	154.300000
231.763916	154.040000
231.856613	153.300000
231.949326	153.360000
232.042023	153.100000
232.134735	153.120000
232.227448	152.980000
232.320160	153.700000
232.412872	153.940000
232.505585	154.840000
232.598297	155.040000
232.691010	154.980000
232.783722	154.280000
232.876450	154.500000
232.969162	153.660000
233.061874	153.300000
233.154587	153.100000
233.247314	153.640000
233.340027	153.060000
233.432739	153.780000
233.525467	153.960000
233.618179	154.600000
233.710907	154.160000
233.803635	154.640000
233.896347	154.260000
233.989090	154.980000
234.081818	154.780000
234.174545	155.040000
234.267258	154.460000
234.359985	154.660000
234.452713	154.040000
234.545441	153.820000
234.638168	153.580000
234.730896	153.900000
234.823639	153.420000
234.916367	153.620000
235.009094	153.580000
235.101822	153.740000
235.194580	153.800000
235.287308	154.340000
235.380051	153.920000
235.472778	154.620000
235.565521	154.900000
235.658249	154.520000
235.750992	154.360000
235.843719	154.360000
235.936462	154.340000
236.029205	153.960000
236.121948	153.640000
236.214691	154.140000
236.307449	154.860000
236.400192	154.100000
236.492935	153.880000
236.585678	154.580000
236.678421	154.300000
236.771164	153.980000
236.863907	154.760000
236.956665	155.040000
237.049408	156.480000
237.142151	155.760000
237.234909	156.720000
237.327652	156.460000
237.420410	156.400000
237.513153	155.120000
237.605927	155.480000
237.698669	154.220000
237.791428	153.520000
237.884186	154.060000
237.976944	153.220000
238.069702	153.200000
238.162445	153.140000
238.255203	153.800000
238.347961	154.080000
238.440720	154.500000
238.533478	154.480000
238.626266	154.080000
238.719025	154.060000
238.811783	153.540000
238.904541	153.600000
238.997314	153.640000
239.090073	153.580000
239.182831	153.880000
239.275604	154.560000
239.368362	154.240000
239.461136	154.220000
239.553909	154.480000
239.646667	154.260000
239.739441	153.780000
239.832214	154.320000
239.925003	154.620000
240.017761	155.380000
240.110535	155.620000
240.203308	155.140000
240.296082	155.380000
240.388855	154.920000
240.481628	154.660000
240.574417	154.860000
240.667191	155.000000
240.759964	154.380000
240.852737	154.700000
240.945526	154.360000
241.038315	153.980000
241.131088	154.020000
241.223877	154.400000
241.316650	154.020000
241.409439	154.560000
241.502228	154.020000
241.595001	154.580000
241.687790	154.120000
241.780579	154.020000
241.873367	153.800000
241.966141	154.000000
242.058929	153.300000
242.151718	153.700000
242.244507	154.420000
242.337311	153.700000
242.430099	154.380000
242.522903	154.580000
242.615692	154.040000
242.708481	153.860000
242.801270	154.560000
242.894073	154.580000
242.986862	154.380000
243.079651	155.140000
243.172455	154.760000
243.265244	154.640000
243.358063	153.720000
243.450867	154.100000
243.543655	154.020000
243.636459	154.080000
243.729263	154.500000
243.822067	155.080000
243.914856	155.400000
244.007660	154.980000
244.100464	155.280000
244.193268	154.700000
244.286072	154.600000
244.378876	153.840000
244.471680	153.740000
244.564499	153.760000
244.657318	154.460000
244.750122	154.560000
244.842926	154.080000
244.935745	154.700000
245.028549	154.480000
245.121368	153.640000
245.214172	153.440000
245.306992	154.360000
245.399796	153.700000
245.492615	153.740000
245.585434	153.840000
245.678253	154.060000
245.771072	153.880000
245.863892	154.340000
245.956711	154.060000
246.049530	153.940000
246.142349	153.560000
246.235168	153.680000
246.327988	153.860000
246.420807	153.900000
246.513626	154.180000
246.606445	154.060000
246.699280	153.700000
246.792099	153.500000
246.884918	153.440000
246.977753	153.280000
247.070587	153.340000
247.163422	153.400000
247.256241	153.360000
247.349075	153.840000
247.441895	153.840000
247.534729	154.000000
247.627563	154.040000
247.720383	154.720000
247.813217	154.600000
247.906052	154.540000
247.998886	154.680000
248.091736	154.700000
248.184570	154.040000
248.277405	153.920000
248.370239	154.820000
248.463074	155.620000
248.555908	155.720000
248.648743	155.940000
248.741592	156.260000
248.834427	155.380000
248.927261	154.180000
249.020111	154.760000
249.112946	155.220000
249.205795	154.680000
249.298630	154.920000
249.391495	155.220000
249.484344	154.520000
249.577179	154.160000
249.670029	154.680000
249.762878	154.840000
249.855728	155.120000
249.948563	155.140000
250.041412	154.760000
250.134262	154.720000
250.227112	155.000000
250.319962	154.720000
250.412827	154.880000
250.505692	154.380000
250.598541	154.460000
250.691391	153.960000
250.784241	154.080000
250.877106	154.240000
250.969955	154.420000
251.062805	154.900000
251.155670	155.600000
251.248520	155.100000
251.341385	155.000000
251.434235	154.980000
251.527100	154.280000
251.619965	153.460000
251.712814	154.460000
251.805695	154.560000
251.898560	154.800000
251.991425	155.020000
252.084290	155.240000
252.177155	154.200000
252.270020	154.140000
252.362885	154.180000
252.455750	153.860000
252.548615	153.820000
252.641479	154.060000
252.734360	153.780000
252.827240	153.460000
252.920105	153.900000
253.012970	153.660000
253.105850	153.580000
253.198715	153.460000
253.291595	153.840000
253.384460	153.500000
253.477341	153.920000
253.570221	154.560000
253.663086	154.660000
253.755966	155.440000
253.848846	155.240000
253.941727	155.260000
254.034592	155.020000
254.127472	154.460000
254.220367	153.980000
254.313248	154.200000
254.406128	153.720000
254.499008	153.740000
254.591904	154.700000
254.684784	155.120000
254.777664	155.320000
254.870544	155.320000
254.963440	155.560000
255.056335	155.440000
255.149216	154.820000
255.242111	155.280000
255.334991	155.740000
255.427887	155.420000
255.520767	155.560000
255.613663	155.640000
255.706558	154.600000
255.799438	154.280000
255.892334	153.820000
255.985229	153.660000
256.078125	153.440000
256.171021	153.840000
256.263916	154.520000
256.356812	155.000000
256.449707	154.780000
256.542603	154.280000
256.635498	154.860000
256.728394	154.060000
256.821289	153.900000
256.914215	154.160000
257.007080	154.680000
257.100006	154.480000
257.192932	155.160000
257.285828	155.300000
257.378723	154.980000
257.471619	154.880000
257.564545	154.280000
257.657440	154.180000
257.750336	154.520000
257.843262	154.400000
257.936157	155.660000
258.029053	156.100000
258.121979	155.820000
258.214874	155.460000
258.307800	155.520000
258.400696	154.440000
258.493622	154.200000
258.586517	153.700000
258.679443	153.940000
258.772339	153.720000
258.865265	153.620000
258.958160	153.100000
259.051086	154.260000
259.144012	154.100000
259.236938	154.960000
259.329834	154.860000
259.422791	155.000000
259.515717	154.140000
259.608612	153.920000
259.701538	153.820000
259.794464	153.780000
259.887390	154.000000
259.980316	154.000000
260.073212	153.860000
260.166138	152.860000
260.259064	153.280000
260.351990	153.900000
260.444916	154.220000
260.537842	154.600000
260.630768	155.640000
260.723694	155.600000
260.816620	155.240000
260.909546	154.960000
261.002472	154.540000
261.095398	153.720000
261.188354	153.660000
261.281281	153.100000
261.374207	153.020000
261.467133	153.940000
261.560089	154.260000
261.653015	153.900000
261.745972	155.000000
261.838867	155.360000
261.931824	155.400000
262.024780	155.180000
262.117706	155.540000
262.210663	155.240000
262.303589	155.240000
262.396515	154.660000
262.489471	155.600000
262.582397	155.500000
262.675354	154.920000
262.768280	154.800000
262.861237	155.020000
262.954163	154.620000
263.047119	154.660000
263.140045	154.380000
263.233002	154.360000
263.325958	154.200000
263.418884	153.380000
263.511841	153.180000
263.604797	153.420000
263.697723	153.340000
263.790680	153.260000
263.883636	154.160000
263.976593	154.200000
264.069550	154.320000
264.162476	154.120000
264.255463	154.080000
264.348419	153.820000
264.441376	154.040000
264.534332	153.380000
264.627289	153.620000
264.720245	154.400000
264.813202	153.860000
264.906158	153.700000
264.999115	154.840000
265.092072	154.540000
265.185028	154.520000
265.277985	155.320000
265.370941	155.300000
265.463898	154.700000
265.556854	154.840000
265.649811	153.920000
265.742798	153.520000
265.835754	153.580000
265.928711	154.280000
266.021667	154.300000
266.114655	154.620000
266.207611	155.020000
266.300568	154.800000
266.393585	154.200000
266.486511	154.480000
266.579498	153.680000
266.672485	153.500000
266.765442	153.120000
266.858429	153.360000
266.951385	152.940000
267.044342	153.460000
267.137329	153.300000
267.230316	153.920000
267.323273	153.740000
267.416260	154.320000
267.509216	154.100000
267.602203	154.180000
267.695160	154.560000
267.788147	154.480000
267.881134	153.840000
267.974091	154.260000
268.067078	153.780000
268.160065	153.160000
268.253052	153.180000
268.346008	153.560000
268.438995	153.060000
268.531982	153.480000
268.624969	153.480000
268.717987	153.820000
268.810944	153.400000
268.903961	153.780000
268.996948	153.340000
269.089905	154.080000
269.182892	153.860000
269.275879	154.300000
269.368866	153.560000
269.461853	154.000000
269.554871	153.260000
269.647858	153.420000
269.740845	153.880000
269.833832	154.600000
269.926819	154.180000
270.019806	154.800000
270.112793	154.100000
270.205811	154.120000
270.298798	153.820000
270.391785	154.740000
270.484772	153.980000
270.577789	154.340000
270.670776	153.560000
270.763763	153.600000
270.856750	153.300000
270.949768	153.140000
271.042786	153.520000
271.135773	153.740000
271.228790	154.460000
271.321808	153.900000
271.414795	153.700000
271.507782	153.340000
271.600800	152.940000
271.693817	152.680000
271.786804	153.400000
271.879822	154.000000
271.972809	153.900000
272.065826	154.520000
272.158844	153.820000
272.251831	154.300000
272.344849	154.240000
272.437866	154.160000
272.530853	154.060000
272.623871	154.660000
272.716888	153.220000
272.809906	153.760000
272.902893	153.720000
272.995911	153.220000
273.088928	152.860000
273.181946	153.320000
273.274963	152.680000
273.367981	152.880000
273.460999	153.180000
273.554047	153.860000
273.647003	154.660000
273.740051	154.940000
273.833069	155.440000
273.926086	155.660000
274.019135	155.260000
274.112152	154.460000
274.205170	154.380000
274.298187	154.180000
274.391205	153.860000
274.484222	154.040000
274.577240	154.120000
274.670258	153.940000
274.763306	153.980000
274.856323	154.380000
274.949341	154.080000
275.042358	154.360000
275.135406	154.640000
275.228424	154.540000
275.321442	154.200000
275.414490	154.120000
275.507507	154.420000
275.600525	154.700000
275.693573	154.360000
275.786591	154.280000
275.879669	154.660000
275.972656	154.100000
276.065735	153.740000
276.158752	154.400000
276.251801	154.960000
276.344818	154.940000
276.437866	155.060000
276.530884	154.920000
276.623932	154.040000
276.716980	154.360000
276.809998	154.360000
276.903046	154.460000
276.996094	155.340000
277.089111	156.020000
277.182159	156.200000
277.275208	155.680000
277.368256	155.760000
277.461304	154.960000
277.554321	154.340000
277.647369	153.720000
277.740417	154.100000
277.833466	153.740000
277.926514	153.640000
278.019562	154.600000
278.112610	154.080000
278.205688	154.180000
278.298706	154.620000
278.391785	154.520000
278.484833	153.660000
278.577881	153.640000
278.670929	154.160000
278.763977	153.800000
278.857025	154.200000
278.950073	154.360000
279.043121	154.420000
279.136169	153.880000
279.229248	153.540000
279.322296	153.900000
279.415344	153.980000
279.508392	154.100000
279.601440	154.180000
279.694519	154.400000
279.787567	153.580000
279.880615	153.120000
279.973694	153.160000
280.066742	153.120000
280.159790	153.400000
280.252869	153.100000
280.345917	153.380000
280.438995	153.180000
280.532074	153.280000
280.625122	153.440000
280.718201	154.640000
280.811279	154.860000
280.904327	154.920000
280.997406	154.840000
281.090454	154.860000
281.183533	153.980000
281.276581	153.880000
281.369659	153.460000
281.462738	153.360000
281.555786	153.460000
281.648865	153.820000
281.741943	153.900000
281.835022	154.800000
281.928070	154.860000
282.021149	154.260000
282.114227	154.180000
282.207306	153.960000
282.300385	154.080000
282.393433	154.120000
282.486511	154.360000
282.579590	154.760000
282.672668	155.320000
282.765747	154.760000
282.858856	154.340000
282.951904	154.620000
283.045013	154.840000
283.138062	154.740000
283.231171	154.940000
283.324249	155.680000
283.417328	155.540000
283.510406	155.160000
283.603485	154.880000
283.696564	154.760000
283.789642	154.560000
283.882751	154.420000
283.975830	154.820000
284.068909	154.700000
284.161987	155.280000
284.255066	154.700000
284.348175	154.440000
284.441254	154.100000
284.534332	154.420000
284.627441	153.940000
284.720520	154.120000
284.813599	154.860000
284.906708	154.800000
284.999786	154.080000
285.092896	153.920000
285.185974	154.900000
285.279053	153.960000
285.372192	154.100000
285.465240	154.880000
285.558380	155.080000
285.651459	154.320000
285.744568	155.440000
285.837677	155.200000
285.930756	155.100000
286.023865	154.900000
286.116943	154.600000
286.210052	154.240000
286.303162	154.180000
286.396240	154.160000
286.489349	153.760000
286.582458	154.020000
286.675568	153.700000
286.768646	153.920000
286.861755	154.360000
286.954865	155.700000
287.047974	155.660000
287.141083	155.380000
287.234161	154.880000
287.327271	154.520000
287.420380	154.320000
287.513519	154.100000
287.606598	154.500000
287.699738	154.900000
287.792816	154.640000
287.885956	154.620000
287.979034	154.680000
288.072174	154.920000
288.165283	154.860000
288.258392	155.360000
288.351501	154.480000
288.444611	154.560000
288.537720	154.860000
288.630859	154.600000
288.723969	154.820000
288.817078	155.460000
288.910187	155.600000
289.003296	154.640000
289.096436	154.420000
289.189545	153.780000
289.282654	152.900000
289.375763	153.120000
289.468903	153.720000
289.562012	154.180000
289.655121	154.300000
289.748260	155.080000
289.841400	155.200000
289.934509	154.980000
290.027649	155.100000
290.120728	154.880000
290.213898	154.720000
290.306976	154.320000
290.400146	154.460000
290.493256	154.100000
290.586395	154.380000
290.679535	154.560000
290.772644	154.460000
290.865784	153.620000
290.958893	153.520000
291.052032	152.900000
291.145172	152.560000
291.238281	152.280000
291.331421	152.840000
291.424561	153.300000
291.517670	153.660000
291.610809	153.740000
291.703949	153.900000
291.797089	154.080000
291.890228	153.900000
291.983337	153.500000
292.076477	153.380000
292.169617	153.760000
292.262756	153.700000
292.355927	153.200000
292.449036	153.660000
292.542206	153.880000
292.635315	153.780000
292.728485	154.100000
292.821625	154.260000
292.914764	155.320000
293.007904	155.400000
293.101044	155.560000
293.194183	155.000000
293.287323	155.220000
293.380463	154.160000
293.473602	153.760000
293.566742	153.900000
293.659882	154.660000
293.753021	154.860000
293.846191	154.840000
293.939331	154.720000
294.032471	154.320000
294.125610	153.860000
294.218781	153.880000
294.311920	154.340000
294.405060	154.560000
294.498230	154.560000
294.591370	154.700000
294.684540	154.180000
294.777679	153.620000
294.870850	153.900000
294.963959	153.660000
295.057159	153.560000
295.150299	153.900000
295.243469	153.960000
295.336609	153.620000
295.429779	153.880000
295.522919	154.040000
295.616089	154.160000
295.709229	154.560000
295.802399	154.640000
295.895569	154.300000
295.988708	153.800000
296.081879	153.680000
296.175018	152.980000
296.268188	153.240000
296.361359	153.900000
296.454529	154.520000
296.547668	154.360000
296.640839	154.800000
296.734009	154.200000
296.827179	154.060000
296.920319	153.860000
297.013519	153.820000
297.106659	153.880000
297.199860	153.940000
297.292999	153.820000
297.386200	153.660000
297.479309	153.780000
297.572510	153.700000
297.665680	153.740000
297.758850	153.700000
297.852020	153.760000
297.945190	153.580000
298.038361	153.360000
298.131531	154.580000
298.224701	154.540000
298.317871	154.040000
298.411072	153.800000
298.504242	153.800000
298.597412	152.880000
298.690582	152.920000
298.783752	153.340000
298.876923	153.740000
298.970093	153.820000
299.063293	153.940000
299.156464	154.420000
299.249634	154.540000
299.342834	154.820000
299.436005	155.220000
299.529205	155.200000
299.622345	155.100000
299.715576	154.680000
299.808716	154.440000
299.901917	154.340000
299.995117	154.520000
300.088287	154.620000
300.181488	154.280000
300.274658	153.940000
300.367828	153.720000
300.461029	153.480000
300.554199	153.500000
300.647400	153.760000
300.740601	154.520000
300.833771	154.260000
300.926971	154.600000
301.020142	154.140000
301.113342	154.260000
301.206512	154.060000
301.299713	154.180000
301.392914	153.960000
301.486084	154.140000
301.579285	154.260000
301.672516	154.560000
301.765686	154.840000
301.858887	154.740000
301.952057	154.680000
302.045288	154.400000
302.138458	153.920000
302.231659	153.500000
302.324860	153.480000
302.418060	153.280000
302.511261	153.520000
302.604462	153.720000
302.697662	153.840000
302.790863	153.640000
302.884064	153.340000
302.977264	153.620000
303.070465	153.820000
303.163666	154.680000
303.256866	155.180000
303.350067	155.500000
303.443268	155.120000
303.536469	155.120000
303.629669	154.360000
303.722870	154.480000
303.816071	154.100000
303.909271	154.460000
304.002472	153.420000
304.095673	153.260000
304.188934	152.340000
304.282104	153.560000
304.375336	153.160000
304.468506	153.620000
304.561768	153.440000
304.654968	154.360000
304.748169	153.560000
304.841370	153.420000
304.934601	153.800000
305.027802	153.480000
305.121002	153.180000
305.214233	153.440000
305.307434	153.780000
305.400665	154.380000
305.493866	154.700000
