Model Number: SPM-002-B   
Serial Number: 70087108
Firmware Version: 004.15.4
Exposure Time: 100000.000000us
Data Taken on: 15-01-2021 16:41:14.912
Wavelength	Amplitude
221.570786	0.000000
221.663406	0.000000
221.756027	0.000000
221.848648	0.000000
221.941269	0.000000
222.033905	0.000000
222.126526	0.000000
222.219162	0.000000
222.311798	0.000000
222.404419	0.000000
222.497055	0.000000
222.589676	0.000000
222.682312	0.000000
222.774933	0.000000
222.867569	0.000000
222.960205	0.000000
223.052841	0.000000
223.145462	0.000000
223.238098	0.000000
223.330734	0.000000
223.423386	0.000000
223.516022	0.000000
223.608658	0.000000
223.701309	0.000000
223.793945	0.000000
223.886581	0.000000
223.979218	0.000000
224.071869	0.000000
224.164505	0.000000
224.257156	0.000000
224.349792	0.000000
224.442444	0.000000
224.535095	0.000000
224.627747	0.000000
224.720398	0.000000
224.813034	0.000000
224.905685	0.000000
224.998337	153.520000
225.090988	153.140000
225.183640	153.220000
225.276291	152.840000
225.368942	153.360000
225.461594	154.020000
225.554245	154.460000
225.646912	154.460000
225.739578	154.980000
225.832230	155.020000
225.924896	154.160000
226.017548	154.420000
226.110199	154.900000
226.202866	154.320000
226.295532	154.220000
226.388184	154.420000
226.480850	153.620000
226.573517	153.120000
226.666168	153.560000
226.758835	153.720000
226.851501	154.500000
226.944183	154.640000
227.036850	154.380000
227.129517	154.180000
227.222183	154.220000
227.314850	153.740000
227.407516	154.380000
227.500198	155.300000
227.592865	154.880000
227.685532	154.440000
227.778214	154.200000
227.870880	154.220000
227.963562	154.260000
228.056229	154.820000
228.148926	155.280000
228.241592	156.060000
228.334274	155.360000
228.426956	155.080000
228.519638	155.680000
228.612305	154.740000
228.704987	154.500000
228.797668	154.760000
228.890350	154.240000
228.983032	153.160000
229.075714	154.340000
229.168396	153.920000
229.261108	153.600000
229.353790	153.920000
229.446472	154.340000
229.539169	154.000000
229.631851	153.840000
229.724533	154.240000
229.817230	154.280000
229.909912	155.340000
230.002609	155.180000
230.095306	155.240000
230.187988	155.240000
230.280685	155.080000
230.373383	153.740000
230.466095	153.620000
230.558792	153.580000
230.651474	153.280000
230.744171	153.360000
230.836868	153.500000
230.929581	153.840000
231.022278	154.320000
231.114975	154.360000
231.207672	154.000000
231.300369	154.420000
231.393082	154.280000
231.485779	153.820000
231.578506	153.880000
231.671204	154.160000
231.763916	153.740000
231.856613	153.560000
231.949326	153.940000
232.042023	153.660000
232.134735	153.980000
232.227448	154.100000
232.320160	154.560000
232.412872	154.460000
232.505585	155.400000
232.598297	155.420000
232.691010	155.100000
232.783722	154.340000
232.876450	155.060000
232.969162	154.420000
233.061874	153.880000
233.154587	153.900000
233.247314	154.620000
233.340027	153.720000
233.432739	153.980000
233.525467	154.040000
233.618179	154.500000
233.710907	154.200000
233.803635	154.720000
233.896347	154.320000
233.989090	155.140000
234.081818	154.860000
234.174545	154.800000
234.267258	154.340000
234.359985	154.940000
234.452713	154.340000
234.545441	153.940000
234.638168	154.000000
234.730896	154.300000
234.823639	153.760000
234.916367	154.220000
235.009094	154.760000
235.101822	154.720000
235.194580	154.580000
235.287308	154.840000
235.380051	154.140000
235.472778	154.320000
235.565521	154.660000
235.658249	154.300000
235.750992	154.340000
235.843719	154.360000
235.936462	154.420000
236.029205	153.980000
236.121948	153.740000
236.214691	154.120000
236.307449	155.000000
236.400192	154.440000
236.492935	154.400000
236.585678	154.900000
236.678421	154.660000
236.771164	154.100000
236.863907	154.760000
236.956665	154.860000
237.049408	156.420000
237.142151	156.040000
237.234909	156.880000
237.327652	156.680000
237.420410	156.540000
237.513153	155.220000
237.605927	155.060000
237.698669	154.320000
237.791428	153.440000
237.884186	154.000000
237.976944	153.620000
238.069702	154.100000
238.162445	153.600000
238.255203	154.100000
238.347961	154.200000
238.440720	154.240000
238.533478	154.120000
238.626266	153.980000
238.719025	154.220000
238.811783	153.600000
238.904541	153.700000
238.997314	153.380000
239.090073	153.220000
239.182831	153.640000
239.275604	154.840000
239.368362	154.540000
239.461136	154.820000
239.553909	155.240000
239.646667	154.640000
239.739441	153.780000
239.832214	154.060000
239.925003	154.320000
240.017761	154.560000
240.110535	155.240000
240.203308	154.900000
240.296082	154.680000
240.388855	154.520000
240.481628	154.740000
240.574417	154.660000
240.667191	154.720000
240.759964	154.720000
240.852737	154.460000
240.945526	153.960000
241.038315	153.500000
241.131088	153.960000
241.223877	154.260000
241.316650	153.980000
241.409439	154.200000
241.502228	154.180000
241.595001	154.580000
241.687790	154.340000
241.780579	154.660000
241.873367	155.000000
241.966141	155.020000
242.058929	154.160000
242.151718	154.640000
242.244507	154.920000
242.337311	153.980000
242.430099	154.280000
242.522903	154.620000
242.615692	153.900000
242.708481	154.000000
242.801270	154.880000
242.894073	154.700000
242.986862	154.640000
243.079651	155.400000
243.172455	154.820000
243.265244	154.800000
243.358063	154.260000
243.450867	154.700000
243.543655	154.640000
243.636459	154.720000
243.729263	154.880000
243.822067	155.560000
243.914856	155.500000
244.007660	155.300000
244.100464	155.520000
244.193268	154.820000
244.286072	154.340000
244.378876	153.780000
244.471680	153.620000
244.564499	153.760000
244.657318	154.740000
244.750122	155.160000
244.842926	154.800000
244.935745	155.300000
245.028549	154.940000
245.121368	154.080000
245.214172	154.020000
245.306992	154.700000
245.399796	154.020000
245.492615	154.100000
245.585434	154.060000
245.678253	154.000000
245.771072	153.680000
245.863892	154.440000
245.956711	154.540000
246.049530	154.680000
246.142349	154.560000
246.235168	154.740000
246.327988	154.940000
246.420807	154.800000
246.513626	154.660000
246.606445	154.740000
246.699280	154.680000
246.792099	154.180000
246.884918	154.080000
246.977753	153.960000
247.070587	153.900000
247.163422	153.800000
247.256241	153.540000
247.349075	153.660000
247.441895	153.720000
247.534729	153.600000
247.627563	153.760000
247.720383	154.400000
247.813217	154.120000
247.906052	153.980000
247.998886	154.080000
248.091736	153.880000
248.184570	153.560000
248.277405	153.960000
248.370239	154.840000
248.463074	155.740000
248.555908	156.160000
248.648743	155.880000
248.741592	155.940000
248.834427	155.440000
248.927261	154.200000
249.020111	154.140000
249.112946	154.740000
249.205795	154.120000
249.298630	154.060000
249.391495	154.360000
249.484344	153.940000
249.577179	153.840000
249.670029	154.440000
249.762878	154.880000
249.855728	155.160000
249.948563	155.500000
250.041412	154.700000
250.134262	154.780000
250.227112	154.720000
250.319962	154.540000
250.412827	154.320000
250.505692	154.220000
250.598541	154.140000
250.691391	153.860000
250.784241	153.800000
250.877106	153.820000
250.969955	153.840000
251.062805	154.500000
251.155670	154.900000
251.248520	154.720000
251.341385	155.100000
251.434235	155.120000
251.527100	154.520000
251.619965	154.120000
251.712814	155.140000
251.805695	154.680000
251.898560	154.980000
251.991425	155.200000
252.084290	155.120000
252.177155	154.060000
252.270020	153.860000
252.362885	154.000000
252.455750	153.820000
252.548615	153.880000
252.641479	154.120000
252.734360	154.060000
252.827240	153.680000
252.920105	153.700000
253.012970	153.560000
253.105850	153.460000
253.198715	153.400000
253.291595	153.540000
253.384460	153.060000
253.477341	152.840000
253.570221	153.060000
253.663086	153.120000
253.755966	153.820000
253.848846	154.000000
253.941727	154.460000
254.034592	154.140000
254.127472	153.960000
254.220367	153.820000
254.313248	153.860000
254.406128	153.500000
254.499008	153.940000
254.591904	154.940000
254.684784	155.180000
254.777664	155.280000
254.870544	154.920000
254.963440	154.560000
255.056335	154.160000
255.149216	153.660000
255.242111	154.400000
255.334991	155.060000
255.427887	155.240000
255.520767	155.660000
255.613663	155.720000
255.706558	154.700000
255.799438	154.280000
255.892334	154.080000
255.985229	153.640000
256.078125	153.400000
256.171021	153.640000
256.263916	154.240000
256.356812	154.320000
256.449707	153.940000
256.542603	153.940000
256.635498	154.800000
256.728394	154.500000
256.821289	154.240000
256.914215	154.940000
257.007080	155.060000
257.100006	154.840000
257.192932	155.120000
257.285828	155.380000
257.378723	154.840000
257.471619	154.740000
257.564545	153.880000
257.657440	154.180000
257.750336	154.960000
257.843262	155.240000
257.936157	156.620000
258.029053	157.240000
258.121979	156.800000
258.214874	155.940000
258.307800	155.520000
258.400696	153.960000
258.493622	153.640000
258.586517	152.920000
258.679443	153.200000
258.772339	152.780000
258.865265	152.920000
258.958160	152.300000
259.051086	153.500000
259.144012	153.320000
259.236938	154.260000
259.329834	154.520000
259.422791	154.700000
259.515717	153.900000
259.608612	153.680000
259.701538	153.620000
259.794464	153.420000
259.887390	153.440000
259.980316	153.420000
260.073212	153.360000
260.166138	152.500000
260.259064	152.800000
260.351990	153.400000
260.444916	153.460000
260.537842	153.900000
260.630768	155.040000
260.723694	155.060000
260.816620	154.960000
260.909546	154.780000
261.002472	154.440000
261.095398	153.940000
261.188354	153.600000
261.281281	153.160000
261.374207	153.660000
261.467133	154.540000
261.560089	154.900000
261.653015	154.520000
261.745972	155.260000
261.838867	155.420000
261.931824	155.140000
262.024780	154.500000
262.117706	154.980000
262.210663	154.920000
262.303589	154.380000
262.396515	154.300000
262.489471	155.060000
262.582397	154.920000
262.675354	154.220000
262.768280	154.720000
262.861237	154.660000
262.954163	154.460000
263.047119	154.840000
263.140045	154.700000
263.233002	154.440000
263.325958	154.400000
263.418884	153.780000
263.511841	153.480000
263.604797	153.940000
263.697723	154.000000
263.790680	153.960000
263.883636	154.660000
263.976593	154.440000
264.069550	154.440000
264.162476	154.120000
264.255463	154.140000
264.348419	153.900000
264.441376	154.380000
264.534332	153.940000
264.627289	153.980000
264.720245	154.420000
264.813202	154.100000
264.906158	154.040000
264.999115	154.840000
265.092072	154.840000
265.185028	155.060000
265.277985	155.300000
265.370941	155.660000
265.463898	155.120000
265.556854	154.960000
265.649811	153.800000
265.742798	153.740000
265.835754	153.560000
265.928711	154.200000
266.021667	154.700000
266.114655	155.180000
266.207611	155.320000
266.300568	154.660000
266.393585	153.920000
266.486511	153.920000
266.579498	153.320000
266.672485	153.320000
266.765442	153.040000
266.858429	153.620000
266.951385	152.880000
267.044342	153.340000
267.137329	153.520000
267.230316	154.080000
267.323273	153.600000
267.416260	154.540000
267.509216	154.340000
267.602203	153.960000
267.695160	154.400000
267.788147	154.500000
267.881134	153.680000
267.974091	154.100000
268.067078	154.060000
268.160065	153.600000
268.253052	153.720000
268.346008	154.140000
268.438995	153.760000
268.531982	153.820000
268.624969	153.780000
268.717987	154.140000
268.810944	153.940000
268.903961	154.120000
268.996948	153.900000
269.089905	154.500000
269.182892	154.380000
269.275879	154.820000
269.368866	154.340000
269.461853	154.880000
269.554871	154.540000
269.647858	154.400000
269.740845	154.600000
269.833832	155.160000
269.926819	154.780000
270.019806	154.600000
270.112793	153.940000
270.205811	153.820000
270.298798	153.580000
270.391785	153.820000
270.484772	153.480000
270.577789	153.980000
270.670776	153.380000
270.763763	153.000000
270.856750	153.240000
270.949768	153.340000
271.042786	153.300000
271.135773	153.660000
271.228790	154.260000
271.321808	153.660000
271.414795	153.300000
271.507782	153.100000
271.600800	152.720000
271.693817	152.920000
271.786804	153.260000
271.879822	153.800000
271.972809	153.620000
272.065826	154.220000
272.158844	153.320000
272.251831	153.720000
272.344849	153.800000
272.437866	153.820000
272.530853	153.960000
272.623871	154.600000
272.716888	153.560000
272.809906	153.640000
272.902893	153.680000
272.995911	152.800000
273.088928	152.940000
273.181946	153.480000
273.274963	153.060000
273.367981	153.280000
273.460999	153.820000
273.554047	153.880000
273.647003	154.460000
273.740051	154.540000
273.833069	154.760000
273.926086	154.900000
274.019135	154.500000
274.112152	154.120000
274.205170	154.540000
274.298187	154.720000
274.391205	154.100000
274.484222	154.460000
274.577240	154.400000
274.670258	154.180000
274.763306	153.960000
274.856323	154.520000
274.949341	154.300000
275.042358	154.760000
275.135406	154.540000
275.228424	154.300000
275.321442	154.140000
275.414490	153.920000
275.507507	154.140000
275.600525	154.560000
275.693573	154.380000
275.786591	153.980000
275.879669	154.120000
275.972656	153.340000
276.065735	153.220000
276.158752	153.820000
276.251801	154.560000
276.344818	154.760000
276.437866	155.000000
276.530884	154.740000
276.623932	154.020000
276.716980	154.180000
276.809998	154.160000
276.903046	154.040000
276.996094	154.840000
277.089111	155.440000
277.182159	155.880000
277.275208	155.500000
277.368256	155.400000
277.461304	154.860000
277.554321	154.060000
277.647369	153.440000
277.740417	153.760000
277.833466	153.760000
277.926514	153.460000
278.019562	154.480000
278.112610	153.740000
278.205688	153.740000
278.298706	153.900000
278.391785	154.080000
278.484833	153.540000
278.577881	153.500000
278.670929	153.680000
278.763977	153.640000
278.857025	154.160000
278.950073	154.160000
279.043121	154.540000
279.136169	154.280000
279.229248	154.000000
279.322296	153.780000
279.415344	153.780000
279.508392	153.700000
279.601440	153.820000
279.694519	153.820000
279.787567	153.700000
279.880615	153.480000
279.973694	153.360000
280.066742	153.560000
280.159790	153.660000
280.252869	153.120000
280.345917	153.540000
280.438995	153.600000
280.532074	153.240000
280.625122	153.660000
280.718201	154.720000
280.811279	154.680000
280.904327	154.980000
280.997406	155.400000
281.090454	155.440000
281.183533	154.640000
281.276581	154.360000
281.369659	153.860000
281.462738	153.700000
281.555786	153.560000
281.648865	153.960000
281.741943	154.320000
281.835022	154.980000
281.928070	154.520000
282.021149	154.180000
282.114227	153.880000
282.207306	153.560000
282.300385	153.800000
282.393433	154.220000
282.486511	154.500000
282.579590	155.000000
282.672668	155.420000
282.765747	154.620000
282.858856	154.500000
282.951904	154.520000
283.045013	154.580000
283.138062	154.740000
283.231171	155.200000
283.324249	155.520000
283.417328	155.620000
283.510406	155.080000
283.603485	154.720000
283.696564	154.620000
283.789642	154.400000
283.882751	154.080000
283.975830	154.860000
284.068909	154.740000
284.161987	155.320000
284.255066	154.960000
284.348175	154.860000
284.441254	154.260000
284.534332	154.700000
284.627441	154.200000
284.720520	154.020000
284.813599	154.160000
284.906708	154.360000
284.999786	153.620000
285.092896	153.480000
285.185974	154.720000
285.279053	154.160000
285.372192	154.440000
285.465240	155.460000
285.558380	155.200000
285.651459	154.600000
285.744568	155.780000
285.837677	155.180000
285.930756	154.840000
286.023865	155.120000
286.116943	154.640000
286.210052	154.400000
286.303162	154.460000
286.396240	154.080000
286.489349	153.640000
286.582458	154.140000
286.675568	153.540000
286.768646	153.500000
286.861755	153.860000
286.954865	154.920000
287.047974	154.340000
287.141083	154.460000
287.234161	154.340000
287.327271	154.140000
287.420380	154.120000
287.513519	153.940000
287.606598	154.240000
287.699738	154.640000
287.792816	154.640000
287.885956	154.200000
287.979034	154.280000
288.072174	154.040000
288.165283	153.700000
288.258392	153.800000
288.351501	153.180000
288.444611	153.740000
288.537720	154.240000
288.630859	154.100000
288.723969	154.360000
288.817078	155.140000
288.910187	155.120000
289.003296	154.200000
289.096436	153.920000
289.189545	153.580000
289.282654	152.960000
289.375763	153.120000
289.468903	153.940000
289.562012	154.640000
289.655121	154.420000
289.748260	154.740000
289.841400	154.960000
289.934509	154.660000
290.027649	154.740000
290.120728	154.820000
290.213898	155.020000
290.306976	154.620000
290.400146	154.760000
290.493256	154.240000
290.586395	154.640000
290.679535	154.660000
290.772644	154.600000
290.865784	154.020000
290.958893	154.140000
291.052032	153.960000
291.145172	153.740000
291.238281	153.400000
291.331421	153.540000
291.424561	154.140000
291.517670	153.720000
291.610809	153.860000
291.703949	153.900000
291.797089	154.540000
291.890228	153.800000
291.983337	154.140000
292.076477	154.140000
292.169617	154.480000
292.262756	154.140000
292.355927	154.060000
292.449036	153.720000
292.542206	153.860000
292.635315	154.120000
292.728485	154.440000
292.821625	154.360000
292.914764	155.780000
293.007904	155.440000
293.101044	155.200000
293.194183	154.800000
293.287323	154.960000
293.380463	154.020000
293.473602	153.940000
293.566742	154.000000
293.659882	154.280000
293.753021	154.700000
293.846191	154.560000
293.939331	154.200000
294.032471	154.000000
294.125610	153.740000
294.218781	153.840000
294.311920	154.240000
294.405060	154.640000
294.498230	154.680000
294.591370	154.740000
294.684540	154.020000
294.777679	153.300000
294.870850	153.700000
294.963959	153.740000
295.057159	153.640000
295.150299	154.040000
295.243469	153.860000
295.336609	153.240000
295.429779	153.300000
295.522919	153.480000
295.616089	153.720000
295.709229	154.740000
295.802399	155.180000
295.895569	154.680000
295.988708	154.620000
296.081879	154.480000
296.175018	153.800000
296.268188	153.600000
296.361359	154.340000
296.454529	154.500000
296.547668	154.240000
296.640839	154.380000
296.734009	154.280000
296.827179	154.440000
296.920319	154.640000
297.013519	154.760000
297.106659	155.000000
297.199860	155.060000
297.292999	154.880000
297.386200	154.460000
297.479309	154.020000
297.572510	153.760000
297.665680	153.720000
297.758850	153.680000
297.852020	153.580000
297.945190	153.560000
298.038361	153.560000
298.131531	154.640000
298.224701	154.060000
298.317871	153.800000
298.411072	153.560000
298.504242	153.560000
298.597412	152.580000
298.690582	152.980000
298.783752	153.440000
298.876923	154.120000
298.970093	154.300000
299.063293	154.700000
299.156464	155.300000
299.249634	155.460000
299.342834	155.640000
299.436005	155.880000
299.529205	155.680000
299.622345	155.380000
299.715576	154.700000
299.808716	154.400000
299.901917	154.000000
299.995117	154.160000
300.088287	154.100000
300.181488	154.180000
300.274658	153.940000
300.367828	153.920000
300.461029	153.960000
300.554199	154.000000
300.647400	154.320000
300.740601	155.160000
300.833771	155.040000
300.926971	155.200000
301.020142	154.800000
301.113342	154.600000
301.206512	154.600000
301.299713	155.140000
301.392914	154.860000
301.486084	155.340000
301.579285	155.640000
301.672516	155.840000
301.765686	155.360000
301.858887	155.240000
301.952057	154.920000
302.045288	154.620000
302.138458	153.960000
302.231659	154.060000
302.324860	154.120000
302.418060	153.740000
302.511261	153.540000
302.604462	153.900000
302.697662	153.520000
302.790863	153.060000
302.884064	153.160000
302.977264	153.480000
303.070465	153.420000
303.163666	154.380000
303.256866	154.860000
303.350067	154.880000
303.443268	154.900000
303.536469	155.040000
303.629669	154.180000
303.722870	153.940000
303.816071	153.880000
303.909271	153.700000
304.002472	152.800000
304.095673	152.820000
304.188934	152.360000
304.282104	153.320000
304.375336	153.680000
304.468506	153.860000
304.561768	153.760000
304.654968	154.580000
304.748169	154.060000
304.841370	153.780000
304.934601	154.300000
305.027802	154.080000
305.121002	153.400000
305.214233	153.560000
305.307434	153.380000
305.400665	154.000000
305.493866	154.100000
