Model Number: SPM-002-B   
Serial Number: 70087108
Firmware Version: 004.15.4
Exposure Time: 100000.000000us
Data Taken on: 15-01-2021 16:41:20.312
Wavelength	Amplitude
221.570786	0.000000
221.663406	0.000000
221.756027	0.000000
221.848648	0.000000
221.941269	0.000000
222.033905	0.000000
222.126526	0.000000
222.219162	0.000000
222.311798	0.000000
222.404419	0.000000
222.497055	0.000000
222.589676	0.000000
222.682312	0.000000
222.774933	0.000000
222.867569	0.000000
222.960205	0.000000
223.052841	0.000000
223.145462	0.000000
223.238098	0.000000
223.330734	0.000000
223.423386	0.000000
223.516022	0.000000
223.608658	0.000000
223.701309	0.000000
223.793945	0.000000
223.886581	0.000000
223.979218	0.000000
224.071869	0.000000
224.164505	0.000000
224.257156	0.000000
224.349792	0.000000
224.442444	0.000000
224.535095	0.000000
224.627747	0.000000
224.720398	0.000000
224.813034	0.000000
224.905685	0.000000
224.998337	152.600000
225.090988	152.500000
225.183640	152.480000
225.276291	152.380000
225.368942	152.780000
225.461594	153.440000
225.554245	153.740000
225.646912	153.800000
225.739578	154.280000
225.832230	154.660000
225.924896	154.040000
226.017548	154.360000
226.110199	155.020000
226.202866	154.040000
226.295532	153.880000
226.388184	153.800000
226.480850	152.880000
226.573517	152.140000
226.666168	152.860000
226.758835	153.080000
226.851501	153.320000
226.944183	153.920000
227.036850	153.540000
227.129517	153.720000
227.222183	154.020000
227.314850	153.880000
227.407516	154.080000
227.500198	155.120000
227.592865	154.340000
227.685532	153.620000
227.778214	153.820000
227.870880	153.820000
227.963562	154.060000
228.056229	154.880000
228.148926	155.060000
228.241592	155.340000
228.334274	155.140000
228.426956	154.460000
228.519638	154.440000
228.612305	153.880000
228.704987	154.080000
228.797668	154.160000
228.890350	153.860000
228.983032	152.940000
229.075714	153.640000
229.168396	153.380000
229.261108	153.060000
229.353790	153.260000
229.446472	154.040000
229.539169	153.940000
229.631851	153.400000
229.724533	153.720000
229.817230	153.840000
229.909912	154.320000
230.002609	154.260000
230.095306	154.320000
230.187988	154.280000
230.280685	154.020000
230.373383	152.920000
230.466095	152.720000
230.558792	153.260000
230.651474	152.960000
230.744171	153.120000
230.836868	153.500000
230.929581	153.960000
231.022278	153.920000
231.114975	154.200000
231.207672	153.960000
231.300369	154.140000
231.393082	154.080000
231.485779	153.520000
231.578506	153.540000
231.671204	153.660000
231.763916	153.520000
231.856613	153.380000
231.949326	153.780000
232.042023	153.360000
232.134735	153.280000
232.227448	153.100000
232.320160	153.560000
232.412872	153.640000
232.505585	154.780000
232.598297	154.880000
232.691010	154.740000
232.783722	153.920000
232.876450	154.600000
232.969162	153.920000
233.061874	153.440000
233.154587	153.400000
233.247314	153.820000
233.340027	152.960000
233.432739	153.060000
233.525467	153.400000
233.618179	153.820000
233.710907	153.380000
233.803635	153.780000
233.896347	153.700000
233.989090	154.360000
234.081818	154.280000
234.174545	154.780000
234.267258	154.360000
234.359985	154.520000
234.452713	154.320000
234.545441	154.260000
234.638168	153.740000
234.730896	154.500000
234.823639	154.220000
234.916367	154.460000
235.009094	154.660000
235.101822	155.000000
235.194580	154.360000
235.287308	154.460000
235.380051	153.600000
235.472778	153.560000
235.565521	153.680000
235.658249	153.400000
235.750992	153.540000
235.843719	153.680000
235.936462	153.840000
236.029205	153.460000
236.121948	153.080000
236.214691	153.480000
236.307449	154.300000
236.400192	153.680000
236.492935	153.760000
236.585678	154.300000
236.678421	153.680000
236.771164	153.260000
236.863907	154.080000
236.956665	154.080000
237.049408	155.940000
237.142151	155.440000
237.234909	156.280000
237.327652	156.280000
237.420410	156.200000
237.513153	154.500000
237.605927	154.920000
237.698669	153.740000
237.791428	152.740000
237.884186	153.140000
237.976944	152.880000
238.069702	153.220000
238.162445	153.240000
238.255203	153.580000
238.347961	154.160000
238.440720	154.200000
238.533478	153.820000
238.626266	153.600000
238.719025	153.800000
238.811783	153.300000
238.904541	153.400000
238.997314	153.240000
239.090073	153.320000
239.182831	153.540000
239.275604	154.200000
239.368362	153.960000
239.461136	154.480000
239.553909	154.720000
239.646667	154.300000
239.739441	153.360000
239.832214	153.980000
239.925003	153.980000
240.017761	154.440000
240.110535	155.280000
240.203308	155.160000
240.296082	154.820000
240.388855	154.720000
240.481628	154.640000
240.574417	154.360000
240.667191	154.420000
240.759964	154.280000
240.852737	154.060000
240.945526	153.380000
241.038315	153.220000
241.131088	153.500000
241.223877	153.780000
241.316650	153.600000
241.409439	154.340000
241.502228	153.920000
241.595001	154.320000
241.687790	154.160000
241.780579	154.240000
241.873367	154.140000
241.966141	154.600000
242.058929	153.900000
242.151718	154.420000
242.244507	155.120000
242.337311	154.240000
242.430099	154.520000
242.522903	154.680000
242.615692	154.040000
242.708481	153.660000
242.801270	154.560000
242.894073	154.140000
242.986862	154.440000
243.079651	154.780000
243.172455	154.420000
243.265244	154.220000
243.358063	153.800000
243.450867	153.800000
243.543655	153.640000
243.636459	153.620000
243.729263	154.120000
243.822067	154.480000
243.914856	154.500000
244.007660	154.660000
244.100464	154.800000
244.193268	153.580000
244.286072	153.420000
244.378876	152.920000
244.471680	152.780000
244.564499	153.200000
244.657318	154.600000
244.750122	154.880000
244.842926	154.520000
244.935745	154.820000
245.028549	154.380000
245.121368	153.520000
245.214172	153.580000
245.306992	154.580000
245.399796	154.040000
245.492615	154.220000
245.585434	154.160000
245.678253	154.040000
245.771072	153.480000
245.863892	154.040000
245.956711	154.180000
246.049530	154.140000
246.142349	153.840000
246.235168	154.020000
246.327988	154.160000
246.420807	153.900000
246.513626	153.980000
246.606445	153.920000
246.699280	153.680000
246.792099	153.480000
246.884918	153.120000
246.977753	152.900000
247.070587	153.220000
247.163422	153.460000
247.256241	153.360000
247.349075	153.880000
247.441895	154.000000
247.534729	154.200000
247.627563	154.060000
247.720383	154.580000
247.813217	154.400000
247.906052	154.320000
247.998886	153.900000
248.091736	153.840000
248.184570	153.100000
248.277405	153.100000
248.370239	154.300000
248.463074	155.180000
248.555908	155.640000
248.648743	155.740000
248.741592	156.140000
248.834427	155.060000
248.927261	153.960000
249.020111	154.240000
249.112946	155.080000
249.205795	154.300000
249.298630	154.560000
249.391495	154.740000
249.484344	154.140000
249.577179	153.960000
249.670029	154.320000
249.762878	154.740000
249.855728	155.140000
249.948563	155.220000
250.041412	154.140000
250.134262	154.100000
250.227112	154.060000
250.319962	153.980000
250.412827	153.780000
250.505692	153.600000
250.598541	153.780000
250.691391	153.240000
250.784241	153.300000
250.877106	153.680000
250.969955	153.680000
251.062805	154.140000
251.155670	154.920000
251.248520	154.580000
251.341385	154.660000
251.434235	154.700000
251.527100	153.940000
251.619965	153.280000
251.712814	154.300000
251.805695	154.240000
251.898560	154.740000
251.991425	155.480000
252.084290	155.680000
252.177155	154.540000
252.270020	154.260000
252.362885	154.300000
252.455750	153.960000
252.548615	153.640000
252.641479	153.640000
252.734360	153.580000
252.827240	153.280000
252.920105	153.380000
253.012970	153.400000
253.105850	153.360000
253.198715	153.500000
253.291595	153.920000
253.384460	153.440000
253.477341	153.620000
253.570221	154.300000
253.663086	153.960000
253.755966	154.320000
253.848846	154.780000
253.941727	154.800000
254.034592	154.240000
254.127472	154.040000
254.220367	153.860000
254.313248	153.900000
254.406128	153.480000
254.499008	154.200000
254.591904	155.160000
254.684784	155.600000
254.777664	155.660000
254.870544	155.580000
254.963440	155.140000
255.056335	154.720000
255.149216	153.880000
255.242111	153.920000
255.334991	154.440000
255.427887	154.540000
255.520767	154.500000
255.613663	154.700000
255.706558	154.120000
255.799438	153.700000
255.892334	153.440000
255.985229	153.320000
256.078125	153.100000
256.171021	153.420000
256.263916	154.040000
256.356812	154.080000
256.449707	154.400000
256.542603	154.400000
256.635498	154.740000
256.728394	154.620000
256.821289	154.420000
256.914215	154.520000
257.007080	154.700000
257.100006	154.760000
257.192932	154.820000
257.285828	155.420000
257.378723	155.040000
257.471619	155.100000
257.564545	154.340000
257.657440	154.260000
257.750336	154.660000
257.843262	154.420000
257.936157	155.460000
258.029053	155.880000
258.121979	155.960000
258.214874	155.200000
258.307800	155.180000
258.400696	153.720000
258.493622	153.780000
258.586517	152.680000
258.679443	153.060000
258.772339	152.940000
258.865265	153.160000
258.958160	152.400000
259.051086	153.740000
259.144012	153.420000
259.236938	154.100000
259.329834	154.280000
259.422791	154.600000
259.515717	153.720000
259.608612	153.320000
259.701538	153.280000
259.794464	152.760000
259.887390	152.840000
259.980316	152.860000
260.073212	152.940000
260.166138	151.820000
260.259064	152.520000
260.351990	153.200000
260.444916	153.460000
260.537842	153.740000
260.630768	154.840000
260.723694	154.820000
260.816620	154.240000
260.909546	153.940000
261.002472	153.720000
261.095398	153.260000
261.188354	153.120000
261.281281	152.880000
261.374207	153.400000
261.467133	154.400000
261.560089	154.540000
261.653015	154.440000
261.745972	155.160000
261.838867	155.080000
261.931824	154.700000
262.024780	154.540000
262.117706	154.760000
262.210663	154.780000
262.303589	154.820000
262.396515	155.080000
262.489471	155.740000
262.582397	155.300000
262.675354	154.740000
262.768280	154.700000
262.861237	154.060000
262.954163	154.000000
263.047119	154.260000
263.140045	154.200000
263.233002	154.140000
263.325958	154.060000
263.418884	153.300000
263.511841	153.280000
263.604797	153.220000
263.697723	153.240000
263.790680	153.580000
263.883636	154.300000
263.976593	154.080000
264.069550	154.120000
264.162476	153.560000
264.255463	153.500000
264.348419	153.140000
264.441376	153.620000
264.534332	153.380000
264.627289	153.880000
264.720245	154.180000
264.813202	153.600000
264.906158	153.520000
264.999115	154.000000
265.092072	154.040000
265.185028	154.440000
265.277985	154.820000
265.370941	154.580000
265.463898	154.360000
265.556854	154.080000
265.649811	153.020000
265.742798	153.360000
265.835754	153.420000
265.928711	154.140000
266.021667	153.900000
266.114655	154.180000
266.207611	154.620000
266.300568	154.180000
266.393585	153.420000
266.486511	154.060000
266.579498	153.240000
266.672485	152.620000
266.765442	152.640000
266.858429	153.180000
266.951385	152.640000
267.044342	153.220000
267.137329	153.280000
267.230316	153.660000
267.323273	153.220000
267.416260	154.040000
267.509216	154.020000
267.602203	154.220000
267.695160	154.880000
267.788147	155.220000
267.881134	154.480000
267.974091	154.480000
268.067078	154.100000
268.160065	153.740000
268.253052	153.360000
268.346008	153.640000
268.438995	153.540000
268.531982	153.820000
268.624969	153.260000
268.717987	153.540000
268.810944	153.320000
268.903961	153.580000
268.996948	153.220000
269.089905	154.240000
269.182892	154.240000
269.275879	154.820000
269.368866	154.220000
269.461853	154.480000
269.554871	153.700000
269.647858	153.720000
269.740845	153.720000
269.833832	154.480000
269.926819	154.300000
270.019806	154.580000
270.112793	154.100000
270.205811	154.140000
270.298798	153.900000
270.391785	154.300000
270.484772	153.760000
270.577789	154.140000
270.670776	153.300000
270.763763	153.120000
270.856750	153.040000
270.949768	153.000000
271.042786	152.980000
271.135773	153.400000
271.228790	153.900000
271.321808	153.360000
271.414795	153.240000
271.507782	152.880000
271.600800	152.740000
271.693817	152.740000
271.786804	153.340000
271.879822	153.600000
271.972809	153.600000
272.065826	154.280000
272.158844	153.940000
272.251831	154.580000
272.344849	154.780000
272.437866	154.700000
272.530853	154.040000
272.623871	154.160000
272.716888	152.800000
272.809906	153.000000
272.902893	152.960000
272.995911	152.760000
273.088928	152.700000
273.181946	153.320000
273.274963	152.980000
273.367981	153.220000
273.460999	153.500000
273.554047	153.880000
273.647003	154.520000
273.740051	154.580000
273.833069	155.060000
273.926086	155.220000
274.019135	154.980000
274.112152	154.360000
274.205170	154.540000
274.298187	154.620000
274.391205	154.320000
274.484222	154.380000
274.577240	154.180000
274.670258	154.020000
274.763306	153.660000
274.856323	154.020000
274.949341	153.960000
275.042358	154.340000
275.135406	154.380000
275.228424	154.620000
275.321442	154.440000
275.414490	154.260000
275.507507	154.300000
275.600525	154.620000
275.693573	154.300000
275.786591	153.900000
275.879669	153.880000
275.972656	153.700000
276.065735	153.400000
276.158752	153.720000
276.251801	154.540000
276.344818	154.780000
276.437866	154.820000
276.530884	154.480000
276.623932	153.900000
276.716980	154.020000
276.809998	154.060000
276.903046	153.880000
276.996094	155.000000
277.089111	155.760000
277.182159	156.040000
277.275208	155.520000
277.368256	155.760000
277.461304	155.100000
277.554321	153.980000
277.647369	153.660000
277.740417	153.980000
277.833466	153.660000
277.926514	153.340000
278.019562	154.440000
278.112610	153.820000
278.205688	154.040000
278.298706	154.280000
278.391785	154.160000
278.484833	153.260000
278.577881	153.160000
278.670929	153.160000
278.763977	153.360000
278.857025	154.080000
278.950073	154.780000
279.043121	154.700000
279.136169	154.680000
279.229248	153.880000
279.322296	153.760000
279.415344	153.120000
279.508392	153.120000
279.601440	152.900000
279.694519	153.140000
279.787567	153.040000
279.880615	153.140000
279.973694	152.920000
280.066742	153.240000
280.159790	153.480000
280.252869	152.940000
280.345917	153.080000
280.438995	153.560000
280.532074	153.200000
280.625122	153.500000
280.718201	154.720000
280.811279	154.720000
280.904327	154.680000
280.997406	154.980000
281.090454	154.880000
281.183533	153.980000
281.276581	154.060000
281.369659	153.660000
281.462738	153.620000
281.555786	153.620000
281.648865	153.720000
281.741943	153.600000
281.835022	154.360000
281.928070	153.960000
282.021149	153.920000
282.114227	153.780000
282.207306	153.740000
282.300385	154.060000
282.393433	154.500000
282.486511	154.420000
282.579590	154.780000
282.672668	155.220000
282.765747	154.480000
282.858856	154.120000
282.951904	154.220000
283.045013	154.440000
283.138062	154.640000
283.231171	154.920000
283.324249	155.440000
283.417328	155.220000
283.510406	154.700000
283.603485	154.340000
283.696564	154.220000
283.789642	154.220000
283.882751	154.280000
283.975830	154.720000
284.068909	154.480000
284.161987	155.060000
284.255066	154.340000
284.348175	154.340000
284.441254	154.020000
284.534332	154.440000
284.627441	153.960000
284.720520	153.640000
284.813599	153.900000
284.906708	154.060000
284.999786	153.160000
285.092896	152.960000
285.185974	154.500000
285.279053	153.720000
285.372192	153.780000
285.465240	155.040000
285.558380	154.780000
285.651459	154.020000
285.744568	155.360000
285.837677	154.760000
285.930756	154.220000
286.023865	154.560000
286.116943	154.060000
286.210052	153.360000
286.303162	153.580000
286.396240	153.740000
286.489349	153.440000
286.582458	154.320000
286.675568	154.360000
286.768646	154.580000
286.861755	154.720000
286.954865	155.500000
287.047974	154.660000
287.141083	154.440000
287.234161	154.220000
287.327271	153.920000
287.420380	154.000000
287.513519	153.920000
287.606598	154.440000
287.699738	154.660000
287.792816	154.580000
287.885956	154.300000
287.979034	154.540000
288.072174	153.960000
288.165283	153.980000
288.258392	154.260000
288.351501	153.720000
288.444611	154.000000
288.537720	154.700000
288.630859	154.420000
288.723969	154.600000
288.817078	155.520000
288.910187	155.460000
289.003296	154.660000
289.096436	154.400000
289.189545	154.100000
289.282654	153.040000
289.375763	153.360000
289.468903	153.920000
289.562012	154.200000
289.655121	154.160000
289.748260	154.640000
289.841400	154.460000
289.934509	154.220000
290.027649	154.460000
290.120728	154.200000
290.213898	154.360000
290.306976	154.160000
290.400146	154.420000
290.493256	153.920000
290.586395	154.220000
290.679535	154.380000
290.772644	154.440000
290.865784	153.340000
290.958893	153.860000
291.052032	153.700000
291.145172	153.620000
291.238281	153.200000
291.331421	153.820000
291.424561	154.020000
291.517670	153.980000
291.610809	153.880000
291.703949	153.920000
291.797089	154.080000
291.890228	153.460000
291.983337	153.360000
292.076477	152.940000
292.169617	153.140000
292.262756	153.180000
292.355927	153.140000
292.449036	153.080000
292.542206	153.300000
292.635315	153.460000
292.728485	153.840000
292.821625	153.820000
292.914764	155.200000
293.007904	155.260000
293.101044	155.160000
293.194183	154.800000
293.287323	154.860000
293.380463	153.800000
293.473602	153.560000
293.566742	153.800000
293.659882	154.460000
293.753021	154.580000
293.846191	154.320000
293.939331	154.080000
294.032471	154.060000
294.125610	153.300000
294.218781	153.580000
294.311920	154.260000
294.405060	154.760000
294.498230	154.520000
294.591370	154.500000
294.684540	153.960000
294.777679	153.260000
294.870850	153.420000
294.963959	153.580000
295.057159	153.500000
295.150299	153.640000
295.243469	153.780000
295.336609	152.920000
295.429779	152.840000
295.522919	153.240000
295.616089	153.420000
295.709229	153.780000
295.802399	154.640000
295.895569	154.360000
295.988708	153.760000
296.081879	154.060000
296.175018	153.700000
296.268188	153.440000
296.361359	154.260000
296.454529	154.700000
296.547668	154.420000
296.640839	154.760000
296.734009	154.540000
296.827179	154.380000
296.920319	154.780000
297.013519	154.520000
297.106659	154.900000
297.199860	154.900000
297.292999	154.600000
297.386200	153.900000
297.479309	153.880000
297.572510	153.280000
297.665680	153.000000
297.758850	153.080000
297.852020	153.100000
297.945190	153.060000
298.038361	152.440000
298.131531	153.860000
298.224701	153.620000
298.317871	153.420000
298.411072	153.040000
298.504242	153.140000
298.597412	152.180000
298.690582	152.400000
298.783752	152.540000
298.876923	153.320000
298.970093	153.480000
299.063293	153.900000
299.156464	154.260000
299.249634	154.680000
299.342834	154.480000
299.436005	155.220000
299.529205	154.900000
299.622345	154.660000
299.715576	154.000000
299.808716	153.880000
299.901917	153.600000
299.995117	153.860000
300.088287	154.080000
300.181488	154.120000
300.274658	154.000000
300.367828	153.720000
300.461029	153.500000
300.554199	153.560000
300.647400	153.840000
300.740601	154.260000
300.833771	154.200000
300.926971	154.560000
301.020142	153.760000
301.113342	153.800000
301.206512	153.760000
301.299713	153.960000
301.392914	153.880000
301.486084	154.460000
301.579285	154.420000
301.672516	155.180000
301.765686	154.860000
301.858887	154.480000
301.952057	154.300000
302.045288	154.200000
302.138458	153.540000
302.231659	153.440000
302.324860	153.340000
302.418060	153.000000
302.511261	153.020000
302.604462	153.060000
302.697662	153.340000
302.790863	153.240000
302.884064	153.140000
302.977264	153.340000
303.070465	153.540000
303.163666	154.360000
303.256866	154.700000
303.350067	154.820000
303.443268	154.620000
303.536469	154.660000
303.629669	153.640000
303.722870	153.600000
303.816071	153.420000
303.909271	153.640000
304.002472	152.420000
304.095673	152.380000
304.188934	151.820000
304.282104	152.740000
304.375336	152.660000
304.468506	153.360000
304.561768	153.240000
304.654968	153.980000
304.748169	153.400000
304.841370	153.060000
304.934601	153.400000
305.027802	153.200000
305.121002	152.720000
305.214233	152.660000
305.307434	152.940000
305.400665	153.120000
305.493866	153.280000
