Model Number: SPM-002-B   
Serial Number: 70087108
Firmware Version: 004.15.4
Exposure Time: 100000.000000us
Data Taken on: 15-01-2021 16:41:39.274
Wavelength	Amplitude
221.570786	0.000000
221.663406	0.000000
221.756027	0.000000
221.848648	0.000000
221.941269	0.000000
222.033905	0.000000
222.126526	0.000000
222.219162	0.000000
222.311798	0.000000
222.404419	0.000000
222.497055	0.000000
222.589676	0.000000
222.682312	0.000000
222.774933	0.000000
222.867569	0.000000
222.960205	0.000000
223.052841	0.000000
223.145462	0.000000
223.238098	0.000000
223.330734	0.000000
223.423386	0.000000
223.516022	0.000000
223.608658	0.000000
223.701309	0.000000
223.793945	0.000000
223.886581	0.000000
223.979218	0.000000
224.071869	0.000000
224.164505	0.000000
224.257156	0.000000
224.349792	0.000000
224.442444	0.000000
224.535095	0.000000
224.627747	0.000000
224.720398	0.000000
224.813034	0.000000
224.905685	0.000000
224.998337	153.320000
225.090988	153.080000
225.183640	153.000000
225.276291	152.760000
225.368942	153.100000
225.461594	153.820000
225.554245	153.960000
225.646912	153.980000
225.739578	154.500000
225.832230	154.740000
225.924896	153.980000
226.017548	154.440000
226.110199	155.360000
226.202866	154.800000
226.295532	154.920000
226.388184	154.860000
226.480850	154.060000
226.573517	153.240000
226.666168	153.560000
226.758835	153.660000
226.851501	154.400000
226.944183	154.640000
227.036850	154.220000
227.129517	153.980000
227.222183	153.960000
227.314850	153.460000
227.407516	153.720000
227.500198	154.900000
227.592865	154.760000
227.685532	154.400000
227.778214	154.520000
227.870880	154.640000
227.963562	154.680000
228.056229	154.900000
228.148926	154.980000
228.241592	155.660000
228.334274	155.480000
228.426956	155.040000
228.519638	154.940000
228.612305	154.380000
228.704987	153.940000
228.797668	153.840000
228.890350	153.380000
228.983032	152.980000
229.075714	154.080000
229.168396	153.980000
229.261108	153.780000
229.353790	154.140000
229.446472	154.680000
229.539169	154.260000
229.631851	153.760000
229.724533	153.920000
229.817230	153.940000
229.909912	154.640000
230.002609	154.560000
230.095306	154.680000
230.187988	154.820000
230.280685	154.500000
230.373383	153.340000
230.466095	153.140000
230.558792	153.380000
230.651474	153.040000
230.744171	153.460000
230.836868	153.260000
230.929581	153.720000
231.022278	153.900000
231.114975	154.260000
231.207672	153.620000
231.300369	154.240000
231.393082	153.920000
231.485779	153.700000
231.578506	153.760000
231.671204	154.200000
231.763916	154.400000
231.856613	154.380000
231.949326	154.740000
232.042023	154.520000
232.134735	154.520000
232.227448	153.880000
232.320160	154.320000
232.412872	153.880000
232.505585	154.780000
232.598297	155.080000
232.691010	155.380000
232.783722	154.960000
232.876450	155.740000
232.969162	154.800000
233.061874	154.320000
233.154587	153.760000
233.247314	153.960000
233.340027	153.160000
233.432739	153.880000
233.525467	153.900000
233.618179	154.360000
233.710907	153.940000
233.803635	154.440000
233.896347	153.760000
233.989090	154.280000
234.081818	154.260000
234.174545	154.640000
234.267258	154.200000
234.359985	154.560000
234.452713	154.280000
234.545441	154.340000
234.638168	154.240000
234.730896	154.720000
234.823639	154.360000
234.916367	154.640000
235.009094	154.700000
235.101822	154.400000
235.194580	154.040000
235.287308	154.360000
235.380051	153.760000
235.472778	153.840000
235.565521	154.280000
235.658249	153.860000
235.750992	153.820000
235.843719	153.880000
235.936462	153.900000
236.029205	153.260000
236.121948	153.320000
236.214691	153.700000
236.307449	154.400000
236.400192	154.000000
236.492935	154.160000
236.585678	154.540000
236.678421	154.240000
236.771164	153.540000
236.863907	154.160000
236.956665	154.240000
237.049408	155.880000
237.142151	155.160000
237.234909	156.160000
237.327652	156.000000
237.420410	156.020000
237.513153	154.720000
237.605927	155.000000
237.698669	154.140000
237.791428	153.540000
237.884186	153.860000
237.976944	153.360000
238.069702	153.500000
238.162445	153.060000
238.255203	153.460000
238.347961	153.880000
238.440720	153.900000
238.533478	153.940000
238.626266	154.020000
238.719025	154.000000
238.811783	153.420000
238.904541	153.240000
238.997314	153.020000
239.090073	152.940000
239.182831	153.320000
239.275604	154.120000
239.368362	154.140000
239.461136	154.300000
239.553909	154.420000
239.646667	154.160000
239.739441	153.280000
239.832214	153.520000
239.925003	153.620000
240.017761	153.960000
240.110535	154.360000
240.203308	154.320000
240.296082	154.380000
240.388855	154.140000
240.481628	154.120000
240.574417	154.080000
240.667191	154.180000
240.759964	153.840000
240.852737	154.000000
240.945526	153.900000
241.038315	153.620000
241.131088	153.660000
241.223877	154.120000
241.316650	153.520000
241.409439	153.740000
241.502228	153.520000
241.595001	154.080000
241.687790	153.780000
241.780579	154.180000
241.873367	154.240000
241.966141	154.240000
242.058929	153.380000
242.151718	153.700000
242.244507	154.100000
242.337311	153.320000
242.430099	153.880000
242.522903	154.080000
242.615692	153.660000
242.708481	153.680000
242.801270	154.480000
242.894073	154.200000
242.986862	154.340000
243.079651	154.900000
243.172455	154.440000
243.265244	154.480000
243.358063	153.920000
243.450867	154.460000
243.543655	154.300000
243.636459	154.380000
243.729263	154.580000
243.822067	155.120000
243.914856	155.120000
244.007660	154.860000
244.100464	155.060000
244.193268	154.400000
244.286072	154.160000
244.378876	153.420000
244.471680	153.260000
244.564499	153.520000
244.657318	154.280000
244.750122	154.380000
244.842926	154.140000
244.935745	154.680000
245.028549	154.100000
245.121368	153.760000
245.214172	153.660000
245.306992	154.380000
245.399796	154.040000
245.492615	154.460000
245.585434	154.120000
245.678253	154.180000
245.771072	153.940000
245.863892	154.380000
245.956711	154.220000
246.049530	154.140000
246.142349	153.860000
246.235168	154.040000
246.327988	154.260000
246.420807	154.180000
246.513626	154.200000
246.606445	154.180000
246.699280	153.980000
246.792099	153.620000
246.884918	153.240000
246.977753	152.940000
247.070587	153.420000
247.163422	153.340000
247.256241	152.980000
247.349075	153.520000
247.441895	153.880000
247.534729	153.420000
247.627563	153.500000
247.720383	154.160000
247.813217	154.220000
247.906052	153.880000
247.998886	154.260000
248.091736	154.300000
248.184570	153.740000
248.277405	153.680000
248.370239	154.940000
248.463074	156.060000
248.555908	156.240000
248.648743	156.400000
248.741592	156.520000
248.834427	155.780000
248.927261	154.420000
249.020111	154.700000
249.112946	155.240000
249.205795	154.620000
249.298630	154.660000
249.391495	155.040000
249.484344	154.500000
249.577179	154.220000
249.670029	154.660000
249.762878	155.100000
249.855728	154.880000
249.948563	155.140000
250.041412	154.320000
250.134262	154.680000
250.227112	154.380000
250.319962	154.220000
250.412827	154.160000
250.505692	154.280000
250.598541	154.300000
250.691391	153.940000
250.784241	154.220000
250.877106	154.220000
250.969955	154.080000
251.062805	154.260000
251.155670	154.880000
251.248520	154.500000
251.341385	154.740000
251.434235	155.080000
251.527100	154.360000
251.619965	153.480000
251.712814	154.420000
251.805695	154.340000
251.898560	154.580000
251.991425	155.040000
252.084290	155.600000
252.177155	154.980000
252.270020	154.620000
252.362885	154.220000
252.455750	154.080000
252.548615	153.940000
252.641479	153.720000
252.734360	153.620000
252.827240	153.840000
252.920105	154.100000
253.012970	153.680000
253.105850	153.300000
253.198715	153.140000
253.291595	152.900000
253.384460	152.220000
253.477341	152.480000
253.570221	153.160000
253.663086	153.100000
253.755966	154.060000
253.848846	154.280000
253.941727	154.400000
254.034592	153.980000
254.127472	153.600000
254.220367	153.160000
254.313248	153.320000
254.406128	153.080000
254.499008	153.500000
254.591904	154.720000
254.684784	155.040000
254.777664	154.940000
254.870544	155.080000
254.963440	154.920000
255.056335	154.380000
255.149216	153.840000
255.242111	154.080000
255.334991	154.240000
255.427887	153.960000
255.520767	154.100000
255.613663	154.620000
255.706558	154.200000
255.799438	153.940000
255.892334	153.860000
255.985229	153.780000
256.078125	153.500000
256.171021	153.560000
256.263916	154.220000
256.356812	154.720000
256.449707	154.820000
256.542603	154.280000
256.635498	154.920000
256.728394	154.380000
256.821289	154.100000
256.914215	154.300000
257.007080	154.740000
257.100006	154.520000
257.192932	154.940000
257.285828	155.060000
257.378723	154.520000
257.471619	154.500000
257.564545	153.940000
257.657440	153.740000
257.750336	154.520000
257.843262	154.420000
257.936157	155.500000
258.029053	155.860000
258.121979	155.860000
258.214874	155.120000
258.307800	155.180000
258.400696	153.780000
258.493622	153.780000
258.586517	153.060000
258.679443	153.440000
258.772339	153.080000
258.865265	153.160000
258.958160	152.880000
259.051086	154.220000
259.144012	154.080000
259.236938	155.180000
259.329834	155.360000
259.422791	155.300000
259.515717	154.480000
259.608612	153.840000
259.701538	153.780000
259.794464	153.700000
259.887390	153.780000
259.980316	153.620000
260.073212	153.820000
260.166138	152.620000
260.259064	153.080000
260.351990	153.500000
260.444916	153.260000
260.537842	153.400000
260.630768	154.280000
260.723694	154.000000
260.816620	153.940000
260.909546	154.280000
261.002472	153.940000
261.095398	153.440000
261.188354	153.240000
261.281281	152.720000
261.374207	153.000000
261.467133	153.820000
261.560089	154.160000
261.653015	154.080000
261.745972	154.860000
261.838867	155.080000
261.931824	155.380000
262.024780	155.080000
262.117706	155.200000
262.210663	155.180000
262.303589	154.900000
262.396515	154.500000
262.489471	155.540000
262.582397	155.380000
262.675354	154.860000
262.768280	155.080000
262.861237	154.820000
262.954163	154.460000
263.047119	154.860000
263.140045	154.620000
263.233002	154.480000
263.325958	154.540000
263.418884	153.860000
263.511841	153.520000
263.604797	153.860000
263.697723	153.660000
263.790680	153.520000
263.883636	154.100000
263.976593	154.060000
264.069550	154.180000
264.162476	154.000000
264.255463	154.120000
264.348419	153.940000
264.441376	154.140000
264.534332	153.380000
264.627289	153.660000
264.720245	154.200000
264.813202	153.640000
264.906158	154.060000
264.999115	154.940000
265.092072	154.760000
265.185028	154.680000
265.277985	155.200000
265.370941	154.680000
265.463898	154.080000
265.556854	154.000000
265.649811	153.060000
265.742798	152.960000
265.835754	153.340000
265.928711	154.100000
266.021667	154.120000
266.114655	154.500000
266.207611	154.780000
266.300568	154.060000
266.393585	153.480000
266.486511	153.800000
266.579498	153.240000
266.672485	153.000000
266.765442	152.840000
266.858429	153.080000
266.951385	152.780000
267.044342	153.200000
267.137329	153.440000
267.230316	154.020000
267.323273	153.720000
267.416260	154.240000
267.509216	154.220000
267.602203	154.300000
267.695160	154.740000
267.788147	154.780000
267.881134	153.940000
267.974091	154.060000
268.067078	153.480000
268.160065	153.100000
268.253052	153.180000
268.346008	153.560000
268.438995	153.580000
268.531982	154.020000
268.624969	153.700000
268.717987	153.920000
268.810944	153.860000
268.903961	153.900000
268.996948	153.340000
269.089905	154.060000
269.182892	153.960000
269.275879	154.320000
269.368866	153.980000
269.461853	154.360000
269.554871	154.140000
269.647858	154.220000
269.740845	154.180000
269.833832	154.480000
269.926819	154.380000
270.019806	154.360000
270.112793	153.940000
270.205811	153.980000
270.298798	153.900000
270.391785	154.040000
270.484772	153.620000
270.577789	153.800000
270.670776	153.400000
270.763763	153.280000
270.856750	153.540000
270.949768	153.380000
271.042786	153.540000
271.135773	153.680000
271.228790	154.020000
271.321808	153.540000
271.414795	153.240000
271.507782	152.760000
271.600800	152.580000
271.693817	152.660000
271.786804	153.160000
271.879822	153.840000
271.972809	154.100000
272.065826	154.460000
272.158844	153.880000
272.251831	154.200000
272.344849	154.320000
272.437866	154.220000
272.530853	154.140000
272.623871	154.420000
272.716888	153.100000
272.809906	153.480000
272.902893	153.560000
272.995911	152.920000
273.088928	152.940000
273.181946	153.600000
273.274963	152.860000
273.367981	152.960000
273.460999	153.360000
273.554047	154.100000
273.647003	154.420000
273.740051	154.280000
273.833069	154.580000
273.926086	154.980000
274.019135	154.040000
274.112152	153.840000
274.205170	154.380000
274.298187	154.400000
274.391205	153.800000
274.484222	154.180000
274.577240	154.180000
274.670258	153.920000
274.763306	153.720000
274.856323	154.480000
274.949341	154.260000
275.042358	154.720000
275.135406	154.900000
275.228424	154.920000
275.321442	154.560000
275.414490	154.600000
275.507507	154.800000
275.600525	155.080000
275.693573	154.680000
275.786591	154.260000
275.879669	154.500000
275.972656	153.840000
276.065735	153.660000
276.158752	154.740000
276.251801	155.600000
276.344818	155.720000
276.437866	155.900000
276.530884	155.440000
276.623932	154.140000
276.716980	154.120000
276.809998	153.960000
276.903046	153.500000
276.996094	154.640000
277.089111	155.460000
277.182159	155.720000
277.275208	155.460000
277.368256	155.920000
277.461304	154.920000
277.554321	154.140000
277.647369	153.740000
277.740417	153.780000
277.833466	153.700000
277.926514	153.480000
278.019562	154.540000
278.112610	154.260000
278.205688	154.300000
278.298706	154.340000
278.391785	154.700000
278.484833	153.840000
278.577881	153.540000
278.670929	153.800000
278.763977	153.620000
278.857025	153.940000
278.950073	154.360000
279.043121	154.440000
279.136169	154.480000
279.229248	154.340000
279.322296	154.060000
279.415344	153.680000
279.508392	153.720000
279.601440	153.340000
279.694519	153.560000
279.787567	153.420000
279.880615	153.240000
279.973694	153.280000
280.066742	153.640000
280.159790	153.720000
280.252869	153.520000
280.345917	154.060000
280.438995	154.060000
280.532074	153.920000
280.625122	154.000000
280.718201	155.220000
280.811279	155.100000
280.904327	155.180000
280.997406	155.440000
281.090454	155.560000
281.183533	154.520000
281.276581	154.740000
281.369659	154.640000
281.462738	154.640000
281.555786	154.680000
281.648865	155.020000
281.741943	154.660000
281.835022	155.020000
281.928070	154.720000
282.021149	154.580000
282.114227	154.120000
282.207306	153.960000
282.300385	154.220000
282.393433	154.280000
282.486511	154.200000
282.579590	154.800000
282.672668	155.480000
282.765747	154.680000
282.858856	154.500000
282.951904	154.660000
283.045013	154.620000
283.138062	154.760000
283.231171	155.340000
283.324249	156.020000
283.417328	155.860000
283.510406	155.500000
283.603485	155.000000
283.696564	154.640000
283.789642	154.540000
283.882751	154.120000
283.975830	154.700000
284.068909	154.480000
284.161987	155.120000
284.255066	154.320000
284.348175	154.740000
284.441254	154.420000
284.534332	154.980000
284.627441	154.400000
284.720520	154.380000
284.813599	154.320000
284.906708	154.440000
284.999786	153.780000
285.092896	153.720000
285.185974	154.660000
285.279053	154.160000
285.372192	154.360000
285.465240	155.260000
285.558380	154.920000
285.651459	154.640000
285.744568	155.700000
285.837677	155.120000
285.930756	154.560000
286.023865	155.040000
286.116943	154.380000
286.210052	154.040000
286.303162	153.660000
286.396240	153.620000
286.489349	153.480000
286.582458	154.260000
286.675568	154.040000
286.768646	154.640000
286.861755	155.040000
286.954865	155.740000
287.047974	154.740000
287.141083	154.640000
287.234161	154.380000
287.327271	153.980000
287.420380	154.160000
287.513519	154.400000
287.606598	154.620000
287.699738	155.120000
287.792816	155.140000
287.885956	154.740000
287.979034	155.080000
288.072174	154.900000
288.165283	154.680000
288.258392	154.960000
288.351501	154.260000
288.444611	154.540000
288.537720	154.940000
288.630859	154.600000
288.723969	154.780000
288.817078	155.420000
288.910187	155.000000
289.003296	154.400000
289.096436	154.360000
289.189545	153.740000
289.282654	153.280000
289.375763	153.740000
289.468903	154.180000
289.562012	154.460000
289.655121	154.760000
289.748260	155.020000
289.841400	155.460000
289.934509	155.180000
290.027649	155.360000
290.120728	155.260000
290.213898	155.340000
290.306976	154.260000
290.400146	154.400000
290.493256	153.760000
290.586395	153.780000
290.679535	153.800000
290.772644	153.900000
290.865784	153.460000
290.958893	153.840000
291.052032	153.600000
291.145172	153.600000
291.238281	153.460000
291.331421	153.580000
291.424561	153.820000
291.517670	153.960000
291.610809	153.880000
291.703949	154.060000
291.797089	154.400000
291.890228	154.060000
291.983337	153.940000
292.076477	153.920000
292.169617	154.240000
292.262756	154.280000
292.355927	154.220000
292.449036	154.260000
292.542206	154.040000
292.635315	154.040000
292.728485	154.260000
292.821625	153.940000
292.914764	155.260000
293.007904	155.620000
293.101044	155.620000
293.194183	155.360000
293.287323	155.660000
293.380463	154.660000
293.473602	154.460000
293.566742	154.460000
293.659882	154.700000
293.753021	155.040000
293.846191	154.880000
293.939331	154.460000
294.032471	154.420000
294.125610	154.100000
294.218781	154.600000
294.311920	154.860000
294.405060	155.000000
294.498230	154.720000
294.591370	154.760000
294.684540	153.620000
294.777679	152.820000
294.870850	153.260000
294.963959	153.280000
295.057159	153.380000
295.150299	154.040000
295.243469	153.940000
295.336609	153.620000
295.429779	153.860000
295.522919	153.860000
295.616089	153.540000
295.709229	154.940000
295.802399	154.860000
295.895569	154.380000
295.988708	154.080000
296.081879	154.500000
296.175018	153.780000
296.268188	154.040000
296.361359	154.900000
296.454529	155.500000
296.547668	155.060000
296.640839	155.060000
296.734009	154.860000
296.827179	154.700000
296.920319	154.540000
297.013519	154.260000
297.106659	154.600000
297.199860	154.600000
297.292999	154.500000
297.386200	154.160000
297.479309	154.220000
297.572510	153.720000
297.665680	153.520000
297.758850	153.340000
297.852020	153.200000
297.945190	153.260000
298.038361	152.960000
298.131531	154.100000
298.224701	154.080000
298.317871	153.940000
298.411072	153.300000
298.504242	153.140000
298.597412	152.020000
298.690582	152.200000
298.783752	152.260000
298.876923	153.200000
298.970093	153.420000
299.063293	154.100000
299.156464	154.020000
299.249634	154.580000
299.342834	154.740000
299.436005	155.500000
299.529205	155.100000
299.622345	155.120000
299.715576	154.480000
299.808716	154.300000
299.901917	153.780000
299.995117	154.080000
300.088287	154.240000
300.181488	154.560000
300.274658	154.340000
300.367828	154.300000
300.461029	154.340000
300.554199	154.720000
300.647400	154.660000
300.740601	155.220000
300.833771	155.260000
300.926971	155.300000
301.020142	154.620000
301.113342	154.520000
301.206512	154.440000
301.299713	155.000000
301.392914	154.960000
301.486084	155.420000
301.579285	155.520000
301.672516	155.580000
301.765686	154.960000
301.858887	154.700000
301.952057	154.220000
302.045288	154.440000
302.138458	154.220000
302.231659	153.960000
302.324860	153.960000
302.418060	154.160000
302.511261	153.760000
302.604462	153.940000
302.697662	154.020000
302.790863	153.620000
302.884064	153.100000
302.977264	153.280000
303.070465	153.080000
303.163666	154.220000
303.256866	155.100000
303.350067	155.140000
303.443268	155.100000
303.536469	155.380000
303.629669	154.480000
303.722870	154.460000
303.816071	154.460000
303.909271	154.540000
304.002472	153.700000
304.095673	153.640000
304.188934	152.720000
304.282104	153.660000
304.375336	153.660000
304.468506	153.840000
304.561768	153.720000
304.654968	154.480000
304.748169	153.840000
304.841370	153.820000
304.934601	154.360000
305.027802	154.100000
305.121002	153.720000
305.214233	153.900000
305.307434	153.820000
305.400665	154.540000
305.493866	154.500000
