Model Number: SPM-002-B   
Serial Number: 70087108
Firmware Version: 004.15.4
Exposure Time: 100000.000000us
Data Taken on: 15-01-2021 16:41:43.790
Wavelength	Amplitude
221.570786	0.000000
221.663406	0.000000
221.756027	0.000000
221.848648	0.000000
221.941269	0.000000
222.033905	0.000000
222.126526	0.000000
222.219162	0.000000
222.311798	0.000000
222.404419	0.000000
222.497055	0.000000
222.589676	0.000000
222.682312	0.000000
222.774933	0.000000
222.867569	0.000000
222.960205	0.000000
223.052841	0.000000
223.145462	0.000000
223.238098	0.000000
223.330734	0.000000
223.423386	0.000000
223.516022	0.000000
223.608658	0.000000
223.701309	0.000000
223.793945	0.000000
223.886581	0.000000
223.979218	0.000000
224.071869	0.000000
224.164505	0.000000
224.257156	0.000000
224.349792	0.000000
224.442444	0.000000
224.535095	0.000000
224.627747	0.000000
224.720398	0.000000
224.813034	0.000000
224.905685	0.000000
224.998337	153.180000
225.090988	152.980000
225.183640	153.300000
225.276291	153.360000
225.368942	153.780000
225.461594	154.160000
225.554245	154.520000
225.646912	154.080000
225.739578	154.500000
225.832230	154.760000
225.924896	154.180000
226.017548	154.180000
226.110199	154.820000
226.202866	154.160000
226.295532	154.040000
226.388184	153.900000
226.480850	153.420000
226.573517	153.280000
226.666168	153.440000
226.758835	153.480000
226.851501	154.300000
226.944183	154.520000
227.036850	154.200000
227.129517	154.500000
227.222183	154.700000
227.314850	154.220000
227.407516	154.680000
227.500198	155.700000
227.592865	155.160000
227.685532	154.620000
227.778214	154.540000
227.870880	154.660000
227.963562	154.340000
228.056229	154.840000
228.148926	154.860000
228.241592	155.660000
228.334274	154.960000
228.426956	154.680000
228.519638	154.620000
228.612305	154.420000
228.704987	154.060000
228.797668	154.280000
228.890350	153.920000
228.983032	153.100000
229.075714	153.740000
229.168396	153.400000
229.261108	152.840000
229.353790	152.840000
229.446472	153.460000
229.539169	153.280000
229.631851	153.160000
229.724533	153.620000
229.817230	153.960000
229.909912	155.020000
230.002609	155.040000
230.095306	154.960000
230.187988	155.100000
230.280685	154.800000
230.373383	153.440000
230.466095	153.120000
230.558792	153.340000
230.651474	153.180000
230.744171	153.400000
230.836868	153.420000
230.929581	153.820000
231.022278	154.000000
231.114975	154.260000
231.207672	153.760000
231.300369	154.300000
231.393082	154.480000
231.485779	154.180000
231.578506	153.840000
231.671204	154.100000
231.763916	153.900000
231.856613	153.460000
231.949326	153.780000
232.042023	153.520000
232.134735	153.660000
232.227448	153.300000
232.320160	153.680000
232.412872	153.540000
232.505585	154.580000
232.598297	154.680000
232.691010	154.820000
232.783722	154.340000
232.876450	154.900000
232.969162	154.160000
233.061874	153.540000
233.154587	153.220000
233.247314	153.440000
233.340027	152.600000
233.432739	153.280000
233.525467	153.420000
233.618179	153.900000
233.710907	153.560000
233.803635	154.240000
233.896347	153.720000
233.989090	154.740000
234.081818	155.060000
234.174545	155.280000
234.267258	154.500000
234.359985	154.900000
234.452713	154.220000
234.545441	153.820000
234.638168	153.840000
234.730896	154.680000
234.823639	154.060000
234.916367	154.360000
235.009094	154.700000
235.101822	154.500000
235.194580	154.100000
235.287308	154.500000
235.380051	153.960000
235.472778	153.920000
235.565521	154.460000
235.658249	154.100000
235.750992	153.880000
235.843719	154.000000
235.936462	153.960000
236.029205	153.440000
236.121948	153.220000
236.214691	153.460000
236.307449	154.280000
236.400192	153.880000
236.492935	153.680000
236.585678	154.240000
236.678421	154.140000
236.771164	153.440000
236.863907	154.180000
236.956665	154.560000
237.049408	156.420000
237.142151	155.840000
237.234909	156.640000
237.327652	156.360000
237.420410	156.300000
237.513153	154.640000
237.605927	155.000000
237.698669	154.120000
237.791428	153.460000
237.884186	153.940000
237.976944	153.400000
238.069702	153.640000
238.162445	153.360000
238.255203	153.660000
238.347961	153.700000
238.440720	153.840000
238.533478	153.780000
238.626266	154.020000
238.719025	154.240000
238.811783	154.080000
238.904541	154.120000
238.997314	153.580000
239.090073	153.300000
239.182831	153.400000
239.275604	153.940000
239.368362	153.720000
239.461136	154.220000
239.553909	154.480000
239.646667	154.160000
239.739441	153.660000
239.832214	154.240000
239.925003	154.000000
240.017761	154.140000
240.110535	154.860000
240.203308	154.600000
240.296082	154.480000
240.388855	154.500000
240.481628	154.880000
240.574417	154.700000
240.667191	154.700000
240.759964	154.140000
240.852737	154.260000
240.945526	153.700000
241.038315	153.300000
241.131088	153.160000
241.223877	153.840000
241.316650	153.540000
241.409439	153.940000
241.502228	153.680000
241.595001	154.340000
241.687790	153.920000
241.780579	154.380000
241.873367	154.420000
241.966141	154.880000
242.058929	154.120000
242.151718	154.500000
242.244507	154.740000
242.337311	153.940000
242.430099	154.440000
242.522903	154.900000
242.615692	154.340000
242.708481	154.020000
242.801270	154.580000
242.894073	154.060000
242.986862	154.040000
243.079651	154.560000
243.172455	154.240000
243.265244	154.540000
243.358063	154.160000
243.450867	154.460000
243.543655	154.480000
243.636459	154.860000
243.729263	154.940000
243.822067	155.560000
243.914856	155.620000
244.007660	155.580000
244.100464	155.460000
244.193268	154.880000
244.286072	154.320000
244.378876	153.820000
244.471680	153.680000
244.564499	154.220000
244.657318	155.100000
244.750122	155.560000
244.842926	155.180000
244.935745	155.520000
245.028549	154.820000
245.121368	154.040000
245.214172	153.580000
245.306992	154.000000
245.399796	153.500000
245.492615	153.740000
245.585434	153.520000
245.678253	154.080000
245.771072	154.000000
245.863892	154.600000
245.956711	154.560000
246.049530	154.800000
246.142349	154.220000
246.235168	154.020000
246.327988	154.160000
246.420807	154.140000
246.513626	154.140000
246.606445	154.120000
246.699280	154.560000
246.792099	154.180000
246.884918	153.940000
246.977753	153.680000
247.070587	153.940000
247.163422	153.540000
247.256241	153.300000
247.349075	153.500000
247.441895	153.620000
247.534729	153.280000
247.627563	153.320000
247.720383	154.020000
247.813217	153.860000
247.906052	153.620000
247.998886	154.240000
248.091736	154.240000
248.184570	153.720000
248.277405	153.960000
248.370239	155.120000
248.463074	155.320000
248.555908	155.760000
248.648743	155.920000
248.741592	156.000000
248.834427	155.000000
248.927261	154.080000
249.020111	154.240000
249.112946	154.560000
249.205795	153.920000
249.298630	154.300000
249.391495	154.400000
249.484344	153.820000
249.577179	153.600000
249.670029	154.400000
249.762878	154.760000
249.855728	154.980000
249.948563	155.200000
250.041412	154.480000
250.134262	154.300000
250.227112	154.500000
250.319962	154.620000
250.412827	154.580000
250.505692	154.520000
250.598541	154.660000
250.691391	153.700000
250.784241	153.700000
250.877106	153.580000
250.969955	153.580000
251.062805	153.880000
251.155670	154.680000
251.248520	154.440000
251.341385	154.820000
251.434235	154.880000
251.527100	154.200000
251.619965	153.840000
251.712814	154.600000
251.805695	154.500000
251.898560	154.680000
251.991425	155.000000
252.084290	154.840000
252.177155	154.040000
252.270020	153.720000
252.362885	153.600000
252.455750	153.820000
252.548615	154.040000
252.641479	154.040000
252.734360	154.420000
252.827240	154.640000
252.920105	154.420000
253.012970	153.980000
253.105850	154.100000
253.198715	153.560000
253.291595	153.380000
253.384460	152.680000
253.477341	152.600000
253.570221	152.800000
253.663086	152.520000
253.755966	153.400000
253.848846	153.820000
253.941727	153.900000
254.034592	153.760000
254.127472	153.540000
254.220367	153.360000
254.313248	153.540000
254.406128	153.200000
254.499008	153.500000
254.591904	154.480000
254.684784	154.760000
254.777664	154.600000
254.870544	154.860000
254.963440	154.540000
255.056335	154.540000
255.149216	153.960000
255.242111	154.560000
255.334991	155.100000
255.427887	155.200000
255.520767	155.140000
255.613663	155.380000
255.706558	154.560000
255.799438	153.900000
255.892334	153.700000
255.985229	153.460000
256.078125	153.060000
256.171021	153.220000
256.263916	153.940000
256.356812	154.040000
256.449707	154.140000
256.542603	153.760000
256.635498	154.260000
256.728394	154.020000
256.821289	153.740000
256.914215	154.020000
257.007080	154.620000
257.100006	154.720000
257.192932	155.040000
257.285828	155.440000
257.378723	155.080000
257.471619	154.820000
257.564545	154.220000
257.657440	154.160000
257.750336	154.600000
257.843262	154.160000
257.936157	155.420000
258.029053	155.860000
258.121979	155.900000
258.214874	155.340000
258.307800	155.700000
258.400696	154.180000
258.493622	153.820000
258.586517	152.740000
258.679443	152.840000
258.772339	152.200000
258.865265	152.400000
258.958160	152.020000
259.051086	153.240000
259.144012	153.300000
259.236938	154.540000
259.329834	154.380000
259.422791	154.620000
259.515717	154.040000
259.608612	153.700000
259.701538	153.500000
259.794464	153.540000
259.887390	153.700000
259.980316	153.620000
260.073212	153.660000
260.166138	152.660000
260.259064	153.160000
260.351990	153.720000
260.444916	153.820000
260.537842	154.200000
260.630768	155.160000
260.723694	154.800000
260.816620	154.260000
260.909546	154.060000
261.002472	153.580000
261.095398	152.820000
261.188354	152.640000
261.281281	152.140000
261.374207	152.240000
261.467133	153.220000
261.560089	153.420000
261.653015	153.400000
261.745972	154.600000
261.838867	155.180000
261.931824	155.080000
262.024780	154.740000
262.117706	155.280000
262.210663	154.720000
262.303589	154.220000
262.396515	153.880000
262.489471	155.080000
262.582397	154.980000
262.675354	154.740000
262.768280	155.060000
262.861237	155.080000
262.954163	154.760000
263.047119	155.120000
263.140045	154.760000
263.233002	154.520000
263.325958	154.300000
263.418884	153.640000
263.511841	152.960000
263.604797	153.240000
263.697723	153.240000
263.790680	153.140000
263.883636	153.760000
263.976593	153.900000
264.069550	154.100000
264.162476	153.640000
264.255463	153.660000
264.348419	153.620000
264.441376	153.880000
264.534332	153.360000
264.627289	153.940000
264.720245	154.680000
264.813202	154.180000
264.906158	154.280000
264.999115	155.100000
265.092072	155.080000
265.185028	155.100000
265.277985	155.360000
265.370941	155.280000
265.463898	154.800000
265.556854	154.420000
265.649811	153.420000
265.742798	153.480000
265.835754	153.220000
265.928711	153.760000
266.021667	154.100000
266.114655	154.720000
266.207611	154.700000
266.300568	154.620000
266.393585	154.000000
266.486511	154.080000
266.579498	153.240000
266.672485	153.400000
266.765442	153.400000
266.858429	154.060000
266.951385	153.840000
267.044342	154.120000
267.137329	154.020000
267.230316	154.260000
267.323273	153.720000
267.416260	154.300000
267.509216	154.500000
267.602203	154.260000
267.695160	154.500000
267.788147	154.440000
267.881134	153.820000
267.974091	154.080000
268.067078	154.040000
268.160065	153.620000
268.253052	153.940000
268.346008	154.040000
268.438995	153.640000
268.531982	153.900000
268.624969	153.760000
268.717987	153.720000
268.810944	153.580000
268.903961	153.820000
268.996948	153.380000
269.089905	153.880000
269.182892	153.940000
269.275879	154.160000
269.368866	153.340000
269.461853	153.780000
269.554871	153.540000
269.647858	153.420000
269.740845	153.600000
269.833832	154.260000
269.926819	153.960000
270.019806	154.120000
270.112793	153.760000
270.205811	153.660000
270.298798	154.060000
270.391785	154.380000
270.484772	153.980000
270.577789	154.480000
270.670776	154.000000
270.763763	153.480000
270.856750	153.500000
270.949768	153.400000
271.042786	153.280000
271.135773	153.540000
271.228790	153.880000
271.321808	153.360000
271.414795	153.300000
271.507782	152.960000
271.600800	152.580000
271.693817	152.860000
271.786804	153.320000
271.879822	153.740000
271.972809	153.660000
272.065826	154.620000
272.158844	153.600000
272.251831	154.140000
272.344849	153.780000
272.437866	153.440000
272.530853	153.280000
272.623871	153.840000
272.716888	152.600000
272.809906	153.200000
272.902893	153.820000
272.995911	152.880000
273.088928	152.780000
273.181946	153.460000
273.274963	152.880000
273.367981	153.060000
273.460999	153.820000
273.554047	154.300000
273.647003	154.720000
273.740051	154.940000
273.833069	155.120000
273.926086	155.280000
274.019135	154.680000
274.112152	154.440000
274.205170	154.520000
274.298187	154.700000
274.391205	154.280000
274.484222	154.600000
274.577240	154.280000
274.670258	154.080000
274.763306	153.740000
274.856323	154.040000
274.949341	154.280000
275.042358	154.680000
275.135406	154.540000
275.228424	154.180000
275.321442	154.020000
275.414490	153.420000
275.507507	153.560000
275.600525	154.020000
275.693573	153.620000
275.786591	153.140000
275.879669	153.440000
275.972656	153.100000
276.065735	152.960000
276.158752	153.880000
276.251801	154.520000
276.344818	154.860000
276.437866	154.860000
276.530884	154.460000
276.623932	153.320000
276.716980	153.620000
276.809998	153.380000
276.903046	153.600000
276.996094	154.600000
277.089111	155.640000
277.182159	155.740000
277.275208	155.580000
277.368256	155.500000
277.461304	155.000000
277.554321	154.240000
277.647369	154.200000
277.740417	154.220000
277.833466	154.100000
277.926514	153.600000
278.019562	154.540000
278.112610	153.600000
278.205688	153.680000
278.298706	153.740000
278.391785	153.980000
278.484833	153.400000
278.577881	153.520000
278.670929	153.780000
278.763977	153.600000
278.857025	153.880000
278.950073	153.800000
279.043121	153.940000
279.136169	153.940000
279.229248	154.020000
279.322296	154.040000
279.415344	154.040000
279.508392	153.880000
279.601440	153.560000
279.694519	153.040000
279.787567	153.000000
279.880615	152.880000
279.973694	152.860000
280.066742	153.000000
280.159790	153.400000
280.252869	152.880000
280.345917	153.220000
280.438995	153.260000
280.532074	153.120000
280.625122	153.440000
280.718201	154.880000
280.811279	154.660000
280.904327	154.660000
280.997406	154.740000
281.090454	154.600000
281.183533	153.340000
281.276581	153.480000
281.369659	153.260000
281.462738	153.260000
281.555786	153.500000
281.648865	153.760000
281.741943	153.760000
281.835022	154.460000
281.928070	154.260000
282.021149	153.860000
282.114227	153.820000
282.207306	153.500000
282.300385	153.680000
282.393433	154.000000
282.486511	154.240000
282.579590	154.820000
282.672668	155.500000
282.765747	154.740000
282.858856	154.360000
282.951904	154.500000
283.045013	154.300000
283.138062	154.320000
283.231171	154.720000
283.324249	155.340000
283.417328	155.240000
283.510406	154.820000
283.603485	154.520000
283.696564	154.840000
283.789642	154.380000
283.882751	153.960000
283.975830	154.500000
284.068909	154.000000
284.161987	154.120000
284.255066	153.700000
284.348175	154.260000
284.441254	153.980000
284.534332	154.740000
284.627441	154.240000
284.720520	154.260000
284.813599	153.980000
284.906708	153.840000
284.999786	153.200000
285.092896	152.800000
285.185974	154.020000
285.279053	153.500000
285.372192	153.760000
285.465240	154.660000
285.558380	154.920000
285.651459	154.260000
285.744568	155.140000
285.837677	154.680000
285.930756	154.320000
286.023865	154.400000
286.116943	153.660000
286.210052	153.660000
286.303162	153.700000
286.396240	153.400000
286.489349	153.120000
286.582458	154.080000
286.675568	153.740000
286.768646	153.840000
286.861755	154.420000
286.954865	155.400000
287.047974	154.640000
287.141083	154.460000
287.234161	154.340000
287.327271	154.080000
287.420380	154.080000
287.513519	154.180000
287.606598	154.340000
287.699738	154.600000
287.792816	154.600000
287.885956	154.220000
287.979034	154.320000
288.072174	154.400000
288.165283	154.160000
288.258392	154.260000
288.351501	153.440000
288.444611	153.740000
288.537720	154.260000
288.630859	154.300000
288.723969	154.380000
288.817078	155.340000
288.910187	155.120000
289.003296	154.320000
289.096436	153.940000
289.189545	153.580000
289.282654	153.180000
289.375763	153.780000
289.468903	154.160000
289.562012	154.540000
289.655121	154.620000
289.748260	154.780000
289.841400	154.960000
289.934509	154.800000
290.027649	155.020000
290.120728	155.080000
290.213898	155.080000
290.306976	154.620000
290.400146	154.900000
290.493256	154.340000
290.586395	154.380000
290.679535	154.380000
290.772644	154.080000
290.865784	153.220000
290.958893	153.580000
291.052032	153.580000
291.145172	153.560000
291.238281	153.600000
291.331421	153.980000
291.424561	154.400000
291.517670	154.040000
291.610809	154.220000
291.703949	153.840000
291.797089	154.240000
291.890228	153.660000
291.983337	153.620000
292.076477	153.240000
292.169617	153.980000
292.262756	153.680000
292.355927	153.420000
292.449036	153.600000
292.542206	153.720000
292.635315	153.760000
292.728485	154.360000
292.821625	154.240000
292.914764	155.240000
293.007904	155.420000
293.101044	155.400000
293.194183	155.020000
293.287323	155.320000
293.380463	154.520000
293.473602	154.180000
293.566742	154.100000
293.659882	154.280000
293.753021	154.640000
293.846191	154.300000
293.939331	154.240000
294.032471	154.140000
294.125610	153.740000
294.218781	153.980000
294.311920	154.760000
294.405060	155.000000
294.498230	154.880000
294.591370	155.320000
294.684540	154.280000
294.777679	153.380000
294.870850	153.640000
294.963959	153.640000
295.057159	153.300000
295.150299	154.080000
295.243469	154.320000
295.336609	153.800000
295.429779	153.920000
295.522919	154.200000
295.616089	153.940000
295.709229	154.620000
295.802399	154.820000
295.895569	154.280000
295.988708	154.100000
296.081879	154.280000
296.175018	153.640000
296.268188	153.740000
296.361359	154.560000
296.454529	154.680000
296.547668	154.620000
296.640839	154.740000
296.734009	154.680000
296.827179	154.720000
296.920319	154.900000
297.013519	154.680000
297.106659	155.100000
297.199860	154.600000
297.292999	153.920000
297.386200	153.580000
297.479309	153.540000
297.572510	153.180000
297.665680	153.020000
297.758850	153.320000
297.852020	153.460000
297.945190	153.320000
298.038361	153.060000
298.131531	154.520000
298.224701	154.260000
298.317871	153.740000
298.411072	153.580000
298.504242	153.620000
298.597412	152.800000
298.690582	153.000000
298.783752	153.340000
298.876923	154.020000
298.970093	154.000000
299.063293	154.580000
299.156464	155.020000
299.249634	155.280000
299.342834	155.380000
299.436005	155.760000
299.529205	155.060000
299.622345	154.780000
299.715576	153.860000
299.808716	153.580000
299.901917	153.540000
299.995117	153.640000
300.088287	153.900000
300.181488	154.180000
300.274658	153.720000
300.367828	153.280000
300.461029	153.420000
300.554199	153.160000
300.647400	153.360000
300.740601	154.480000
300.833771	154.600000
300.926971	154.920000
301.020142	154.760000
301.113342	154.440000
301.206512	153.920000
301.299713	154.080000
301.392914	153.700000
301.486084	153.960000
301.579285	154.180000
301.672516	154.500000
301.765686	154.560000
301.858887	154.740000
301.952057	154.580000
302.045288	154.500000
302.138458	154.080000
302.231659	153.720000
302.324860	153.400000
302.418060	153.340000
302.511261	153.480000
302.604462	154.000000
302.697662	154.000000
302.790863	154.040000
302.884064	153.880000
302.977264	153.980000
303.070465	153.900000
303.163666	154.800000
303.256866	155.320000
303.350067	155.440000
303.443268	155.540000
303.536469	155.400000
303.629669	154.720000
303.722870	154.580000
303.816071	154.380000
303.909271	154.360000
304.002472	153.560000
304.095673	153.360000
304.188934	152.660000
304.282104	153.620000
304.375336	153.500000
304.468506	153.800000
304.561768	153.700000
304.654968	154.300000
304.748169	153.760000
304.841370	153.520000
304.934601	154.060000
305.027802	153.820000
305.121002	153.300000
305.214233	153.060000
305.307434	153.280000
305.400665	153.700000
305.493866	153.860000
