Model Number: SPM-002-B   
Serial Number: 70087108
Firmware Version: 004.15.4
Exposure Time: 100000.000000us
Data Taken on: 15-01-2021 17:47:18.470
Wavelength	Amplitude
221.570786	0.000000
221.663406	0.000000
221.756027	0.000000
221.848648	0.000000
221.941269	0.000000
222.033905	0.000000
222.126526	0.000000
222.219162	0.000000
222.311798	0.000000
222.404419	0.000000
222.497055	0.000000
222.589676	0.000000
222.682312	0.000000
222.774933	0.000000
222.867569	0.000000
222.960205	0.000000
223.052841	0.000000
223.145462	0.000000
223.238098	0.000000
223.330734	0.000000
223.423386	0.000000
223.516022	0.000000
223.608658	0.000000
223.701309	0.000000
223.793945	0.000000
223.886581	0.000000
223.979218	0.000000
224.071869	0.000000
224.164505	0.000000
224.257156	0.000000
224.349792	0.000000
224.442444	0.000000
224.535095	0.000000
224.627747	0.000000
224.720398	0.000000
224.813034	0.000000
224.905685	0.000000
224.998337	154.260000
225.090988	153.820000
225.183640	153.780000
225.276291	153.500000
225.368942	153.840000
225.461594	154.440000
225.554245	154.640000
225.646912	154.900000
225.739578	155.400000
225.832230	155.980000
225.924896	155.260000
226.017548	155.620000
226.110199	156.000000
226.202866	155.160000
226.295532	154.720000
226.388184	154.500000
226.480850	153.860000
226.573517	153.320000
226.666168	153.720000
226.758835	153.920000
226.851501	154.500000
226.944183	154.700000
227.036850	154.440000
227.129517	154.100000
227.222183	154.260000
227.314850	154.300000
227.407516	154.900000
227.500198	155.640000
227.592865	155.640000
227.685532	155.080000
227.778214	154.800000
227.870880	154.720000
227.963562	154.860000
228.056229	155.500000
228.148926	155.360000
228.241592	156.220000
228.334274	155.560000
228.426956	155.240000
228.519638	154.960000
228.612305	154.820000
228.704987	154.220000
228.797668	154.520000
228.890350	154.200000
228.983032	153.520000
229.075714	154.340000
229.168396	154.180000
229.261108	153.700000
229.353790	154.040000
229.446472	154.660000
229.539169	154.340000
229.631851	153.780000
229.724533	154.000000
229.817230	154.000000
229.909912	154.880000
230.002609	154.780000
230.095306	155.180000
230.187988	155.460000
230.280685	155.220000
230.373383	153.660000
230.466095	153.580000
230.558792	153.980000
230.651474	153.760000
230.744171	154.020000
230.836868	154.420000
230.929581	154.880000
231.022278	154.760000
231.114975	155.160000
231.207672	154.820000
231.300369	155.260000
231.393082	155.560000
231.485779	155.120000
231.578506	154.840000
231.671204	155.120000
231.763916	154.840000
231.856613	154.240000
231.949326	154.580000
232.042023	154.320000
232.134735	154.080000
232.227448	153.960000
232.320160	154.460000
232.412872	154.520000
232.505585	155.440000
232.598297	155.760000
232.691010	155.580000
232.783722	154.920000
232.876450	155.480000
232.969162	154.720000
233.061874	154.240000
233.154587	154.380000
233.247314	154.640000
233.340027	153.880000
233.432739	154.440000
233.525467	154.640000
233.618179	155.180000
233.710907	154.660000
233.803635	154.980000
233.896347	154.400000
233.989090	155.000000
234.081818	154.680000
234.174545	155.540000
234.267258	155.260000
234.359985	155.700000
234.452713	155.420000
234.545441	155.280000
234.638168	154.780000
234.730896	155.400000
234.823639	155.280000
234.916367	155.640000
235.009094	155.820000
235.101822	155.840000
235.194580	155.380000
235.287308	155.100000
235.380051	154.580000
235.472778	154.500000
235.565521	154.700000
235.658249	154.300000
235.750992	154.440000
235.843719	154.020000
235.936462	154.400000
236.029205	153.940000
236.121948	154.040000
236.214691	154.180000
236.307449	155.020000
236.400192	154.340000
236.492935	154.320000
236.585678	154.420000
236.678421	154.520000
236.771164	154.160000
236.863907	154.880000
236.956665	155.360000
237.049408	157.080000
237.142151	156.480000
237.234909	157.320000
237.327652	157.040000
237.420410	156.820000
237.513153	155.600000
237.605927	155.760000
237.698669	154.960000
237.791428	154.460000
237.884186	154.860000
237.976944	154.400000
238.069702	154.460000
238.162445	153.940000
238.255203	154.180000
238.347961	154.240000
238.440720	154.340000
238.533478	154.360000
238.626266	154.140000
238.719025	154.240000
238.811783	153.780000
238.904541	153.660000
238.997314	153.620000
239.090073	153.580000
239.182831	153.940000
239.275604	155.160000
239.368362	154.780000
239.461136	155.100000
239.553909	155.460000
239.646667	155.080000
239.739441	154.140000
239.832214	154.640000
239.925003	154.580000
240.017761	155.140000
240.110535	155.620000
240.203308	155.280000
240.296082	155.380000
240.388855	155.340000
240.481628	155.400000
240.574417	155.340000
240.667191	155.420000
240.759964	155.060000
240.852737	154.860000
240.945526	154.100000
241.038315	153.900000
241.131088	154.140000
241.223877	154.520000
241.316650	154.040000
241.409439	154.500000
241.502228	153.820000
241.595001	154.000000
241.687790	153.760000
241.780579	154.120000
241.873367	154.280000
241.966141	154.960000
242.058929	154.340000
242.151718	154.680000
242.244507	155.340000
242.337311	154.480000
242.430099	155.080000
242.522903	155.800000
242.615692	155.320000
242.708481	155.100000
242.801270	155.960000
242.894073	155.580000
242.986862	155.240000
243.079651	155.980000
243.172455	155.720000
243.265244	155.680000
243.358063	154.860000
243.450867	155.220000
243.543655	154.980000
243.636459	154.860000
243.729263	155.120000
243.822067	155.520000
243.914856	155.600000
244.007660	155.600000
244.100464	155.520000
244.193268	154.900000
244.286072	154.940000
244.378876	154.560000
244.471680	154.080000
244.564499	154.700000
244.657318	155.420000
244.750122	155.740000
244.842926	155.200000
244.935745	155.780000
245.028549	155.220000
245.121368	154.740000
245.214172	154.440000
245.306992	155.280000
245.399796	154.800000
245.492615	155.240000
245.585434	155.160000
245.678253	155.360000
245.771072	154.880000
245.863892	155.400000
245.956711	155.140000
246.049530	155.120000
246.142349	155.000000
246.235168	155.180000
246.327988	155.500000
246.420807	155.520000
246.513626	155.560000
246.606445	155.300000
246.699280	155.260000
246.792099	154.960000
246.884918	154.740000
246.977753	154.400000
247.070587	154.820000
247.163422	154.340000
247.256241	154.280000
247.349075	154.740000
247.441895	155.100000
247.534729	154.800000
247.627563	155.120000
247.720383	155.820000
247.813217	155.500000
247.906052	155.260000
247.998886	155.140000
248.091736	155.160000
248.184570	154.540000
248.277405	154.340000
248.370239	155.300000
248.463074	156.500000
248.555908	156.780000
248.648743	156.500000
248.741592	156.740000
248.834427	155.920000
248.927261	154.420000
249.020111	154.540000
249.112946	155.200000
249.205795	154.820000
249.298630	154.820000
249.391495	155.200000
249.484344	154.940000
249.577179	154.760000
249.670029	155.260000
249.762878	156.020000
249.855728	156.200000
249.948563	156.160000
250.041412	155.440000
250.134262	155.620000
250.227112	155.300000
250.319962	155.260000
250.412827	155.400000
250.505692	155.300000
250.598541	155.200000
250.691391	154.880000
250.784241	154.900000
250.877106	154.880000
250.969955	154.780000
251.062805	155.040000
251.155670	155.500000
251.248520	155.420000
251.341385	155.620000
251.434235	155.740000
251.527100	155.360000
251.619965	155.000000
251.712814	155.820000
251.805695	155.480000
251.898560	155.560000
251.991425	155.740000
252.084290	155.800000
252.177155	154.460000
252.270020	154.360000
252.362885	154.320000
252.455750	154.500000
252.548615	154.220000
252.641479	154.500000
252.734360	154.760000
252.827240	154.720000
252.920105	154.720000
253.012970	154.640000
253.105850	154.700000
253.198715	154.380000
253.291595	154.580000
253.384460	153.960000
253.477341	154.200000
253.570221	154.540000
253.663086	154.200000
253.755966	155.020000
253.848846	155.340000
253.941727	155.220000
254.034592	154.780000
254.127472	154.480000
254.220367	154.060000
254.313248	153.760000
254.406128	153.300000
254.499008	153.880000
254.591904	155.140000
254.684784	155.440000
254.777664	155.800000
254.870544	155.980000
254.963440	155.640000
255.056335	155.160000
255.149216	154.640000
255.242111	154.860000
255.334991	155.000000
255.427887	155.240000
255.520767	155.220000
255.613663	155.300000
255.706558	154.840000
255.799438	154.500000
255.892334	154.160000
255.985229	154.320000
256.078125	154.200000
256.171021	154.380000
256.263916	155.200000
256.356812	155.520000
256.449707	155.620000
256.542603	155.220000
256.635498	155.760000
256.728394	155.500000
256.821289	155.280000
256.914215	155.600000
257.007080	156.340000
257.100006	155.820000
257.192932	155.980000
257.285828	156.160000
257.378723	155.560000
257.471619	155.200000
257.564545	154.900000
257.657440	155.120000
257.750336	155.940000
257.843262	155.780000
257.936157	156.920000
258.029053	157.500000
258.121979	157.380000
258.214874	156.460000
258.307800	156.400000
258.400696	155.040000
258.493622	154.780000
258.586517	153.800000
258.679443	154.120000
258.772339	153.840000
258.865265	153.820000
258.958160	153.380000
259.051086	154.520000
259.144012	154.220000
259.236938	155.060000
259.329834	154.880000
259.422791	154.580000
259.515717	153.820000
259.608612	153.560000
259.701538	153.560000
259.794464	153.800000
259.887390	154.060000
259.980316	154.100000
260.073212	154.120000
260.166138	153.080000
260.259064	153.420000
260.351990	154.000000
260.444916	154.140000
260.537842	154.560000
260.630768	155.560000
260.723694	155.520000
260.816620	155.620000
260.909546	155.520000
261.002472	155.020000
261.095398	154.600000
261.188354	154.380000
261.281281	153.660000
261.374207	153.980000
261.467133	154.900000
261.560089	154.960000
261.653015	154.800000
261.745972	155.740000
261.838867	155.800000
261.931824	155.600000
262.024780	155.520000
262.117706	155.660000
262.210663	155.360000
262.303589	155.440000
262.396515	155.460000
262.489471	156.120000
262.582397	156.040000
262.675354	155.600000
262.768280	155.520000
262.861237	155.400000
262.954163	154.980000
263.047119	155.320000
263.140045	155.160000
263.233002	155.060000
263.325958	154.940000
263.418884	154.580000
263.511841	154.440000
263.604797	154.640000
263.697723	154.520000
263.790680	154.600000
263.883636	155.440000
263.976593	155.260000
264.069550	155.660000
264.162476	155.120000
264.255463	155.000000
264.348419	154.340000
264.441376	154.520000
264.534332	153.500000
264.627289	154.160000
264.720245	154.680000
264.813202	154.140000
264.906158	154.440000
264.999115	155.220000
265.092072	155.060000
265.185028	155.160000
265.277985	155.640000
265.370941	155.340000
265.463898	155.240000
265.556854	154.960000
265.649811	153.940000
265.742798	154.160000
265.835754	154.200000
265.928711	154.820000
266.021667	154.980000
266.114655	155.540000
266.207611	155.840000
266.300568	155.360000
266.393585	154.160000
266.486511	154.540000
266.579498	153.760000
266.672485	153.220000
266.765442	153.200000
266.858429	154.300000
266.951385	153.820000
267.044342	154.160000
267.137329	154.500000
267.230316	155.160000
267.323273	154.380000
267.416260	155.400000
267.509216	155.280000
267.602203	155.120000
267.695160	155.260000
267.788147	155.340000
267.881134	154.400000
267.974091	155.020000
268.067078	154.560000
268.160065	154.160000
268.253052	154.140000
268.346008	154.400000
268.438995	153.780000
268.531982	154.400000
268.624969	154.440000
268.717987	154.900000
268.810944	154.540000
268.903961	155.060000
268.996948	154.740000
269.089905	155.120000
269.182892	154.980000
269.275879	155.560000
269.368866	154.720000
269.461853	154.980000
269.554871	154.640000
269.647858	154.740000
269.740845	154.920000
269.833832	155.620000
269.926819	155.080000
270.019806	155.160000
270.112793	154.800000
270.205811	154.780000
270.298798	154.480000
270.391785	155.240000
270.484772	155.140000
270.577789	155.440000
270.670776	154.760000
270.763763	154.740000
270.856750	154.540000
270.949768	154.340000
271.042786	154.220000
271.135773	154.520000
271.228790	154.800000
271.321808	154.520000
271.414795	154.440000
271.507782	154.000000
271.600800	153.540000
271.693817	153.600000
271.786804	154.160000
271.879822	154.480000
271.972809	154.840000
272.065826	155.660000
272.158844	155.100000
272.251831	155.560000
272.344849	155.520000
272.437866	155.180000
272.530853	155.180000
272.623871	155.840000
272.716888	154.280000
272.809906	154.620000
272.902893	154.860000
272.995911	154.040000
273.088928	153.540000
273.181946	154.240000
273.274963	153.620000
273.367981	153.680000
273.460999	154.240000
273.554047	154.840000
273.647003	155.300000
273.740051	155.460000
273.833069	155.840000
273.926086	155.980000
274.019135	155.700000
274.112152	155.360000
274.205170	155.520000
274.298187	155.620000
274.391205	155.100000
274.484222	154.980000
274.577240	154.660000
274.670258	154.400000
274.763306	154.480000
274.856323	154.880000
274.949341	155.140000
275.042358	155.720000
275.135406	155.740000
275.228424	155.180000
275.321442	155.080000
275.414490	154.780000
275.507507	154.880000
275.600525	155.460000
275.693573	155.540000
275.786591	155.100000
275.879669	155.000000
275.972656	154.380000
276.065735	154.040000
276.158752	154.540000
276.251801	155.440000
276.344818	155.560000
276.437866	155.940000
276.530884	155.800000
276.623932	154.920000
276.716980	154.900000
276.809998	155.120000
276.903046	154.980000
276.996094	155.820000
277.089111	156.720000
277.182159	157.020000
277.275208	156.660000
277.368256	157.000000
277.461304	156.260000
277.554321	155.280000
277.647369	155.140000
277.740417	155.340000
277.833466	154.500000
277.926514	154.340000
278.019562	155.140000
278.112610	154.500000
278.205688	154.500000
278.298706	155.080000
278.391785	154.960000
278.484833	154.220000
278.577881	153.900000
278.670929	154.360000
278.763977	154.520000
278.857025	155.060000
278.950073	155.500000
279.043121	155.680000
279.136169	155.420000
279.229248	154.860000
279.322296	154.840000
279.415344	154.600000
279.508392	154.540000
279.601440	154.340000
279.694519	154.540000
279.787567	154.300000
279.880615	153.920000
279.973694	153.900000
280.066742	154.140000
280.159790	153.880000
280.252869	153.700000
280.345917	154.440000
280.438995	154.700000
280.532074	154.440000
280.625122	155.360000
280.718201	156.380000
280.811279	156.080000
280.904327	155.900000
280.997406	156.160000
281.090454	155.600000
281.183533	154.400000
281.276581	154.580000
281.369659	154.260000
281.462738	154.360000
281.555786	155.020000
281.648865	155.640000
281.741943	155.440000
281.835022	156.280000
281.928070	155.560000
282.021149	154.820000
282.114227	154.300000
282.207306	154.240000
282.300385	154.360000
282.393433	154.540000
282.486511	154.780000
282.579590	155.420000
282.672668	156.160000
282.765747	155.380000
282.858856	155.480000
282.951904	155.360000
283.045013	155.240000
283.138062	155.120000
283.231171	155.420000
283.324249	155.900000
283.417328	156.080000
283.510406	155.760000
283.603485	155.360000
283.696564	155.460000
283.789642	155.320000
283.882751	155.040000
283.975830	155.520000
284.068909	155.180000
284.161987	155.340000
284.255066	154.820000
284.348175	155.120000
284.441254	155.020000
284.534332	155.800000
284.627441	155.360000
284.720520	155.140000
284.813599	154.820000
284.906708	154.640000
284.999786	153.620000
285.092896	153.400000
285.185974	154.680000
285.279053	154.440000
285.372192	154.580000
285.465240	155.540000
285.558380	155.700000
285.651459	155.100000
285.744568	156.180000
285.837677	155.800000
285.930756	155.460000
286.023865	155.700000
286.116943	155.240000
286.210052	154.940000
286.303162	154.900000
286.396240	154.780000
286.489349	154.320000
286.582458	154.860000
286.675568	154.660000
286.768646	154.840000
286.861755	155.400000
286.954865	156.460000
287.047974	155.700000
287.141083	155.320000
287.234161	155.360000
287.327271	154.960000
287.420380	155.100000
287.513519	155.200000
287.606598	155.480000
287.699738	155.480000
287.792816	155.220000
287.885956	154.660000
287.979034	154.920000
288.072174	154.740000
288.165283	154.540000
288.258392	155.120000
288.351501	154.640000
288.444611	154.860000
288.537720	155.640000
288.630859	155.520000
288.723969	155.200000
288.817078	155.740000
288.910187	155.780000
289.003296	154.900000
289.096436	154.800000
289.189545	154.420000
289.282654	153.880000
289.375763	154.120000
289.468903	154.540000
289.562012	154.980000
289.655121	155.220000
289.748260	155.600000
289.841400	155.840000
289.934509	155.560000
290.027649	155.620000
290.120728	155.780000
290.213898	155.720000
290.306976	155.000000
290.400146	155.360000
290.493256	154.800000
290.586395	154.940000
290.679535	155.240000
290.772644	155.240000
290.865784	154.200000
290.958893	154.540000
291.052032	154.020000
291.145172	153.880000
291.238281	153.760000
291.331421	153.980000
291.424561	154.200000
291.517670	154.280000
291.610809	154.200000
291.703949	154.080000
291.797089	154.580000
291.890228	154.120000
291.983337	153.580000
292.076477	153.420000
292.169617	154.140000
292.262756	154.140000
292.355927	153.960000
292.449036	154.400000
292.542206	154.200000
292.635315	153.900000
292.728485	154.200000
292.821625	154.380000
292.914764	155.520000
293.007904	156.140000
293.101044	156.080000
293.194183	155.720000
293.287323	155.900000
293.380463	154.900000
293.473602	154.640000
293.566742	155.000000
293.659882	155.380000
293.753021	155.480000
293.846191	155.400000
293.939331	154.900000
294.032471	154.320000
294.125610	153.820000
294.218781	153.780000
294.311920	154.460000
294.405060	155.140000
294.498230	155.240000
294.591370	155.420000
294.684540	155.060000
294.777679	154.340000
294.870850	154.420000
294.963959	154.500000
295.057159	154.560000
295.150299	155.000000
295.243469	155.060000
295.336609	154.420000
295.429779	154.280000
295.522919	154.900000
295.616089	154.920000
295.709229	155.460000
295.802399	155.800000
295.895569	155.840000
295.988708	155.020000
296.081879	155.120000
296.175018	154.860000
296.268188	154.680000
296.361359	155.060000
296.454529	155.120000
296.547668	154.940000
296.640839	154.920000
296.734009	154.580000
296.827179	154.680000
296.920319	155.060000
297.013519	154.780000
297.106659	155.040000
297.199860	155.340000
297.292999	155.360000
297.386200	155.100000
297.479309	155.300000
297.572510	155.100000
297.665680	154.520000
297.758850	154.080000
297.852020	154.080000
297.945190	153.800000
298.038361	153.460000
298.131531	154.900000
298.224701	154.920000
298.317871	154.500000
298.411072	154.020000
298.504242	154.000000
298.597412	153.120000
298.690582	153.380000
298.783752	153.500000
298.876923	154.240000
298.970093	154.420000
299.063293	155.160000
299.156464	155.260000
299.249634	155.900000
299.342834	156.300000
299.436005	156.520000
299.529205	155.800000
299.622345	155.740000
299.715576	155.040000
299.808716	154.260000
299.901917	154.300000
299.995117	154.920000
300.088287	155.100000
300.181488	154.720000
300.274658	154.520000
300.367828	154.540000
300.461029	154.220000
300.554199	154.080000
300.647400	154.560000
300.740601	155.500000
300.833771	155.300000
300.926971	155.300000
301.020142	154.880000
301.113342	154.760000
301.206512	154.720000
301.299713	154.800000
301.392914	154.800000
301.486084	155.360000
301.579285	155.300000
301.672516	155.500000
301.765686	155.360000
301.858887	155.160000
301.952057	155.060000
302.045288	155.320000
302.138458	154.960000
302.231659	154.780000
302.324860	154.760000
302.418060	154.700000
302.511261	154.640000
302.604462	154.860000
302.697662	154.780000
302.790863	154.720000
302.884064	153.920000
302.977264	154.020000
303.070465	154.040000
303.163666	154.960000
303.256866	155.400000
303.350067	155.800000
303.443268	155.640000
303.536469	155.700000
303.629669	155.020000
303.722870	154.780000
303.816071	154.540000
303.909271	154.600000
304.002472	154.100000
304.095673	153.860000
304.188934	153.380000
304.282104	154.300000
304.375336	154.320000
304.468506	154.220000
304.561768	154.140000
304.654968	154.800000
304.748169	153.940000
304.841370	153.800000
304.934601	154.120000
305.027802	154.160000
305.121002	153.660000
305.214233	154.100000
305.307434	154.060000
305.400665	154.740000
305.493866	154.860000
