Model Number: SPM-002-B   
Serial Number: 70087108
Firmware Version: 004.15.4
Exposure Time: 100000.000000us
Data Taken on: 15-01-2021 17:48:12.248
Wavelength	Amplitude
221.570786	0.000000
221.663406	0.000000
221.756027	0.000000
221.848648	0.000000
221.941269	0.000000
222.033905	0.000000
222.126526	0.000000
222.219162	0.000000
222.311798	0.000000
222.404419	0.000000
222.497055	0.000000
222.589676	0.000000
222.682312	0.000000
222.774933	0.000000
222.867569	0.000000
222.960205	0.000000
223.052841	0.000000
223.145462	0.000000
223.238098	0.000000
223.330734	0.000000
223.423386	0.000000
223.516022	0.000000
223.608658	0.000000
223.701309	0.000000
223.793945	0.000000
223.886581	0.000000
223.979218	0.000000
224.071869	0.000000
224.164505	0.000000
224.257156	0.000000
224.349792	0.000000
224.442444	0.000000
224.535095	0.000000
224.627747	0.000000
224.720398	0.000000
224.813034	0.000000
224.905685	0.000000
224.998337	153.980000
225.090988	153.580000
225.183640	153.680000
225.276291	153.800000
225.368942	154.240000
225.461594	154.880000
225.554245	155.180000
225.646912	155.160000
225.739578	155.660000
225.832230	156.160000
225.924896	155.420000
226.017548	155.780000
226.110199	156.440000
226.202866	155.760000
226.295532	155.480000
226.388184	155.500000
226.480850	154.740000
226.573517	154.100000
226.666168	154.160000
226.758835	154.180000
226.851501	154.860000
226.944183	154.940000
227.036850	154.380000
227.129517	154.280000
227.222183	154.220000
227.314850	153.720000
227.407516	154.040000
227.500198	155.260000
227.592865	155.100000
227.685532	154.840000
227.778214	154.460000
227.870880	154.740000
227.963562	154.540000
228.056229	155.020000
228.148926	155.360000
228.241592	156.480000
228.334274	155.780000
228.426956	155.480000
228.519638	155.640000
228.612305	154.520000
228.704987	154.100000
228.797668	154.580000
228.890350	154.400000
228.983032	153.740000
229.075714	155.180000
229.168396	154.660000
229.261108	154.120000
229.353790	154.020000
229.446472	154.420000
229.539169	153.880000
229.631851	153.660000
229.724533	154.000000
229.817230	154.280000
229.909912	155.020000
230.002609	154.960000
230.095306	155.180000
230.187988	155.260000
230.280685	154.880000
230.373383	153.740000
230.466095	153.900000
230.558792	154.280000
230.651474	154.180000
230.744171	154.280000
230.836868	154.340000
230.929581	154.640000
231.022278	154.580000
231.114975	154.580000
231.207672	154.500000
231.300369	155.040000
231.393082	154.980000
231.485779	154.720000
231.578506	154.660000
231.671204	154.800000
231.763916	154.740000
231.856613	154.680000
231.949326	154.900000
232.042023	154.860000
232.134735	154.900000
232.227448	154.640000
232.320160	154.680000
232.412872	154.420000
232.505585	155.460000
232.598297	155.760000
232.691010	155.600000
232.783722	155.260000
232.876450	156.060000
232.969162	154.960000
233.061874	154.440000
233.154587	154.380000
233.247314	154.800000
233.340027	153.980000
233.432739	154.600000
233.525467	154.520000
233.618179	154.900000
233.710907	154.360000
233.803635	154.860000
233.896347	154.460000
233.989090	155.480000
234.081818	155.400000
234.174545	155.460000
234.267258	155.220000
234.359985	155.340000
234.452713	154.740000
234.545441	154.460000
234.638168	154.640000
234.730896	155.140000
234.823639	155.100000
234.916367	155.300000
235.009094	155.140000
235.101822	154.900000
235.194580	154.500000
235.287308	154.300000
235.380051	153.880000
235.472778	154.460000
235.565521	154.580000
235.658249	154.160000
235.750992	154.460000
235.843719	154.560000
235.936462	154.760000
236.029205	154.720000
236.121948	154.440000
236.214691	154.840000
236.307449	155.660000
236.400192	155.080000
236.492935	154.700000
236.585678	155.060000
236.678421	154.680000
236.771164	154.120000
236.863907	154.500000
236.956665	154.860000
237.049408	156.600000
237.142151	156.220000
237.234909	157.060000
237.327652	156.780000
237.420410	156.580000
237.513153	155.420000
237.605927	155.460000
237.698669	154.620000
237.791428	154.200000
237.884186	154.820000
237.976944	154.260000
238.069702	154.500000
238.162445	153.960000
238.255203	154.420000
238.347961	154.620000
238.440720	154.780000
238.533478	154.760000
238.626266	154.620000
238.719025	154.320000
238.811783	153.960000
238.904541	153.860000
238.997314	153.580000
239.090073	153.460000
239.182831	154.220000
239.275604	155.080000
239.368362	154.980000
239.461136	155.100000
239.553909	155.400000
239.646667	154.940000
239.739441	154.000000
239.832214	154.340000
239.925003	154.400000
240.017761	154.860000
240.110535	155.580000
240.203308	155.320000
240.296082	155.300000
240.388855	155.660000
240.481628	155.780000
240.574417	155.320000
240.667191	155.400000
240.759964	154.980000
240.852737	154.420000
240.945526	153.980000
241.038315	153.560000
241.131088	153.680000
241.223877	154.060000
241.316650	153.800000
241.409439	154.280000
241.502228	154.540000
241.595001	155.080000
241.687790	154.700000
241.780579	155.020000
241.873367	155.100000
241.966141	154.840000
242.058929	153.960000
242.151718	154.420000
242.244507	154.820000
242.337311	154.000000
242.430099	154.720000
242.522903	155.140000
242.615692	154.800000
242.708481	154.560000
242.801270	155.320000
242.894073	154.840000
242.986862	154.700000
243.079651	155.380000
243.172455	155.240000
243.265244	155.220000
243.358063	154.700000
243.450867	155.020000
243.543655	154.760000
243.636459	154.940000
243.729263	155.120000
243.822067	155.680000
243.914856	155.760000
244.007660	155.720000
244.100464	155.680000
244.193268	154.800000
244.286072	154.780000
244.378876	154.200000
244.471680	153.880000
244.564499	154.400000
244.657318	155.660000
244.750122	155.500000
244.842926	155.100000
244.935745	155.780000
245.028549	154.940000
245.121368	153.900000
245.214172	154.360000
245.306992	155.060000
245.399796	154.340000
245.492615	154.460000
245.585434	154.620000
245.678253	154.540000
245.771072	154.380000
245.863892	154.900000
245.956711	155.500000
246.049530	155.460000
246.142349	155.020000
246.235168	155.060000
246.327988	155.420000
246.420807	154.820000
246.513626	155.000000
246.606445	154.880000
246.699280	154.920000
246.792099	154.400000
246.884918	154.500000
246.977753	154.180000
247.070587	154.400000
247.163422	154.420000
247.256241	154.520000
247.349075	154.780000
247.441895	154.940000
247.534729	154.660000
247.627563	154.260000
247.720383	154.740000
247.813217	154.300000
247.906052	153.980000
247.998886	154.240000
248.091736	154.280000
248.184570	153.720000
248.277405	153.780000
248.370239	154.780000
248.463074	155.940000
248.555908	156.220000
248.648743	156.220000
248.741592	156.840000
248.834427	156.200000
248.927261	154.740000
249.020111	155.400000
249.112946	155.900000
249.205795	154.960000
249.298630	155.000000
249.391495	155.360000
249.484344	154.840000
249.577179	154.680000
249.670029	155.300000
249.762878	155.880000
249.855728	156.100000
249.948563	156.180000
250.041412	155.480000
250.134262	155.680000
250.227112	155.540000
250.319962	155.620000
250.412827	155.500000
250.505692	155.280000
250.598541	155.280000
250.691391	154.760000
250.784241	154.580000
250.877106	154.820000
250.969955	155.100000
251.062805	155.500000
251.155670	156.260000
251.248520	155.840000
251.341385	156.020000
251.434235	155.780000
251.527100	155.120000
251.619965	154.560000
251.712814	155.460000
251.805695	154.980000
251.898560	155.540000
251.991425	155.620000
252.084290	155.540000
252.177155	154.820000
252.270020	154.760000
252.362885	154.480000
252.455750	154.500000
252.548615	154.420000
252.641479	154.340000
252.734360	154.280000
252.827240	154.000000
252.920105	154.120000
253.012970	154.000000
253.105850	153.880000
253.198715	153.920000
253.291595	154.420000
253.384460	153.760000
253.477341	153.800000
253.570221	154.400000
253.663086	154.100000
253.755966	154.960000
253.848846	155.480000
253.941727	155.900000
254.034592	155.520000
254.127472	155.380000
254.220367	154.760000
254.313248	154.840000
254.406128	153.980000
254.499008	154.220000
254.591904	155.400000
254.684784	155.400000
254.777664	155.300000
254.870544	155.260000
254.963440	155.120000
255.056335	154.480000
255.149216	154.360000
255.242111	154.880000
255.334991	155.600000
255.427887	155.420000
255.520767	155.600000
255.613663	155.720000
255.706558	155.100000
255.799438	154.300000
255.892334	154.000000
255.985229	153.860000
256.078125	153.940000
256.171021	153.860000
256.263916	154.780000
256.356812	155.420000
256.449707	155.420000
256.542603	155.020000
256.635498	155.760000
256.728394	155.280000
256.821289	154.760000
256.914215	155.180000
257.007080	155.180000
257.100006	154.860000
257.192932	155.520000
257.285828	156.040000
257.378723	155.380000
257.471619	155.340000
257.564545	154.860000
257.657440	154.920000
257.750336	155.340000
257.843262	155.240000
257.936157	156.620000
258.029053	157.220000
258.121979	157.040000
258.214874	156.560000
258.307800	156.680000
258.400696	155.300000
258.493622	154.720000
258.586517	153.940000
258.679443	154.240000
258.772339	153.980000
258.865265	154.140000
258.958160	153.900000
259.051086	154.800000
259.144012	154.440000
259.236938	155.500000
259.329834	155.340000
259.422791	155.420000
259.515717	154.900000
259.608612	154.620000
259.701538	154.160000
259.794464	153.880000
259.887390	154.120000
259.980316	154.000000
260.073212	154.000000
260.166138	153.220000
260.259064	153.840000
260.351990	154.160000
260.444916	154.280000
260.537842	154.940000
260.630768	156.000000
260.723694	155.740000
260.816620	155.640000
260.909546	155.520000
261.002472	155.060000
261.095398	154.140000
261.188354	154.140000
261.281281	153.900000
261.374207	154.080000
261.467133	154.640000
261.560089	155.440000
261.653015	155.280000
261.745972	155.880000
261.838867	156.300000
261.931824	156.500000
262.024780	155.540000
262.117706	155.960000
262.210663	155.920000
262.303589	155.360000
262.396515	155.120000
262.489471	156.380000
262.582397	155.680000
262.675354	155.000000
262.768280	155.240000
262.861237	154.920000
262.954163	154.460000
263.047119	154.980000
263.140045	154.900000
263.233002	154.920000
263.325958	154.880000
263.418884	154.220000
263.511841	154.080000
263.604797	154.500000
263.697723	154.300000
263.790680	154.160000
263.883636	155.020000
263.976593	154.900000
264.069550	154.860000
264.162476	154.800000
264.255463	154.780000
264.348419	154.540000
264.441376	155.220000
264.534332	154.620000
264.627289	154.840000
264.720245	155.560000
264.813202	155.040000
264.906158	154.580000
264.999115	155.460000
265.092072	155.340000
265.185028	155.640000
265.277985	156.200000
265.370941	156.320000
265.463898	156.000000
265.556854	156.020000
265.649811	154.720000
265.742798	154.420000
265.835754	154.240000
265.928711	154.780000
266.021667	154.780000
266.114655	155.360000
266.207611	155.760000
266.300568	155.400000
266.393585	154.640000
266.486511	154.740000
266.579498	153.720000
266.672485	153.340000
266.765442	153.420000
266.858429	154.040000
266.951385	153.440000
267.044342	154.000000
267.137329	154.160000
267.230316	154.420000
267.323273	153.600000
267.416260	154.480000
267.509216	154.560000
267.602203	154.380000
267.695160	155.020000
267.788147	155.060000
267.881134	154.180000
267.974091	154.300000
268.067078	154.220000
268.160065	153.520000
268.253052	153.900000
268.346008	154.300000
268.438995	154.280000
268.531982	154.700000
268.624969	154.560000
268.717987	154.960000
268.810944	154.860000
268.903961	155.320000
268.996948	154.740000
269.089905	155.300000
269.182892	155.120000
269.275879	155.540000
269.368866	154.820000
269.461853	155.560000
269.554871	155.420000
269.647858	155.260000
269.740845	155.540000
269.833832	155.760000
269.926819	155.180000
270.019806	155.200000
270.112793	154.840000
270.205811	154.720000
270.298798	154.840000
270.391785	155.200000
270.484772	154.960000
270.577789	155.160000
270.670776	154.560000
270.763763	154.400000
270.856750	154.360000
270.949768	154.000000
271.042786	154.020000
271.135773	154.140000
271.228790	154.820000
271.321808	154.320000
271.414795	154.380000
271.507782	153.920000
271.600800	153.700000
271.693817	153.240000
271.786804	154.080000
271.879822	154.420000
271.972809	154.860000
272.065826	155.560000
272.158844	155.020000
272.251831	155.520000
272.344849	155.500000
272.437866	155.280000
272.530853	155.000000
272.623871	155.320000
272.716888	153.980000
272.809906	154.400000
272.902893	154.460000
272.995911	154.260000
273.088928	154.260000
273.181946	154.540000
273.274963	153.960000
273.367981	153.840000
273.460999	153.980000
273.554047	154.720000
273.647003	155.500000
273.740051	155.520000
273.833069	156.400000
273.926086	156.460000
274.019135	155.760000
274.112152	154.960000
274.205170	155.080000
274.298187	154.780000
274.391205	154.400000
274.484222	154.380000
274.577240	154.120000
274.670258	154.060000
274.763306	153.820000
274.856323	154.380000
274.949341	154.400000
275.042358	155.320000
275.135406	155.280000
275.228424	155.200000
275.321442	154.920000
275.414490	154.940000
275.507507	155.200000
275.600525	155.540000
275.693573	155.220000
275.786591	155.020000
275.879669	155.260000
275.972656	154.800000
276.065735	154.400000
276.158752	155.400000
276.251801	156.100000
276.344818	156.100000
276.437866	155.900000
276.530884	155.880000
276.623932	154.720000
276.716980	154.580000
276.809998	154.400000
276.903046	154.440000
276.996094	155.200000
277.089111	156.020000
277.182159	156.520000
277.275208	156.520000
277.368256	156.380000
277.461304	155.940000
277.554321	155.220000
277.647369	155.020000
277.740417	154.940000
277.833466	154.780000
277.926514	154.700000
278.019562	155.500000
278.112610	154.860000
278.205688	154.980000
278.298706	155.220000
278.391785	154.920000
278.484833	154.400000
278.577881	154.180000
278.670929	154.480000
278.763977	154.600000
278.857025	155.000000
278.950073	155.140000
279.043121	155.200000
279.136169	155.100000
279.229248	154.740000
279.322296	154.820000
279.415344	154.680000
279.508392	154.620000
279.601440	154.300000
279.694519	154.500000
279.787567	154.420000
279.880615	154.300000
279.973694	154.420000
280.066742	154.800000
280.159790	154.960000
280.252869	154.480000
280.345917	154.940000
280.438995	154.940000
280.532074	154.760000
280.625122	154.840000
280.718201	155.960000
280.811279	155.660000
280.904327	155.460000
280.997406	155.460000
281.090454	155.380000
281.183533	154.180000
281.276581	154.020000
281.369659	153.840000
281.462738	153.780000
281.555786	153.860000
281.648865	154.180000
281.741943	154.380000
281.835022	155.100000
281.928070	155.000000
282.021149	154.700000
282.114227	154.980000
282.207306	154.640000
282.300385	154.780000
282.393433	154.980000
282.486511	155.300000
282.579590	155.680000
282.672668	156.440000
282.765747	155.800000
282.858856	155.260000
282.951904	155.140000
283.045013	154.700000
283.138062	154.640000
283.231171	155.200000
283.324249	156.020000
283.417328	156.040000
283.510406	155.700000
283.603485	155.400000
283.696564	154.940000
283.789642	154.740000
283.882751	154.820000
283.975830	155.720000
284.068909	155.160000
284.161987	156.020000
284.255066	155.400000
284.348175	155.180000
284.441254	154.540000
284.534332	155.420000
284.627441	154.660000
284.720520	154.820000
284.813599	154.940000
284.906708	154.900000
284.999786	154.160000
285.092896	153.960000
285.185974	154.940000
285.279053	154.580000
285.372192	154.760000
285.465240	155.540000
285.558380	155.760000
285.651459	154.940000
285.744568	155.720000
285.837677	155.620000
285.930756	155.340000
286.023865	155.460000
286.116943	155.080000
286.210052	154.900000
286.303162	154.660000
286.396240	154.540000
286.489349	154.260000
286.582458	154.820000
286.675568	154.880000
286.768646	155.280000
286.861755	155.560000
286.954865	156.700000
287.047974	156.180000
287.141083	155.800000
287.234161	155.380000
287.327271	155.220000
287.420380	154.900000
287.513519	155.140000
287.606598	154.860000
287.699738	155.320000
287.792816	155.220000
287.885956	154.840000
287.979034	154.780000
288.072174	155.120000
288.165283	154.920000
288.258392	155.060000
288.351501	154.740000
288.444611	154.720000
288.537720	155.080000
288.630859	154.880000
288.723969	155.320000
288.817078	155.720000
288.910187	156.160000
289.003296	155.500000
289.096436	155.220000
289.189545	154.720000
289.282654	154.120000
289.375763	154.020000
289.468903	154.820000
289.562012	155.300000
289.655121	155.480000
289.748260	155.960000
289.841400	156.440000
289.934509	156.020000
290.027649	156.180000
290.120728	155.820000
290.213898	155.680000
290.306976	155.200000
290.400146	155.100000
290.493256	154.600000
290.586395	154.680000
290.679535	155.040000
290.772644	154.880000
290.865784	154.340000
290.958893	154.320000
291.052032	154.040000
291.145172	153.720000
291.238281	153.420000
291.331421	153.640000
291.424561	154.420000
291.517670	154.740000
291.610809	154.840000
291.703949	155.060000
291.797089	155.500000
291.890228	154.920000
291.983337	154.880000
292.076477	154.600000
292.169617	154.660000
292.262756	154.280000
292.355927	154.160000
292.449036	154.000000
292.542206	154.200000
292.635315	154.560000
292.728485	155.060000
292.821625	155.060000
292.914764	156.040000
293.007904	156.120000
293.101044	156.000000
293.194183	155.740000
293.287323	155.620000
293.380463	154.880000
293.473602	154.520000
293.566742	154.800000
293.659882	155.340000
293.753021	155.640000
293.846191	155.380000
293.939331	155.060000
294.032471	154.460000
294.125610	154.120000
294.218781	154.800000
294.311920	155.380000
294.405060	156.120000
294.498230	156.200000
294.591370	156.000000
294.684540	154.720000
294.777679	153.860000
294.870850	153.920000
294.963959	153.740000
295.057159	153.520000
295.150299	154.420000
295.243469	155.040000
295.336609	154.280000
295.429779	154.560000
295.522919	155.060000
295.616089	154.920000
295.709229	155.300000
295.802399	155.620000
295.895569	155.340000
295.988708	155.120000
296.081879	155.160000
296.175018	154.560000
296.268188	154.800000
296.361359	155.320000
296.454529	155.400000
296.547668	155.380000
296.640839	155.700000
296.734009	155.400000
296.827179	155.240000
296.920319	155.360000
297.013519	154.900000
297.106659	155.000000
297.199860	154.820000
297.292999	154.940000
297.386200	154.240000
297.479309	154.320000
297.572510	153.780000
297.665680	153.800000
297.758850	153.840000
297.852020	154.260000
297.945190	154.460000
298.038361	154.480000
298.131531	155.760000
298.224701	155.200000
298.317871	154.820000
298.411072	154.240000
298.504242	154.300000
298.597412	153.460000
298.690582	153.960000
298.783752	153.980000
298.876923	154.680000
298.970093	154.740000
299.063293	154.940000
299.156464	155.200000
299.249634	155.820000
299.342834	155.760000
299.436005	156.080000
299.529205	155.780000
299.622345	155.560000
299.715576	154.420000
299.808716	154.380000
299.901917	154.200000
299.995117	154.700000
300.088287	154.940000
300.181488	155.520000
300.274658	155.240000
300.367828	155.340000
300.461029	155.140000
300.554199	155.260000
300.647400	155.520000
300.740601	156.100000
300.833771	155.740000
300.926971	155.760000
301.020142	155.220000
301.113342	154.840000
301.206512	154.500000
301.299713	155.000000
301.392914	154.900000
301.486084	155.160000
301.579285	155.500000
301.672516	156.060000
301.765686	155.620000
301.858887	155.540000
301.952057	155.180000
302.045288	154.980000
302.138458	154.520000
302.231659	154.460000
302.324860	154.420000
302.418060	154.320000
302.511261	154.280000
302.604462	154.400000
302.697662	154.300000
302.790863	154.020000
302.884064	153.940000
302.977264	154.120000
303.070465	154.180000
303.163666	155.160000
303.256866	155.760000
303.350067	155.880000
303.443268	156.140000
303.536469	156.460000
303.629669	155.660000
303.722870	155.560000
303.816071	155.460000
303.909271	155.120000
304.002472	154.380000
304.095673	154.120000
304.188934	153.540000
304.282104	154.640000
304.375336	154.520000
304.468506	154.280000
304.561768	154.680000
304.654968	155.320000
304.748169	154.600000
304.841370	154.480000
304.934601	155.020000
305.027802	154.360000
305.121002	153.700000
305.214233	153.840000
305.307434	154.000000
305.400665	154.660000
305.493866	154.880000
