Model Number: SPM-002-B   
Serial Number: 70087108
Firmware Version: 004.15.4
Exposure Time: 100000.000000us
Data Taken on: 15-01-2021 17:48:43.297
Wavelength	Amplitude
221.570786	0.000000
221.663406	0.000000
221.756027	0.000000
221.848648	0.000000
221.941269	0.000000
222.033905	0.000000
222.126526	0.000000
222.219162	0.000000
222.311798	0.000000
222.404419	0.000000
222.497055	0.000000
222.589676	0.000000
222.682312	0.000000
222.774933	0.000000
222.867569	0.000000
222.960205	0.000000
223.052841	0.000000
223.145462	0.000000
223.238098	0.000000
223.330734	0.000000
223.423386	0.000000
223.516022	0.000000
223.608658	0.000000
223.701309	0.000000
223.793945	0.000000
223.886581	0.000000
223.979218	0.000000
224.071869	0.000000
224.164505	0.000000
224.257156	0.000000
224.349792	0.000000
224.442444	0.000000
224.535095	0.000000
224.627747	0.000000
224.720398	0.000000
224.813034	0.000000
224.905685	0.000000
224.998337	153.620000
225.090988	153.580000
225.183640	153.860000
225.276291	153.620000
225.368942	153.900000
225.461594	154.320000
225.554245	154.620000
225.646912	154.540000
225.739578	155.040000
225.832230	155.440000
225.924896	154.620000
226.017548	154.340000
226.110199	154.920000
226.202866	154.260000
226.295532	153.760000
226.388184	153.760000
226.480850	153.820000
226.573517	153.260000
226.666168	153.720000
226.758835	154.260000
226.851501	154.820000
226.944183	154.800000
227.036850	154.560000
227.129517	154.480000
227.222183	154.500000
227.314850	154.480000
227.407516	154.720000
227.500198	155.500000
227.592865	155.540000
227.685532	155.020000
227.778214	154.700000
227.870880	154.820000
227.963562	155.060000
228.056229	155.260000
228.148926	155.420000
228.241592	156.280000
228.334274	156.100000
228.426956	155.580000
228.519638	155.540000
228.612305	155.340000
228.704987	155.120000
228.797668	155.120000
228.890350	154.680000
228.983032	153.960000
229.075714	154.380000
229.168396	154.120000
229.261108	153.800000
229.353790	153.980000
229.446472	154.480000
229.539169	154.340000
229.631851	154.020000
229.724533	154.320000
229.817230	154.540000
229.909912	155.700000
230.002609	155.680000
230.095306	155.640000
230.187988	155.740000
230.280685	155.460000
230.373383	153.840000
230.466095	153.440000
230.558792	153.720000
230.651474	153.400000
230.744171	153.600000
230.836868	153.920000
230.929581	154.480000
231.022278	154.420000
231.114975	154.420000
231.207672	154.120000
231.300369	154.320000
231.393082	154.500000
231.485779	154.660000
231.578506	154.480000
231.671204	154.580000
231.763916	154.720000
231.856613	154.240000
231.949326	153.920000
232.042023	154.060000
232.134735	154.220000
232.227448	153.560000
232.320160	154.200000
232.412872	154.340000
232.505585	155.240000
232.598297	155.480000
232.691010	155.580000
232.783722	154.700000
232.876450	155.340000
232.969162	154.360000
233.061874	154.080000
233.154587	154.180000
233.247314	154.800000
233.340027	154.060000
233.432739	154.660000
233.525467	154.560000
233.618179	155.140000
233.710907	154.760000
233.803635	155.220000
233.896347	154.900000
233.989090	155.520000
234.081818	155.160000
234.174545	155.400000
234.267258	154.980000
234.359985	155.160000
234.452713	154.940000
234.545441	154.840000
234.638168	154.600000
234.730896	154.900000
234.823639	154.680000
234.916367	154.880000
235.009094	154.940000
235.101822	155.220000
235.194580	155.200000
235.287308	155.460000
235.380051	154.500000
235.472778	154.540000
235.565521	154.740000
235.658249	154.640000
235.750992	154.380000
235.843719	154.640000
235.936462	154.620000
236.029205	154.040000
236.121948	153.520000
236.214691	154.240000
236.307449	154.940000
236.400192	154.480000
236.492935	154.320000
236.585678	154.740000
236.678421	154.580000
236.771164	154.020000
236.863907	155.140000
236.956665	155.440000
237.049408	157.220000
237.142151	156.540000
237.234909	157.800000
237.327652	157.520000
237.420410	157.380000
237.513153	155.860000
237.605927	155.800000
237.698669	154.760000
237.791428	154.040000
237.884186	154.740000
237.976944	154.400000
238.069702	154.780000
238.162445	154.220000
238.255203	154.340000
238.347961	154.420000
238.440720	154.360000
238.533478	154.340000
238.626266	154.380000
238.719025	154.820000
238.811783	154.200000
238.904541	154.320000
238.997314	154.020000
239.090073	153.800000
239.182831	154.120000
239.275604	155.180000
239.368362	155.060000
239.461136	155.060000
239.553909	155.220000
239.646667	154.800000
239.739441	153.800000
239.832214	154.240000
239.925003	154.580000
240.017761	155.280000
240.110535	155.620000
240.203308	155.540000
240.296082	155.420000
240.388855	155.500000
240.481628	155.360000
240.574417	155.220000
240.667191	155.420000
240.759964	155.000000
240.852737	154.800000
240.945526	154.480000
241.038315	154.340000
241.131088	154.200000
241.223877	154.780000
241.316650	154.280000
241.409439	154.840000
241.502228	154.440000
241.595001	155.180000
241.687790	154.800000
241.780579	155.200000
241.873367	155.280000
241.966141	155.640000
242.058929	155.060000
242.151718	155.160000
242.244507	155.820000
242.337311	154.920000
242.430099	155.300000
242.522903	155.280000
242.615692	155.020000
242.708481	154.680000
242.801270	155.380000
242.894073	155.240000
242.986862	155.280000
243.079651	155.640000
243.172455	155.440000
243.265244	155.640000
243.358063	154.880000
243.450867	155.100000
243.543655	155.120000
243.636459	155.180000
243.729263	155.300000
243.822067	156.080000
243.914856	156.520000
244.007660	156.360000
244.100464	156.100000
244.193268	155.240000
244.286072	154.840000
244.378876	153.920000
244.471680	153.820000
244.564499	154.540000
244.657318	155.440000
244.750122	155.880000
244.842926	155.540000
244.935745	156.080000
245.028549	155.460000
245.121368	154.940000
245.214172	154.800000
245.306992	155.640000
245.399796	154.840000
245.492615	154.960000
245.585434	154.820000
245.678253	154.760000
245.771072	154.080000
245.863892	154.720000
245.956711	155.060000
246.049530	154.880000
246.142349	154.420000
246.235168	154.740000
246.327988	155.180000
246.420807	154.660000
246.513626	154.760000
246.606445	154.920000
246.699280	154.940000
246.792099	154.500000
246.884918	154.200000
246.977753	154.300000
247.070587	154.700000
247.163422	154.680000
247.256241	154.680000
247.349075	155.080000
247.441895	155.000000
247.534729	154.440000
247.627563	154.080000
247.720383	154.760000
247.813217	154.420000
247.906052	154.400000
247.998886	154.440000
248.091736	154.740000
248.184570	153.780000
248.277405	153.940000
248.370239	154.660000
248.463074	155.820000
248.555908	156.020000
248.648743	155.960000
248.741592	156.080000
248.834427	155.440000
248.927261	154.020000
249.020111	154.340000
249.112946	155.000000
249.205795	154.920000
249.298630	154.920000
249.391495	155.300000
249.484344	155.040000
249.577179	154.940000
249.670029	155.060000
249.762878	155.680000
249.855728	155.960000
249.948563	156.080000
250.041412	155.180000
250.134262	155.360000
250.227112	155.080000
250.319962	155.180000
250.412827	154.840000
250.505692	154.880000
250.598541	155.040000
250.691391	154.640000
250.784241	154.480000
250.877106	154.700000
250.969955	154.980000
251.062805	155.140000
251.155670	156.060000
251.248520	155.660000
251.341385	156.000000
251.434235	155.900000
251.527100	155.540000
251.619965	154.740000
251.712814	155.740000
251.805695	155.440000
251.898560	155.760000
251.991425	155.880000
252.084290	155.780000
252.177155	154.620000
252.270020	154.660000
252.362885	154.140000
252.455750	154.120000
252.548615	154.180000
252.641479	154.380000
252.734360	153.860000
252.827240	153.800000
252.920105	153.960000
253.012970	153.800000
253.105850	153.800000
253.198715	153.680000
253.291595	153.920000
253.384460	153.080000
253.477341	153.180000
253.570221	153.320000
253.663086	153.400000
253.755966	154.480000
253.848846	155.080000
253.941727	155.260000
254.034592	155.300000
254.127472	154.840000
254.220367	154.380000
254.313248	154.160000
254.406128	153.600000
254.499008	154.000000
254.591904	154.800000
254.684784	155.060000
254.777664	155.240000
254.870544	155.380000
254.963440	154.860000
255.056335	154.900000
255.149216	154.440000
255.242111	154.760000
255.334991	155.160000
255.427887	155.440000
255.520767	155.520000
255.613663	155.620000
255.706558	155.160000
255.799438	154.860000
255.892334	154.720000
255.985229	154.600000
256.078125	154.420000
256.171021	154.680000
256.263916	155.140000
256.356812	155.300000
256.449707	155.440000
256.542603	155.040000
256.635498	155.240000
256.728394	155.240000
256.821289	154.800000
256.914215	154.980000
257.007080	155.400000
257.100006	155.380000
257.192932	155.400000
257.285828	155.800000
257.378723	155.160000
257.471619	154.920000
257.564545	154.280000
257.657440	154.520000
257.750336	155.080000
257.843262	155.220000
257.936157	156.500000
258.029053	156.840000
258.121979	156.580000
258.214874	156.000000
258.307800	156.000000
258.400696	154.800000
258.493622	154.900000
258.586517	153.780000
258.679443	154.020000
258.772339	153.720000
258.865265	153.640000
258.958160	153.080000
259.051086	154.600000
259.144012	154.460000
259.236938	155.380000
259.329834	155.560000
259.422791	155.680000
259.515717	154.640000
259.608612	154.300000
259.701538	153.980000
259.794464	153.820000
259.887390	154.180000
259.980316	154.460000
260.073212	154.140000
260.166138	153.460000
260.259064	153.980000
260.351990	154.440000
260.444916	154.500000
260.537842	155.080000
260.630768	155.940000
260.723694	155.720000
260.816620	155.180000
260.909546	155.440000
261.002472	155.340000
261.095398	154.780000
261.188354	154.820000
261.281281	154.560000
261.374207	154.300000
261.467133	155.160000
261.560089	155.480000
261.653015	154.820000
261.745972	155.760000
261.838867	156.240000
261.931824	155.960000
262.024780	155.400000
262.117706	156.060000
262.210663	155.720000
262.303589	155.560000
262.396515	155.480000
262.489471	156.460000
262.582397	156.280000
262.675354	155.740000
262.768280	155.620000
262.861237	155.480000
262.954163	155.380000
263.047119	155.480000
263.140045	155.600000
263.233002	155.480000
263.325958	155.340000
263.418884	154.440000
263.511841	154.460000
263.604797	154.080000
263.697723	154.060000
263.790680	154.140000
263.883636	154.860000
263.976593	154.480000
264.069550	154.960000
264.162476	154.760000
264.255463	154.520000
264.348419	154.100000
264.441376	154.540000
264.534332	154.040000
264.627289	154.280000
264.720245	154.760000
264.813202	154.540000
264.906158	154.640000
264.999115	155.340000
265.092072	155.080000
265.185028	155.260000
265.277985	155.820000
265.370941	155.760000
265.463898	155.480000
265.556854	155.600000
265.649811	154.640000
265.742798	154.440000
265.835754	154.180000
265.928711	154.740000
266.021667	154.880000
266.114655	155.640000
266.207611	155.840000
266.300568	155.660000
266.393585	154.980000
266.486511	155.120000
266.579498	153.940000
266.672485	153.660000
266.765442	153.480000
266.858429	154.060000
266.951385	153.480000
267.044342	154.080000
267.137329	154.000000
267.230316	154.600000
267.323273	153.940000
267.416260	154.940000
267.509216	155.000000
267.602203	155.100000
267.695160	155.280000
267.788147	155.140000
267.881134	154.640000
267.974091	154.720000
268.067078	154.420000
268.160065	154.280000
268.253052	154.800000
268.346008	154.740000
268.438995	154.540000
268.531982	154.920000
268.624969	154.400000
268.717987	154.320000
268.810944	153.900000
268.903961	154.040000
268.996948	153.620000
269.089905	154.200000
269.182892	154.340000
269.275879	154.800000
269.368866	154.140000
269.461853	154.680000
269.554871	154.180000
269.647858	154.180000
269.740845	154.200000
269.833832	155.180000
269.926819	154.780000
270.019806	155.120000
270.112793	154.600000
270.205811	154.880000
270.298798	154.460000
270.391785	155.200000
270.484772	155.020000
270.577789	155.360000
270.670776	154.880000
270.763763	154.740000
270.856750	154.060000
270.949768	153.700000
271.042786	153.820000
271.135773	154.000000
271.228790	154.460000
271.321808	154.200000
271.414795	153.980000
271.507782	153.720000
271.600800	153.360000
271.693817	153.280000
271.786804	154.100000
271.879822	154.480000
271.972809	154.420000
272.065826	155.140000
272.158844	154.520000
272.251831	154.840000
272.344849	154.880000
272.437866	154.760000
272.530853	154.540000
272.623871	154.900000
272.716888	153.700000
272.809906	154.220000
272.902893	154.200000
272.995911	153.680000
273.088928	153.660000
273.181946	154.200000
273.274963	153.400000
273.367981	153.400000
273.460999	153.740000
273.554047	154.380000
273.647003	154.860000
273.740051	155.280000
273.833069	155.900000
273.926086	155.820000
274.019135	155.380000
274.112152	154.960000
274.205170	154.980000
274.298187	155.300000
274.391205	154.900000
274.484222	154.780000
274.577240	154.800000
274.670258	154.960000
274.763306	154.120000
274.856323	154.920000
274.949341	154.900000
275.042358	154.900000
275.135406	154.680000
275.228424	154.720000
275.321442	154.500000
275.414490	154.200000
275.507507	154.520000
275.600525	154.920000
275.693573	154.920000
275.786591	154.420000
275.879669	154.880000
275.972656	154.540000
276.065735	153.960000
276.158752	154.580000
276.251801	155.380000
276.344818	155.320000
276.437866	155.340000
276.530884	155.420000
276.623932	154.220000
276.716980	154.120000
276.809998	154.240000
276.903046	154.240000
276.996094	155.220000
277.089111	156.280000
277.182159	156.980000
277.275208	156.640000
277.368256	157.080000
277.461304	156.420000
277.554321	155.720000
277.647369	154.940000
277.740417	155.220000
277.833466	154.720000
277.926514	154.420000
278.019562	155.120000
278.112610	154.760000
278.205688	154.520000
278.298706	154.620000
278.391785	154.480000
278.484833	153.660000
278.577881	153.480000
278.670929	153.840000
278.763977	153.960000
278.857025	154.580000
278.950073	154.920000
279.043121	155.040000
279.136169	154.780000
279.229248	154.180000
279.322296	153.880000
279.415344	153.860000
279.508392	153.760000
279.601440	153.700000
279.694519	153.980000
279.787567	153.920000
279.880615	153.940000
279.973694	154.060000
280.066742	154.300000
280.159790	154.540000
280.252869	154.380000
280.345917	154.440000
280.438995	154.600000
280.532074	154.520000
280.625122	154.600000
280.718201	155.500000
280.811279	155.260000
280.904327	155.040000
280.997406	155.520000
281.090454	155.500000
281.183533	154.860000
281.276581	155.240000
281.369659	154.940000
281.462738	154.340000
281.555786	154.600000
281.648865	154.800000
281.741943	154.460000
281.835022	155.320000
281.928070	155.500000
282.021149	154.820000
282.114227	154.180000
282.207306	154.300000
282.300385	154.500000
282.393433	154.260000
282.486511	154.660000
282.579590	155.380000
282.672668	155.700000
282.765747	154.860000
282.858856	154.980000
282.951904	154.800000
283.045013	154.840000
283.138062	154.680000
283.231171	155.040000
283.324249	155.420000
283.417328	155.560000
283.510406	155.000000
283.603485	154.940000
283.696564	155.120000
283.789642	155.080000
283.882751	155.040000
283.975830	155.860000
284.068909	155.480000
284.161987	155.800000
284.255066	154.920000
284.348175	155.080000
284.441254	154.720000
284.534332	155.420000
284.627441	154.560000
284.720520	154.660000
284.813599	154.360000
284.906708	154.240000
284.999786	153.520000
285.092896	153.520000
285.185974	154.940000
285.279053	154.540000
285.372192	154.540000
285.465240	155.480000
285.558380	155.760000
285.651459	155.020000
285.744568	156.160000
285.837677	156.000000
285.930756	155.780000
286.023865	155.640000
286.116943	155.260000
286.210052	154.980000
286.303162	154.940000
286.396240	154.460000
286.489349	154.320000
286.582458	154.600000
286.675568	154.200000
286.768646	154.420000
286.861755	154.820000
286.954865	155.440000
287.047974	154.960000
287.141083	154.760000
287.234161	154.420000
287.327271	154.020000
287.420380	154.420000
287.513519	154.680000
287.606598	154.940000
287.699738	155.120000
287.792816	155.420000
287.885956	154.840000
287.979034	154.580000
288.072174	154.580000
288.165283	154.440000
288.258392	154.580000
288.351501	153.920000
288.444611	154.300000
288.537720	154.500000
288.630859	154.420000
288.723969	154.440000
288.817078	155.120000
288.910187	155.200000
289.003296	154.640000
289.096436	154.620000
289.189545	154.340000
289.282654	153.800000
289.375763	154.180000
289.468903	154.740000
289.562012	155.220000
289.655121	155.220000
289.748260	155.920000
289.841400	155.760000
289.934509	155.560000
290.027649	155.420000
290.120728	155.340000
290.213898	155.040000
290.306976	154.780000
290.400146	155.140000
290.493256	154.720000
290.586395	154.960000
290.679535	155.140000
290.772644	155.300000
290.865784	154.560000
290.958893	154.760000
291.052032	154.500000
291.145172	154.680000
291.238281	154.160000
291.331421	154.180000
291.424561	154.740000
291.517670	154.580000
291.610809	154.420000
291.703949	154.540000
291.797089	154.920000
291.890228	154.020000
291.983337	154.060000
292.076477	153.820000
292.169617	153.980000
292.262756	153.980000
292.355927	154.240000
292.449036	153.980000
292.542206	153.980000
292.635315	154.220000
292.728485	154.540000
292.821625	154.220000
292.914764	155.860000
293.007904	156.180000
293.101044	156.140000
293.194183	155.860000
293.287323	156.260000
293.380463	155.120000
293.473602	154.520000
293.566742	154.580000
293.659882	155.000000
293.753021	155.240000
293.846191	155.300000
293.939331	155.360000
294.032471	154.960000
294.125610	154.440000
294.218781	154.520000
294.311920	154.740000
294.405060	154.960000
294.498230	155.200000
294.591370	155.040000
294.684540	154.400000
294.777679	154.020000
294.870850	154.260000
294.963959	153.900000
295.057159	153.960000
295.150299	154.580000
295.243469	154.500000
295.336609	153.800000
295.429779	153.940000
295.522919	154.220000
295.616089	154.200000
295.709229	154.780000
295.802399	155.140000
295.895569	155.080000
295.988708	155.000000
296.081879	154.900000
296.175018	154.200000
296.268188	154.340000
296.361359	154.980000
296.454529	155.200000
296.547668	155.120000
296.640839	155.800000
296.734009	155.300000
296.827179	155.140000
296.920319	155.200000
297.013519	154.920000
297.106659	155.080000
297.199860	155.140000
297.292999	155.060000
297.386200	154.600000
297.479309	154.840000
297.572510	154.420000
297.665680	154.240000
297.758850	154.060000
297.852020	154.000000
297.945190	153.760000
298.038361	153.460000
298.131531	154.900000
298.224701	154.860000
298.317871	154.440000
298.411072	154.100000
298.504242	153.940000
298.597412	153.080000
298.690582	153.280000
298.783752	153.520000
298.876923	154.100000
298.970093	154.400000
299.063293	154.800000
299.156464	154.700000
299.249634	155.240000
299.342834	155.100000
299.436005	155.480000
299.529205	155.020000
299.622345	155.500000
299.715576	154.660000
299.808716	154.240000
299.901917	154.040000
299.995117	154.600000
300.088287	154.320000
300.181488	154.580000
300.274658	154.900000
300.367828	155.020000
300.461029	154.760000
300.554199	155.480000
300.647400	155.640000
300.740601	156.240000
300.833771	155.900000
300.926971	156.140000
301.020142	155.200000
301.113342	155.120000
301.206512	154.740000
301.299713	154.940000
301.392914	154.760000
301.486084	154.860000
301.579285	155.080000
301.672516	155.460000
301.765686	155.060000
301.858887	154.660000
301.952057	154.880000
302.045288	154.760000
302.138458	154.300000
302.231659	154.240000
302.324860	154.520000
302.418060	154.120000
302.511261	154.100000
302.604462	154.320000
302.697662	154.420000
302.790863	154.420000
302.884064	154.100000
302.977264	154.160000
303.070465	154.180000
303.163666	155.060000
303.256866	155.140000
303.350067	155.240000
303.443268	155.580000
303.536469	155.720000
303.629669	155.080000
303.722870	155.160000
303.816071	155.140000
303.909271	154.780000
304.002472	153.820000
304.095673	153.660000
304.188934	152.780000
304.282104	154.020000
304.375336	154.080000
304.468506	154.320000
304.561768	154.440000
304.654968	155.100000
304.748169	154.020000
304.841370	153.760000
304.934601	154.360000
305.027802	153.700000
305.121002	153.140000
305.214233	153.380000
305.307434	153.700000
305.400665	154.180000
305.493866	154.460000
