Model Number: SPM-002-B   
Serial Number: 70087108
Firmware Version: 004.15.4
Exposure Time: 100000.000000us
Data Taken on: 15-01-2021 17:49:49.734
Wavelength	Amplitude
221.570786	0.000000
221.663406	0.000000
221.756027	0.000000
221.848648	0.000000
221.941269	0.000000
222.033905	0.000000
222.126526	0.000000
222.219162	0.000000
222.311798	0.000000
222.404419	0.000000
222.497055	0.000000
222.589676	0.000000
222.682312	0.000000
222.774933	0.000000
222.867569	0.000000
222.960205	0.000000
223.052841	0.000000
223.145462	0.000000
223.238098	0.000000
223.330734	0.000000
223.423386	0.000000
223.516022	0.000000
223.608658	0.000000
223.701309	0.000000
223.793945	0.000000
223.886581	0.000000
223.979218	0.000000
224.071869	0.000000
224.164505	0.000000
224.257156	0.000000
224.349792	0.000000
224.442444	0.000000
224.535095	0.000000
224.627747	0.000000
224.720398	0.000000
224.813034	0.000000
224.905685	0.000000
224.998337	154.080000
225.090988	153.960000
225.183640	154.060000
225.276291	154.000000
225.368942	154.380000
225.461594	154.640000
225.554245	155.040000
225.646912	155.160000
225.739578	155.580000
225.832230	156.020000
225.924896	155.520000
226.017548	155.700000
226.110199	156.040000
226.202866	155.060000
226.295532	155.000000
226.388184	154.840000
226.480850	154.100000
226.573517	153.580000
226.666168	154.080000
226.758835	154.000000
226.851501	154.600000
226.944183	154.980000
227.036850	154.520000
227.129517	154.600000
227.222183	154.780000
227.314850	154.860000
227.407516	154.980000
227.500198	156.080000
227.592865	155.820000
227.685532	155.340000
227.778214	154.920000
227.870880	155.240000
227.963562	155.260000
228.056229	155.620000
228.148926	155.920000
228.241592	156.740000
228.334274	156.300000
228.426956	156.100000
228.519638	155.820000
228.612305	155.060000
228.704987	154.780000
228.797668	154.840000
228.890350	154.260000
228.983032	153.900000
229.075714	154.860000
229.168396	154.580000
229.261108	154.240000
229.353790	154.680000
229.446472	155.240000
229.539169	154.800000
229.631851	154.340000
229.724533	154.500000
229.817230	154.620000
229.909912	155.460000
230.002609	155.540000
230.095306	155.700000
230.187988	155.880000
230.280685	155.420000
230.373383	154.000000
230.466095	153.900000
230.558792	154.080000
230.651474	153.880000
230.744171	154.180000
230.836868	154.180000
230.929581	154.320000
231.022278	154.420000
231.114975	154.660000
231.207672	154.520000
231.300369	155.040000
231.393082	155.160000
231.485779	155.040000
231.578506	154.640000
231.671204	154.480000
231.763916	154.480000
231.856613	154.440000
231.949326	154.660000
232.042023	154.820000
232.134735	155.120000
232.227448	154.760000
232.320160	155.320000
232.412872	154.980000
232.505585	155.920000
232.598297	156.060000
232.691010	156.040000
232.783722	154.980000
232.876450	155.820000
232.969162	154.980000
233.061874	154.360000
233.154587	154.060000
233.247314	154.600000
233.340027	153.680000
233.432739	154.100000
233.525467	154.040000
233.618179	154.960000
233.710907	154.520000
233.803635	155.180000
233.896347	154.580000
233.989090	155.160000
234.081818	154.960000
234.174545	155.120000
234.267258	154.520000
234.359985	154.960000
234.452713	154.660000
234.545441	154.240000
234.638168	154.300000
234.730896	154.740000
234.823639	154.560000
234.916367	154.960000
235.009094	155.260000
235.101822	155.260000
235.194580	155.120000
235.287308	155.160000
235.380051	154.680000
235.472778	154.740000
235.565521	155.040000
235.658249	154.680000
235.750992	154.740000
235.843719	154.880000
235.936462	155.200000
236.029205	154.620000
236.121948	154.300000
236.214691	154.800000
236.307449	155.600000
236.400192	155.060000
236.492935	155.220000
236.585678	155.860000
236.678421	155.520000
236.771164	155.000000
236.863907	155.780000
236.956665	156.060000
237.049408	157.820000
237.142151	157.180000
237.234909	157.980000
237.327652	157.740000
237.420410	157.500000
237.513153	156.060000
237.605927	156.520000
237.698669	155.560000
237.791428	154.480000
237.884186	155.060000
237.976944	154.640000
238.069702	154.660000
238.162445	154.380000
238.255203	155.100000
238.347961	155.160000
238.440720	155.240000
238.533478	155.260000
238.626266	155.320000
238.719025	155.460000
238.811783	154.900000
238.904541	155.020000
238.997314	154.980000
239.090073	154.480000
239.182831	154.720000
239.275604	155.780000
239.368362	155.540000
239.461136	155.480000
239.553909	155.920000
239.646667	155.480000
239.739441	154.600000
239.832214	155.080000
239.925003	155.040000
240.017761	155.300000
240.110535	156.060000
240.203308	155.720000
240.296082	155.580000
240.388855	155.600000
240.481628	155.680000
240.574417	155.360000
240.667191	155.620000
240.759964	155.160000
240.852737	154.960000
240.945526	154.460000
241.038315	154.400000
241.131088	154.500000
241.223877	154.920000
241.316650	154.560000
241.409439	155.280000
241.502228	154.740000
241.595001	155.180000
241.687790	154.780000
241.780579	155.160000
241.873367	155.040000
241.966141	155.480000
242.058929	154.620000
242.151718	155.000000
242.244507	155.420000
242.337311	154.720000
242.430099	155.200000
242.522903	155.660000
242.615692	155.100000
242.708481	155.140000
242.801270	155.940000
242.894073	155.360000
242.986862	155.500000
243.079651	156.440000
243.172455	155.920000
243.265244	155.580000
243.358063	155.060000
243.450867	155.120000
243.543655	154.800000
243.636459	155.060000
243.729263	155.700000
243.822067	156.220000
243.914856	156.320000
244.007660	156.140000
244.100464	156.320000
244.193268	155.400000
244.286072	155.320000
244.378876	154.880000
244.471680	154.700000
244.564499	154.800000
244.657318	155.740000
244.750122	156.040000
244.842926	155.820000
244.935745	156.320000
245.028549	156.000000
245.121368	155.520000
245.214172	155.300000
245.306992	155.500000
245.399796	154.740000
245.492615	154.760000
245.585434	154.460000
245.678253	154.560000
245.771072	154.520000
245.863892	155.000000
245.956711	155.200000
246.049530	155.180000
246.142349	154.720000
246.235168	154.840000
246.327988	155.380000
246.420807	154.880000
246.513626	154.820000
246.606445	154.640000
246.699280	154.620000
246.792099	153.680000
246.884918	153.560000
246.977753	153.620000
247.070587	154.180000
247.163422	153.960000
247.256241	154.400000
247.349075	154.740000
247.441895	154.700000
247.534729	154.120000
247.627563	154.260000
247.720383	154.840000
247.813217	154.680000
247.906052	154.660000
247.998886	155.220000
248.091736	155.120000
248.184570	154.460000
248.277405	154.540000
248.370239	155.540000
248.463074	156.540000
248.555908	156.520000
248.648743	156.760000
248.741592	157.060000
248.834427	156.060000
248.927261	154.600000
249.020111	155.340000
249.112946	155.460000
249.205795	155.000000
249.298630	155.400000
249.391495	155.860000
249.484344	155.200000
249.577179	155.220000
249.670029	155.580000
249.762878	155.660000
249.855728	155.740000
249.948563	156.020000
250.041412	155.160000
250.134262	155.220000
250.227112	155.360000
250.319962	155.120000
250.412827	155.080000
250.505692	155.140000
250.598541	155.120000
250.691391	154.640000
250.784241	154.700000
250.877106	154.740000
250.969955	155.020000
251.062805	155.300000
251.155670	155.780000
251.248520	155.800000
251.341385	155.720000
251.434235	155.400000
251.527100	155.000000
251.619965	154.660000
251.712814	155.340000
251.805695	155.160000
251.898560	155.680000
251.991425	156.040000
252.084290	156.020000
252.177155	155.100000
252.270020	154.960000
252.362885	154.720000
252.455750	154.580000
252.548615	154.580000
252.641479	154.640000
252.734360	154.720000
252.827240	154.580000
252.920105	154.620000
253.012970	154.540000
253.105850	154.440000
253.198715	154.340000
253.291595	154.560000
253.384460	154.140000
253.477341	154.080000
253.570221	154.380000
253.663086	153.980000
253.755966	154.600000
253.848846	155.020000
253.941727	155.340000
254.034592	155.120000
254.127472	155.000000
254.220367	154.860000
254.313248	154.580000
254.406128	153.900000
254.499008	154.280000
254.591904	155.320000
254.684784	155.520000
254.777664	155.480000
254.870544	155.540000
254.963440	155.560000
255.056335	155.280000
255.149216	154.820000
255.242111	155.360000
255.334991	155.700000
255.427887	155.720000
255.520767	155.960000
255.613663	156.140000
255.706558	155.360000
255.799438	155.000000
255.892334	154.580000
255.985229	154.500000
256.078125	154.320000
256.171021	154.520000
256.263916	155.320000
256.356812	155.500000
256.449707	155.360000
256.542603	155.140000
256.635498	155.800000
256.728394	155.400000
256.821289	155.200000
256.914215	155.280000
257.007080	155.540000
257.100006	155.260000
257.192932	155.560000
257.285828	155.600000
257.378723	155.220000
257.471619	155.160000
257.564545	154.760000
257.657440	154.680000
257.750336	155.300000
257.843262	155.220000
257.936157	156.400000
258.029053	156.740000
258.121979	156.800000
258.214874	156.200000
258.307800	156.360000
258.400696	155.060000
258.493622	154.860000
258.586517	154.060000
258.679443	154.520000
258.772339	153.880000
258.865265	153.740000
258.958160	153.340000
259.051086	154.600000
259.144012	154.140000
259.236938	155.360000
259.329834	155.620000
259.422791	155.540000
259.515717	154.620000
259.608612	154.460000
259.701538	154.240000
259.794464	153.840000
259.887390	154.140000
259.980316	154.200000
260.073212	154.540000
260.166138	153.600000
260.259064	153.860000
260.351990	154.460000
260.444916	154.420000
260.537842	154.640000
260.630768	155.660000
260.723694	155.680000
260.816620	155.460000
260.909546	155.400000
261.002472	154.920000
261.095398	154.200000
261.188354	154.160000
261.281281	153.960000
261.374207	154.200000
261.467133	154.620000
261.560089	154.920000
261.653015	154.720000
261.745972	155.100000
261.838867	155.440000
261.931824	155.800000
262.024780	155.320000
262.117706	155.660000
262.210663	155.480000
262.303589	155.100000
262.396515	154.920000
262.489471	156.080000
262.582397	155.900000
262.675354	155.300000
262.768280	155.380000
262.861237	155.000000
262.954163	154.700000
263.047119	154.440000
263.140045	154.580000
263.233002	154.500000
263.325958	154.560000
263.418884	153.900000
263.511841	153.960000
263.604797	153.940000
263.697723	153.940000
263.790680	154.120000
263.883636	154.520000
263.976593	154.760000
264.069550	154.940000
264.162476	154.880000
264.255463	154.640000
264.348419	154.900000
264.441376	155.200000
264.534332	154.600000
264.627289	154.320000
264.720245	154.600000
264.813202	153.860000
264.906158	154.060000
264.999115	155.000000
265.092072	155.500000
265.185028	155.800000
265.277985	156.140000
265.370941	155.880000
265.463898	155.460000
265.556854	155.040000
265.649811	154.080000
265.742798	154.000000
265.835754	153.700000
265.928711	154.200000
266.021667	154.660000
266.114655	155.120000
266.207611	155.540000
266.300568	155.360000
266.393585	154.700000
266.486511	154.700000
266.579498	153.980000
266.672485	153.740000
266.765442	153.760000
266.858429	154.420000
266.951385	153.920000
267.044342	154.380000
267.137329	154.320000
267.230316	154.560000
267.323273	153.920000
267.416260	154.660000
267.509216	154.680000
267.602203	154.700000
267.695160	155.320000
267.788147	155.760000
267.881134	154.860000
267.974091	155.260000
268.067078	154.940000
268.160065	154.420000
268.253052	154.280000
268.346008	154.620000
268.438995	154.160000
268.531982	154.720000
268.624969	154.600000
268.717987	154.880000
268.810944	154.840000
268.903961	155.240000
268.996948	154.500000
269.089905	155.040000
269.182892	154.720000
269.275879	155.120000
269.368866	154.660000
269.461853	155.200000
269.554871	154.680000
269.647858	154.880000
269.740845	154.820000
269.833832	155.120000
269.926819	155.080000
270.019806	155.220000
270.112793	154.720000
270.205811	155.020000
270.298798	155.160000
270.391785	155.480000
270.484772	155.080000
270.577789	155.600000
270.670776	155.000000
270.763763	154.720000
270.856750	154.400000
270.949768	154.140000
271.042786	153.960000
271.135773	153.820000
271.228790	154.200000
271.321808	154.140000
271.414795	154.320000
271.507782	154.280000
271.600800	154.260000
271.693817	154.160000
271.786804	154.500000
271.879822	154.860000
271.972809	154.600000
272.065826	155.260000
272.158844	154.580000
272.251831	155.260000
272.344849	155.240000
272.437866	155.320000
272.530853	155.240000
272.623871	155.920000
272.716888	154.360000
272.809906	154.740000
272.902893	154.760000
272.995911	153.940000
273.088928	153.780000
273.181946	154.420000
273.274963	154.040000
273.367981	153.800000
273.460999	154.140000
273.554047	154.520000
273.647003	154.980000
273.740051	154.880000
273.833069	155.480000
273.926086	156.020000
274.019135	155.740000
274.112152	155.560000
274.205170	155.960000
274.298187	156.060000
274.391205	155.280000
274.484222	155.200000
274.577240	154.960000
274.670258	154.480000
274.763306	154.300000
274.856323	155.060000
274.949341	155.020000
275.042358	155.260000
275.135406	155.520000
275.228424	155.760000
275.321442	155.720000
275.414490	155.800000
275.507507	156.120000
275.600525	156.380000
275.693573	156.080000
275.786591	155.460000
275.879669	155.420000
275.972656	154.900000
276.065735	154.520000
276.158752	154.700000
276.251801	155.620000
276.344818	155.960000
276.437866	156.020000
276.530884	155.980000
276.623932	155.300000
276.716980	154.960000
276.809998	154.620000
276.903046	154.620000
276.996094	155.540000
277.089111	156.240000
277.182159	156.680000
277.275208	156.400000
277.368256	156.700000
277.461304	155.960000
277.554321	155.280000
277.647369	154.740000
277.740417	155.160000
277.833466	154.660000
277.926514	154.720000
278.019562	155.520000
278.112610	155.220000
278.205688	155.200000
278.298706	155.620000
278.391785	155.260000
278.484833	154.420000
278.577881	154.440000
278.670929	154.860000
278.763977	154.880000
278.857025	155.600000
278.950073	155.780000
279.043121	155.860000
279.136169	155.320000
279.229248	154.600000
279.322296	154.200000
279.415344	154.120000
279.508392	153.800000
279.601440	153.820000
279.694519	154.200000
279.787567	154.100000
279.880615	154.120000
279.973694	154.400000
280.066742	154.460000
280.159790	154.420000
280.252869	154.200000
280.345917	154.520000
280.438995	154.000000
280.532074	153.660000
280.625122	153.960000
280.718201	154.760000
280.811279	154.540000
280.904327	154.980000
280.997406	155.360000
281.090454	155.240000
281.183533	154.480000
281.276581	154.480000
281.369659	154.320000
281.462738	154.240000
281.555786	154.220000
281.648865	154.540000
281.741943	154.600000
281.835022	155.440000
281.928070	155.400000
282.021149	155.260000
282.114227	154.940000
282.207306	155.220000
282.300385	155.160000
282.393433	155.240000
282.486511	155.420000
282.579590	156.080000
282.672668	156.100000
282.765747	155.480000
282.858856	155.440000
282.951904	155.380000
283.045013	155.260000
283.138062	155.240000
283.231171	155.580000
283.324249	155.900000
283.417328	156.100000
283.510406	155.460000
283.603485	155.240000
283.696564	155.180000
283.789642	155.100000
283.882751	154.700000
283.975830	155.440000
284.068909	155.160000
284.161987	155.720000
284.255066	155.020000
284.348175	155.200000
284.441254	154.840000
284.534332	155.520000
284.627441	154.580000
284.720520	154.500000
284.813599	154.520000
284.906708	154.400000
284.999786	153.600000
285.092896	153.760000
285.185974	155.100000
285.279053	154.660000
285.372192	154.700000
285.465240	155.380000
285.558380	155.300000
285.651459	154.420000
285.744568	155.580000
285.837677	155.320000
285.930756	155.240000
286.023865	155.260000
286.116943	155.160000
286.210052	154.720000
286.303162	154.760000
286.396240	154.640000
286.489349	154.420000
286.582458	154.840000
286.675568	154.160000
286.768646	154.460000
286.861755	154.840000
286.954865	155.760000
287.047974	155.020000
287.141083	155.320000
287.234161	155.440000
287.327271	154.900000
287.420380	154.960000
287.513519	154.800000
287.606598	154.880000
287.699738	154.880000
287.792816	155.180000
287.885956	155.000000
287.979034	155.320000
288.072174	155.460000
288.165283	155.380000
288.258392	155.340000
288.351501	154.560000
288.444611	154.940000
288.537720	155.180000
288.630859	154.940000
288.723969	155.000000
288.817078	155.700000
288.910187	155.800000
289.003296	154.920000
289.096436	154.680000
289.189545	154.560000
289.282654	153.760000
289.375763	153.840000
289.468903	154.480000
289.562012	155.040000
289.655121	154.880000
289.748260	155.660000
289.841400	155.860000
289.934509	155.760000
290.027649	155.840000
290.120728	155.800000
290.213898	155.300000
290.306976	154.720000
290.400146	155.040000
290.493256	154.500000
290.586395	154.640000
290.679535	155.080000
290.772644	155.220000
290.865784	154.460000
290.958893	154.680000
291.052032	154.700000
291.145172	154.820000
291.238281	154.360000
291.331421	154.460000
291.424561	154.980000
291.517670	154.660000
291.610809	154.540000
291.703949	154.900000
291.797089	155.400000
291.890228	154.480000
291.983337	154.480000
292.076477	154.060000
292.169617	154.340000
292.262756	153.940000
292.355927	153.980000
292.449036	153.860000
292.542206	154.080000
292.635315	153.940000
292.728485	154.480000
292.821625	154.520000
292.914764	155.940000
293.007904	156.100000
293.101044	156.280000
293.194183	156.080000
293.287323	156.500000
293.380463	155.560000
293.473602	155.020000
293.566742	154.760000
293.659882	155.020000
293.753021	154.820000
293.846191	154.680000
293.939331	154.760000
294.032471	154.640000
294.125610	154.320000
294.218781	154.880000
294.311920	155.240000
294.405060	155.340000
294.498230	155.520000
294.591370	155.540000
294.684540	154.560000
294.777679	154.180000
294.870850	154.420000
294.963959	154.100000
295.057159	153.880000
295.150299	154.600000
295.243469	154.540000
295.336609	153.960000
295.429779	154.560000
295.522919	155.020000
295.616089	154.680000
295.709229	155.140000
295.802399	155.600000
295.895569	155.060000
295.988708	154.680000
296.081879	155.020000
296.175018	154.620000
296.268188	154.340000
296.361359	154.980000
296.454529	155.100000
296.547668	154.780000
296.640839	154.960000
296.734009	154.720000
296.827179	154.600000
296.920319	154.700000
297.013519	154.640000
297.106659	154.700000
297.199860	154.900000
297.292999	154.560000
297.386200	154.480000
297.479309	154.460000
297.572510	154.500000
297.665680	154.540000
297.758850	154.440000
297.852020	154.260000
297.945190	153.960000
298.038361	153.440000
298.131531	154.540000
298.224701	154.740000
298.317871	154.360000
298.411072	154.080000
298.504242	154.340000
298.597412	153.500000
298.690582	153.820000
298.783752	154.140000
298.876923	155.080000
298.970093	155.080000
299.063293	155.400000
299.156464	155.600000
299.249634	155.960000
299.342834	155.920000
299.436005	156.260000
299.529205	155.980000
299.622345	155.460000
299.715576	154.620000
299.808716	154.400000
299.901917	154.100000
299.995117	154.360000
300.088287	154.500000
300.181488	154.800000
300.274658	154.460000
300.367828	154.640000
300.461029	154.480000
300.554199	154.700000
300.647400	154.900000
300.740601	155.460000
300.833771	155.160000
300.926971	155.560000
301.020142	155.140000
301.113342	154.940000
301.206512	154.960000
301.299713	155.460000
301.392914	154.960000
301.486084	155.240000
301.579285	155.200000
301.672516	155.260000
301.765686	154.580000
301.858887	154.500000
301.952057	154.300000
302.045288	154.520000
302.138458	154.480000
302.231659	154.580000
302.324860	154.720000
302.418060	154.400000
302.511261	154.300000
302.604462	154.400000
302.697662	154.320000
302.790863	154.280000
302.884064	154.480000
302.977264	154.740000
303.070465	154.720000
303.163666	155.900000
303.256866	156.380000
303.350067	156.240000
303.443268	156.240000
303.536469	156.380000
303.629669	155.400000
303.722870	155.180000
303.816071	155.000000
303.909271	154.720000
304.002472	154.140000
304.095673	153.900000
304.188934	153.000000
304.282104	154.300000
304.375336	154.380000
304.468506	154.340000
304.561768	154.520000
304.654968	155.280000
304.748169	154.160000
304.841370	153.940000
304.934601	154.260000
305.027802	154.080000
305.121002	153.720000
305.214233	154.100000
305.307434	154.380000
305.400665	155.000000
305.493866	155.120000
