Model Number: SPM-002-B   
Serial Number: 70087108
Firmware Version: 004.15.4
Exposure Time: 100000.000000us
Data Taken on: 15-01-2021 17:50:03.230
Wavelength	Amplitude
221.570786	0.000000
221.663406	0.000000
221.756027	0.000000
221.848648	0.000000
221.941269	0.000000
222.033905	0.000000
222.126526	0.000000
222.219162	0.000000
222.311798	0.000000
222.404419	0.000000
222.497055	0.000000
222.589676	0.000000
222.682312	0.000000
222.774933	0.000000
222.867569	0.000000
222.960205	0.000000
223.052841	0.000000
223.145462	0.000000
223.238098	0.000000
223.330734	0.000000
223.423386	0.000000
223.516022	0.000000
223.608658	0.000000
223.701309	0.000000
223.793945	0.000000
223.886581	0.000000
223.979218	0.000000
224.071869	0.000000
224.164505	0.000000
224.257156	0.000000
224.349792	0.000000
224.442444	0.000000
224.535095	0.000000
224.627747	0.000000
224.720398	0.000000
224.813034	0.000000
224.905685	0.000000
224.998337	153.920000
225.090988	153.320000
225.183640	153.640000
225.276291	153.680000
225.368942	154.100000
225.461594	154.780000
225.554245	154.980000
225.646912	154.760000
225.739578	155.100000
225.832230	155.500000
225.924896	154.480000
226.017548	155.180000
226.110199	155.840000
226.202866	155.060000
226.295532	154.540000
226.388184	154.660000
226.480850	153.660000
226.573517	153.000000
226.666168	153.260000
226.758835	153.580000
226.851501	154.340000
226.944183	154.740000
227.036850	154.600000
227.129517	154.860000
227.222183	155.180000
227.314850	155.360000
227.407516	155.560000
227.500198	156.420000
227.592865	156.020000
227.685532	155.560000
227.778214	154.960000
227.870880	155.080000
227.963562	155.180000
228.056229	155.820000
228.148926	155.740000
228.241592	156.620000
228.334274	156.180000
228.426956	155.720000
228.519638	155.640000
228.612305	155.160000
228.704987	154.640000
228.797668	154.640000
228.890350	154.300000
228.983032	153.600000
229.075714	154.480000
229.168396	154.200000
229.261108	154.200000
229.353790	154.140000
229.446472	154.680000
229.539169	154.120000
229.631851	153.680000
229.724533	154.000000
229.817230	154.660000
229.909912	155.340000
230.002609	155.580000
230.095306	156.000000
230.187988	156.020000
230.280685	155.520000
230.373383	154.260000
230.466095	154.100000
230.558792	154.280000
230.651474	154.020000
230.744171	154.000000
230.836868	154.100000
230.929581	154.560000
231.022278	154.680000
231.114975	154.960000
231.207672	154.920000
231.300369	155.660000
231.393082	155.660000
231.485779	155.320000
231.578506	155.020000
231.671204	155.280000
231.763916	155.100000
231.856613	154.680000
231.949326	155.100000
232.042023	154.960000
232.134735	154.860000
232.227448	154.640000
232.320160	155.180000
232.412872	155.220000
232.505585	156.000000
232.598297	156.380000
232.691010	156.160000
232.783722	155.080000
232.876450	155.520000
232.969162	155.040000
233.061874	154.180000
233.154587	154.060000
233.247314	154.740000
233.340027	153.840000
233.432739	154.240000
233.525467	154.340000
233.618179	154.740000
233.710907	154.600000
233.803635	155.020000
233.896347	154.740000
233.989090	155.500000
234.081818	155.400000
234.174545	155.740000
234.267258	155.100000
234.359985	155.040000
234.452713	154.860000
234.545441	154.680000
234.638168	154.200000
234.730896	154.740000
234.823639	154.860000
234.916367	154.960000
235.009094	155.060000
235.101822	155.260000
235.194580	155.340000
235.287308	155.480000
235.380051	154.620000
235.472778	155.000000
235.565521	155.320000
235.658249	154.920000
235.750992	154.840000
235.843719	155.180000
235.936462	155.300000
236.029205	154.860000
236.121948	154.540000
236.214691	154.860000
236.307449	155.720000
236.400192	155.100000
236.492935	154.900000
236.585678	155.440000
236.678421	155.360000
236.771164	154.680000
236.863907	155.220000
236.956665	155.620000
237.049408	157.200000
237.142151	156.580000
237.234909	157.680000
237.327652	157.580000
237.420410	157.240000
237.513153	155.920000
237.605927	155.900000
237.698669	154.840000
237.791428	154.120000
237.884186	154.880000
237.976944	154.300000
238.069702	154.640000
238.162445	154.500000
238.255203	154.980000
238.347961	155.040000
238.440720	155.200000
238.533478	155.300000
238.626266	155.100000
238.719025	155.060000
238.811783	154.620000
238.904541	154.520000
238.997314	154.360000
239.090073	154.160000
239.182831	154.460000
239.275604	155.240000
239.368362	155.340000
239.461136	155.460000
239.553909	155.640000
239.646667	155.300000
239.739441	154.520000
239.832214	154.760000
239.925003	154.840000
240.017761	155.660000
240.110535	156.560000
240.203308	156.320000
240.296082	156.480000
240.388855	156.500000
240.481628	156.320000
240.574417	155.840000
240.667191	156.100000
240.759964	155.480000
240.852737	155.120000
240.945526	154.740000
241.038315	154.420000
241.131088	154.580000
241.223877	155.040000
241.316650	154.760000
241.409439	155.020000
241.502228	155.000000
241.595001	155.300000
241.687790	155.100000
241.780579	155.200000
241.873367	155.520000
241.966141	156.080000
242.058929	155.580000
242.151718	155.940000
242.244507	156.420000
242.337311	155.360000
242.430099	155.480000
242.522903	155.700000
242.615692	155.360000
242.708481	155.280000
242.801270	156.000000
242.894073	155.420000
242.986862	155.240000
243.079651	155.540000
243.172455	155.180000
243.265244	155.160000
243.358063	154.720000
243.450867	155.120000
243.543655	154.980000
243.636459	155.000000
243.729263	155.240000
243.822067	155.520000
243.914856	155.600000
244.007660	155.520000
244.100464	155.640000
244.193268	155.060000
244.286072	154.960000
244.378876	154.320000
244.471680	154.440000
244.564499	154.920000
244.657318	155.980000
244.750122	156.600000
244.842926	155.900000
244.935745	156.100000
245.028549	155.480000
245.121368	154.680000
245.214172	154.320000
245.306992	155.640000
245.399796	155.300000
245.492615	155.380000
245.585434	155.360000
245.678253	155.700000
245.771072	155.280000
245.863892	155.760000
245.956711	156.100000
246.049530	155.840000
246.142349	155.440000
246.235168	155.480000
246.327988	155.800000
246.420807	155.360000
246.513626	155.680000
246.606445	155.200000
246.699280	155.340000
246.792099	154.940000
246.884918	154.680000
246.977753	154.140000
247.070587	154.580000
247.163422	154.320000
247.256241	154.360000
247.349075	154.960000
247.441895	155.460000
247.534729	155.340000
247.627563	155.500000
247.720383	155.740000
247.813217	155.500000
247.906052	155.360000
247.998886	155.580000
248.091736	155.260000
248.184570	154.660000
248.277405	154.660000
248.370239	155.700000
248.463074	156.480000
248.555908	157.020000
248.648743	156.840000
248.741592	157.200000
248.834427	156.140000
248.927261	155.040000
249.020111	155.260000
249.112946	155.900000
249.205795	155.320000
249.298630	155.600000
249.391495	155.700000
249.484344	154.860000
249.577179	154.940000
249.670029	155.280000
249.762878	155.880000
249.855728	156.120000
249.948563	156.280000
250.041412	155.360000
250.134262	155.560000
250.227112	155.440000
250.319962	155.340000
250.412827	155.360000
250.505692	155.200000
250.598541	155.220000
250.691391	154.760000
250.784241	154.860000
250.877106	155.260000
250.969955	155.360000
251.062805	155.400000
251.155670	155.780000
251.248520	155.840000
251.341385	156.140000
251.434235	156.420000
251.527100	156.180000
251.619965	155.600000
251.712814	156.260000
251.805695	155.800000
251.898560	156.000000
251.991425	156.200000
252.084290	156.240000
252.177155	155.240000
252.270020	155.180000
252.362885	154.900000
252.455750	154.680000
252.548615	154.960000
252.641479	155.100000
252.734360	154.940000
252.827240	154.720000
252.920105	154.920000
253.012970	154.700000
253.105850	154.540000
253.198715	154.400000
253.291595	154.720000
253.384460	154.460000
253.477341	154.000000
253.570221	154.340000
253.663086	154.180000
253.755966	154.800000
253.848846	154.680000
253.941727	155.140000
254.034592	155.020000
254.127472	154.860000
254.220367	154.740000
254.313248	155.100000
254.406128	154.580000
254.499008	154.940000
254.591904	155.980000
254.684784	156.160000
254.777664	156.460000
254.870544	156.480000
254.963440	155.980000
255.056335	155.680000
255.149216	155.400000
255.242111	155.500000
255.334991	156.020000
255.427887	156.320000
255.520767	156.280000
255.613663	156.260000
255.706558	155.260000
255.799438	154.960000
255.892334	154.680000
255.985229	154.680000
256.078125	154.300000
256.171021	154.860000
256.263916	155.480000
256.356812	156.040000
256.449707	156.040000
256.542603	155.900000
256.635498	156.260000
256.728394	155.820000
256.821289	155.280000
256.914215	155.520000
257.007080	155.980000
257.100006	155.900000
257.192932	156.320000
257.285828	156.540000
257.378723	156.180000
257.471619	155.840000
257.564545	155.000000
257.657440	154.740000
257.750336	155.320000
257.843262	155.140000
257.936157	156.240000
258.029053	157.020000
258.121979	157.140000
258.214874	156.540000
258.307800	156.440000
258.400696	155.240000
258.493622	155.120000
258.586517	154.420000
258.679443	154.700000
258.772339	154.360000
258.865265	154.520000
258.958160	153.760000
259.051086	154.880000
259.144012	154.500000
259.236938	155.620000
259.329834	155.440000
259.422791	155.700000
259.515717	155.020000
259.608612	154.740000
259.701538	154.460000
259.794464	154.580000
259.887390	154.840000
259.980316	154.580000
260.073212	154.580000
260.166138	153.680000
260.259064	154.120000
260.351990	154.420000
260.444916	154.760000
260.537842	155.180000
260.630768	156.160000
260.723694	155.920000
260.816620	155.720000
260.909546	155.520000
261.002472	155.260000
261.095398	154.520000
261.188354	154.420000
261.281281	154.020000
261.374207	154.300000
261.467133	154.920000
261.560089	155.300000
261.653015	155.040000
261.745972	155.960000
261.838867	156.100000
261.931824	156.400000
262.024780	155.940000
262.117706	156.540000
262.210663	156.280000
262.303589	156.240000
262.396515	155.960000
262.489471	156.860000
262.582397	156.520000
262.675354	155.940000
262.768280	155.880000
262.861237	155.800000
262.954163	156.000000
263.047119	156.120000
263.140045	156.020000
263.233002	155.880000
263.325958	155.760000
263.418884	154.780000
263.511841	154.660000
263.604797	154.860000
263.697723	155.000000
263.790680	154.620000
263.883636	155.220000
263.976593	155.140000
264.069550	155.440000
264.162476	154.820000
264.255463	155.100000
264.348419	154.900000
264.441376	155.240000
264.534332	154.440000
264.627289	154.720000
264.720245	155.140000
264.813202	154.700000
264.906158	154.720000
264.999115	155.800000
265.092072	156.020000
265.185028	156.300000
265.277985	156.660000
265.370941	156.580000
265.463898	156.080000
265.556854	155.940000
265.649811	154.880000
265.742798	154.800000
265.835754	154.660000
265.928711	155.280000
266.021667	155.120000
266.114655	155.740000
266.207611	155.960000
266.300568	155.380000
266.393585	154.500000
266.486511	154.820000
266.579498	153.720000
266.672485	153.520000
266.765442	153.480000
266.858429	154.080000
266.951385	153.960000
267.044342	154.400000
267.137329	154.400000
267.230316	154.940000
267.323273	154.300000
267.416260	154.900000
267.509216	154.860000
267.602203	154.720000
267.695160	155.320000
267.788147	155.480000
267.881134	154.720000
267.974091	155.160000
268.067078	155.240000
268.160065	154.720000
268.253052	154.740000
268.346008	154.940000
268.438995	154.680000
268.531982	154.760000
268.624969	154.320000
268.717987	154.760000
268.810944	154.480000
268.903961	154.760000
268.996948	154.400000
269.089905	155.180000
269.182892	155.280000
269.275879	155.920000
269.368866	155.040000
269.461853	155.540000
269.554871	155.360000
269.647858	154.760000
269.740845	154.960000
269.833832	155.640000
269.926819	155.160000
270.019806	155.240000
270.112793	154.920000
270.205811	155.020000
270.298798	154.740000
270.391785	155.440000
270.484772	154.900000
270.577789	155.240000
270.670776	154.300000
270.763763	154.460000
270.856750	154.240000
270.949768	154.040000
271.042786	154.240000
271.135773	154.340000
271.228790	154.740000
271.321808	154.640000
271.414795	154.740000
271.507782	154.420000
271.600800	154.520000
271.693817	154.220000
271.786804	154.580000
271.879822	155.040000
271.972809	155.080000
272.065826	155.540000
272.158844	155.240000
272.251831	155.780000
272.344849	155.620000
272.437866	155.280000
272.530853	155.180000
272.623871	155.660000
272.716888	154.340000
272.809906	154.720000
272.902893	154.860000
272.995911	154.220000
273.088928	153.980000
273.181946	154.380000
273.274963	153.800000
273.367981	153.980000
273.460999	154.460000
273.554047	155.000000
273.647003	155.800000
273.740051	155.920000
273.833069	156.480000
273.926086	156.560000
274.019135	156.060000
274.112152	155.380000
274.205170	155.880000
274.298187	155.920000
274.391205	155.340000
274.484222	155.520000
274.577240	155.300000
274.670258	154.720000
274.763306	154.560000
274.856323	155.220000
274.949341	155.380000
275.042358	156.020000
275.135406	156.040000
275.228424	156.060000
275.321442	155.780000
275.414490	155.220000
275.507507	155.460000
275.600525	155.700000
275.693573	155.300000
275.786591	154.820000
275.879669	155.060000
275.972656	154.140000
276.065735	154.280000
276.158752	155.080000
276.251801	155.880000
276.344818	156.220000
276.437866	156.780000
276.530884	156.160000
276.623932	155.240000
276.716980	155.440000
276.809998	155.280000
276.903046	155.060000
276.996094	156.200000
277.089111	157.020000
277.182159	157.120000
277.275208	156.740000
277.368256	156.900000
277.461304	156.400000
277.554321	155.500000
277.647369	155.500000
277.740417	155.680000
277.833466	155.420000
277.926514	155.300000
278.019562	156.380000
278.112610	155.700000
278.205688	155.860000
278.298706	156.000000
278.391785	155.740000
278.484833	154.680000
278.577881	154.480000
278.670929	154.580000
278.763977	154.660000
278.857025	155.120000
278.950073	155.400000
279.043121	155.400000
279.136169	155.480000
279.229248	155.000000
279.322296	155.220000
279.415344	155.260000
279.508392	155.360000
279.601440	155.180000
279.694519	155.420000
279.787567	154.880000
279.880615	154.560000
279.973694	154.640000
280.066742	154.560000
280.159790	154.540000
280.252869	154.280000
280.345917	154.500000
280.438995	154.400000
280.532074	154.320000
280.625122	154.480000
280.718201	155.300000
280.811279	155.360000
280.904327	155.160000
280.997406	155.620000
281.090454	156.140000
281.183533	155.480000
281.276581	155.400000
281.369659	155.560000
281.462738	155.160000
281.555786	154.620000
281.648865	155.080000
281.741943	155.280000
281.835022	156.180000
281.928070	156.000000
282.021149	155.800000
282.114227	155.480000
282.207306	155.180000
282.300385	154.940000
282.393433	155.180000
282.486511	155.320000
282.579590	155.900000
282.672668	156.280000
282.765747	155.500000
282.858856	155.000000
282.951904	155.040000
283.045013	154.840000
283.138062	154.960000
283.231171	155.500000
283.324249	155.980000
283.417328	156.360000
283.510406	155.880000
283.603485	155.680000
283.696564	155.440000
283.789642	155.560000
283.882751	154.940000
283.975830	155.580000
284.068909	155.360000
284.161987	155.960000
284.255066	155.400000
284.348175	155.580000
284.441254	154.940000
284.534332	155.160000
284.627441	154.860000
284.720520	154.660000
284.813599	154.340000
284.906708	154.780000
284.999786	154.060000
285.092896	153.460000
285.185974	154.760000
285.279053	154.880000
285.372192	154.600000
285.465240	155.440000
285.558380	155.580000
285.651459	155.060000
285.744568	155.700000
285.837677	155.620000
285.930756	155.700000
286.023865	155.900000
286.116943	155.340000
286.210052	155.200000
286.303162	155.160000
286.396240	155.120000
286.489349	154.660000
286.582458	155.280000
286.675568	154.800000
286.768646	154.760000
286.861755	154.960000
286.954865	155.880000
287.047974	155.280000
287.141083	155.420000
287.234161	155.260000
287.327271	154.780000
287.420380	155.100000
287.513519	155.120000
287.606598	155.500000
287.699738	155.800000
287.792816	155.780000
287.885956	155.280000
287.979034	155.220000
288.072174	155.000000
288.165283	154.860000
288.258392	155.120000
288.351501	154.440000
288.444611	154.720000
288.537720	155.240000
288.630859	155.200000
288.723969	155.140000
288.817078	156.020000
288.910187	155.860000
289.003296	155.240000
289.096436	154.920000
289.189545	154.780000
289.282654	153.700000
289.375763	154.220000
289.468903	154.580000
289.562012	155.160000
289.655121	155.180000
289.748260	155.380000
289.841400	155.400000
289.934509	155.040000
290.027649	155.220000
290.120728	155.140000
290.213898	155.580000
290.306976	155.440000
290.400146	155.660000
290.493256	154.880000
290.586395	155.060000
290.679535	154.940000
290.772644	155.000000
290.865784	154.160000
290.958893	154.520000
291.052032	154.120000
291.145172	154.020000
291.238281	153.560000
291.331421	154.000000
291.424561	154.480000
291.517670	154.400000
291.610809	154.720000
291.703949	154.500000
291.797089	154.780000
291.890228	154.140000
291.983337	154.220000
292.076477	153.940000
292.169617	154.520000
292.262756	154.100000
292.355927	154.220000
292.449036	154.100000
292.542206	154.180000
292.635315	154.300000
292.728485	155.140000
292.821625	155.040000
292.914764	156.380000
293.007904	156.540000
293.101044	156.240000
293.194183	155.360000
293.287323	155.340000
293.380463	154.400000
293.473602	154.180000
293.566742	154.440000
293.659882	155.380000
293.753021	155.800000
293.846191	155.680000
293.939331	155.220000
294.032471	154.900000
294.125610	154.020000
294.218781	154.340000
294.311920	154.700000
294.405060	155.220000
294.498230	155.380000
294.591370	155.740000
294.684540	154.760000
294.777679	154.420000
294.870850	154.580000
294.963959	154.600000
295.057159	154.460000
295.150299	155.140000
295.243469	155.120000
295.336609	154.480000
295.429779	154.320000
295.522919	154.600000
295.616089	154.680000
295.709229	155.260000
295.802399	155.600000
295.895569	155.340000
295.988708	155.080000
296.081879	154.940000
296.175018	154.280000
296.268188	154.420000
296.361359	154.940000
296.454529	155.360000
296.547668	155.100000
296.640839	155.740000
296.734009	155.500000
296.827179	155.600000
296.920319	155.720000
297.013519	155.460000
297.106659	155.220000
297.199860	155.340000
297.292999	155.040000
297.386200	154.500000
297.479309	154.700000
297.572510	154.660000
297.665680	154.300000
297.758850	154.320000
297.852020	154.400000
297.945190	154.560000
298.038361	154.040000
298.131531	155.100000
298.224701	154.860000
298.317871	154.360000
298.411072	153.640000
298.504242	153.920000
298.597412	153.220000
298.690582	153.700000
298.783752	154.200000
298.876923	154.820000
298.970093	154.840000
299.063293	155.220000
299.156464	155.440000
299.249634	155.660000
299.342834	155.800000
299.436005	156.060000
299.529205	155.820000
299.622345	155.660000
299.715576	154.860000
299.808716	154.580000
299.901917	154.660000
299.995117	154.700000
300.088287	154.700000
300.181488	154.880000
300.274658	154.780000
300.367828	154.640000
300.461029	154.860000
300.554199	155.120000
300.647400	155.000000
300.740601	155.720000
300.833771	155.580000
300.926971	155.500000
301.020142	155.140000
301.113342	155.520000
301.206512	155.360000
301.299713	155.500000
301.392914	155.480000
301.486084	155.700000
301.579285	155.360000
301.672516	155.840000
301.765686	155.560000
301.858887	155.520000
301.952057	155.300000
302.045288	155.780000
302.138458	155.100000
302.231659	155.300000
302.324860	155.320000
302.418060	154.920000
302.511261	154.720000
302.604462	155.240000
302.697662	154.940000
302.790863	154.760000
302.884064	154.600000
302.977264	154.620000
303.070465	154.380000
303.163666	155.200000
303.256866	155.680000
303.350067	156.020000
303.443268	156.280000
303.536469	156.560000
303.629669	155.800000
303.722870	155.500000
303.816071	155.320000
303.909271	155.200000
304.002472	154.100000
304.095673	154.100000
304.188934	153.620000
304.282104	154.840000
304.375336	154.620000
304.468506	154.840000
304.561768	154.640000
304.654968	154.900000
304.748169	154.080000
304.841370	154.120000
304.934601	154.600000
305.027802	154.640000
305.121002	154.420000
305.214233	154.300000
305.307434	154.260000
305.400665	154.800000
305.493866	154.740000
