Model Number: SPM-002-B   
Serial Number: 70087108
Firmware Version: 004.15.4
Exposure Time: 100000.000000us
Data Taken on: 15-01-2021 17:49:59.058
Wavelength	Amplitude
221.570786	0.000000
221.663406	0.000000
221.756027	0.000000
221.848648	0.000000
221.941269	0.000000
222.033905	0.000000
222.126526	0.000000
222.219162	0.000000
222.311798	0.000000
222.404419	0.000000
222.497055	0.000000
222.589676	0.000000
222.682312	0.000000
222.774933	0.000000
222.867569	0.000000
222.960205	0.000000
223.052841	0.000000
223.145462	0.000000
223.238098	0.000000
223.330734	0.000000
223.423386	0.000000
223.516022	0.000000
223.608658	0.000000
223.701309	0.000000
223.793945	0.000000
223.886581	0.000000
223.979218	0.000000
224.071869	0.000000
224.164505	0.000000
224.257156	0.000000
224.349792	0.000000
224.442444	0.000000
224.535095	0.000000
224.627747	0.000000
224.720398	0.000000
224.813034	0.000000
224.905685	0.000000
224.998337	154.300000
225.090988	153.820000
225.183640	153.780000
225.276291	153.620000
225.368942	153.840000
225.461594	154.800000
225.554245	155.320000
225.646912	155.600000
225.739578	156.120000
225.832230	156.600000
225.924896	155.740000
226.017548	156.140000
226.110199	156.560000
226.202866	155.960000
226.295532	155.640000
226.388184	155.640000
226.480850	154.920000
226.573517	154.360000
226.666168	154.500000
226.758835	154.860000
226.851501	155.340000
226.944183	155.480000
227.036850	155.140000
227.129517	155.240000
227.222183	155.020000
227.314850	154.760000
227.407516	154.920000
227.500198	155.940000
227.592865	155.480000
227.685532	155.180000
227.778214	155.020000
227.870880	155.200000
227.963562	155.400000
228.056229	156.340000
228.148926	156.420000
228.241592	157.280000
228.334274	156.840000
228.426956	156.420000
228.519638	155.900000
228.612305	155.360000
228.704987	155.020000
228.797668	155.320000
228.890350	154.940000
228.983032	154.420000
229.075714	155.220000
229.168396	154.920000
229.261108	154.480000
229.353790	154.720000
229.446472	155.100000
229.539169	155.020000
229.631851	154.660000
229.724533	154.820000
229.817230	154.760000
229.909912	155.940000
230.002609	155.840000
230.095306	155.920000
230.187988	156.260000
230.280685	155.900000
230.373383	154.520000
230.466095	154.260000
230.558792	154.680000
230.651474	154.120000
230.744171	154.240000
230.836868	154.200000
230.929581	154.620000
231.022278	154.460000
231.114975	154.980000
231.207672	154.900000
231.300369	155.400000
231.393082	155.380000
231.485779	155.020000
231.578506	154.900000
231.671204	155.120000
231.763916	155.000000
231.856613	154.800000
231.949326	154.960000
232.042023	154.740000
232.134735	154.680000
232.227448	154.040000
232.320160	154.240000
232.412872	154.580000
232.505585	155.520000
232.598297	156.020000
232.691010	156.400000
232.783722	156.120000
232.876450	156.520000
232.969162	155.460000
233.061874	154.500000
233.154587	154.460000
233.247314	154.760000
233.340027	154.040000
233.432739	154.920000
233.525467	155.100000
233.618179	155.620000
233.710907	155.340000
233.803635	155.760000
233.896347	155.260000
233.989090	156.080000
234.081818	155.740000
234.174545	156.000000
234.267258	155.600000
234.359985	155.660000
234.452713	155.040000
234.545441	154.840000
234.638168	154.760000
234.730896	155.200000
234.823639	155.080000
234.916367	155.620000
235.009094	155.680000
235.101822	155.480000
235.194580	155.140000
235.287308	155.320000
235.380051	154.920000
235.472778	154.920000
235.565521	155.260000
235.658249	155.000000
235.750992	155.000000
235.843719	154.860000
235.936462	155.080000
236.029205	154.580000
236.121948	154.320000
236.214691	154.780000
236.307449	155.360000
236.400192	154.960000
236.492935	154.860000
236.585678	155.360000
236.678421	154.960000
236.771164	154.680000
236.863907	155.420000
236.956665	155.840000
237.049408	157.720000
237.142151	157.180000
237.234909	157.980000
237.327652	158.080000
237.420410	157.960000
237.513153	156.660000
237.605927	156.660000
237.698669	155.640000
237.791428	154.960000
237.884186	155.240000
237.976944	154.620000
238.069702	155.220000
238.162445	155.120000
238.255203	155.100000
238.347961	155.240000
238.440720	155.260000
238.533478	154.940000
238.626266	154.760000
238.719025	155.320000
238.811783	154.920000
238.904541	154.980000
238.997314	155.000000
239.090073	155.000000
239.182831	154.940000
239.275604	155.700000
239.368362	155.440000
239.461136	155.460000
239.553909	155.300000
239.646667	154.700000
239.739441	154.220000
239.832214	154.580000
239.925003	154.880000
240.017761	155.700000
240.110535	156.360000
240.203308	155.540000
240.296082	155.660000
240.388855	155.300000
240.481628	155.360000
240.574417	155.300000
240.667191	155.800000
240.759964	155.520000
240.852737	155.760000
240.945526	155.220000
241.038315	154.760000
241.131088	154.960000
241.223877	155.080000
241.316650	154.420000
241.409439	154.780000
241.502228	154.680000
241.595001	155.080000
241.687790	154.680000
241.780579	154.960000
241.873367	154.800000
241.966141	155.240000
242.058929	154.400000
242.151718	155.020000
242.244507	155.660000
242.337311	155.060000
242.430099	155.560000
242.522903	156.040000
242.615692	155.380000
242.708481	155.340000
242.801270	156.100000
242.894073	155.700000
242.986862	155.780000
243.079651	156.640000
243.172455	156.280000
243.265244	156.340000
243.358063	155.740000
243.450867	156.120000
243.543655	155.780000
243.636459	155.860000
243.729263	156.120000
243.822067	156.680000
243.914856	156.520000
244.007660	156.620000
244.100464	156.860000
244.193268	155.880000
244.286072	155.620000
244.378876	155.140000
244.471680	154.780000
244.564499	154.780000
244.657318	155.880000
244.750122	156.200000
244.842926	155.900000
244.935745	156.640000
245.028549	156.100000
245.121368	155.520000
245.214172	155.500000
245.306992	155.960000
245.399796	155.220000
245.492615	155.540000
245.585434	155.340000
245.678253	155.320000
245.771072	155.200000
245.863892	155.920000
245.956711	156.040000
246.049530	156.020000
246.142349	155.380000
246.235168	155.580000
246.327988	155.820000
246.420807	155.320000
246.513626	155.380000
246.606445	155.420000
246.699280	155.060000
246.792099	154.140000
246.884918	153.940000
246.977753	153.480000
247.070587	153.760000
247.163422	153.660000
247.256241	153.940000
247.349075	154.660000
247.441895	155.040000
247.534729	155.240000
247.627563	155.380000
247.720383	155.980000
247.813217	155.320000
247.906052	155.280000
247.998886	155.100000
248.091736	154.940000
248.184570	154.460000
248.277405	154.860000
248.370239	155.880000
248.463074	156.940000
248.555908	157.400000
248.648743	157.220000
248.741592	157.500000
248.834427	156.580000
248.927261	155.080000
249.020111	155.380000
249.112946	156.000000
249.205795	155.280000
249.298630	155.560000
249.391495	155.900000
249.484344	155.260000
249.577179	154.940000
249.670029	155.460000
249.762878	155.840000
249.855728	156.080000
249.948563	156.380000
250.041412	155.640000
250.134262	155.700000
250.227112	155.740000
250.319962	155.460000
250.412827	155.400000
250.505692	155.080000
250.598541	155.000000
250.691391	154.240000
250.784241	154.200000
250.877106	154.360000
250.969955	154.740000
251.062805	155.060000
251.155670	155.780000
251.248520	155.880000
251.341385	155.960000
251.434235	155.780000
251.527100	155.180000
251.619965	154.560000
251.712814	155.040000
251.805695	154.820000
251.898560	155.260000
251.991425	155.840000
252.084290	155.980000
252.177155	155.120000
252.270020	154.940000
252.362885	154.820000
252.455750	154.620000
252.548615	154.700000
252.641479	155.220000
252.734360	155.140000
252.827240	155.260000
252.920105	155.640000
253.012970	155.340000
253.105850	155.000000
253.198715	154.780000
253.291595	155.000000
253.384460	154.180000
253.477341	154.200000
253.570221	154.660000
253.663086	154.640000
253.755966	155.100000
253.848846	155.360000
253.941727	155.540000
254.034592	155.320000
254.127472	155.020000
254.220367	154.800000
254.313248	154.860000
254.406128	154.380000
254.499008	154.700000
254.591904	155.660000
254.684784	156.020000
254.777664	156.000000
254.870544	155.980000
254.963440	155.840000
255.056335	155.660000
255.149216	154.820000
255.242111	155.440000
255.334991	155.980000
255.427887	156.000000
255.520767	156.100000
255.613663	156.520000
255.706558	155.600000
255.799438	155.220000
255.892334	155.000000
255.985229	154.900000
256.078125	154.600000
256.171021	154.920000
256.263916	155.580000
256.356812	155.700000
256.449707	155.700000
256.542603	155.380000
256.635498	155.660000
256.728394	155.100000
256.821289	154.860000
256.914215	155.000000
257.007080	155.460000
257.100006	155.560000
257.192932	156.160000
257.285828	156.600000
257.378723	156.240000
257.471619	155.940000
257.564545	155.320000
257.657440	155.240000
257.750336	155.820000
257.843262	155.780000
257.936157	157.180000
258.029053	157.720000
258.121979	157.720000
258.214874	156.980000
258.307800	156.740000
258.400696	155.220000
258.493622	154.820000
258.586517	153.720000
258.679443	153.920000
258.772339	153.840000
258.865265	153.980000
258.958160	153.860000
259.051086	155.360000
259.144012	155.100000
259.236938	156.100000
259.329834	156.340000
259.422791	156.020000
259.515717	155.140000
259.608612	155.040000
259.701538	154.700000
259.794464	154.520000
259.887390	155.100000
259.980316	155.040000
260.073212	155.000000
260.166138	154.180000
260.259064	154.580000
260.351990	155.060000
260.444916	155.420000
260.537842	155.720000
260.630768	156.520000
260.723694	156.240000
260.816620	155.600000
260.909546	155.520000
261.002472	155.240000
261.095398	154.560000
261.188354	154.660000
261.281281	154.460000
261.374207	154.320000
261.467133	154.980000
261.560089	155.460000
261.653015	154.960000
261.745972	155.720000
261.838867	156.200000
261.931824	156.300000
262.024780	155.920000
262.117706	156.280000
262.210663	156.160000
262.303589	155.780000
262.396515	155.520000
262.489471	156.320000
262.582397	156.400000
262.675354	155.600000
262.768280	155.620000
262.861237	155.440000
262.954163	155.260000
263.047119	155.140000
263.140045	155.240000
263.233002	155.420000
263.325958	155.260000
263.418884	154.600000
263.511841	154.500000
263.604797	154.880000
263.697723	154.600000
263.790680	154.660000
263.883636	155.140000
263.976593	155.140000
264.069550	155.220000
264.162476	154.940000
264.255463	154.740000
264.348419	154.600000
264.441376	155.040000
264.534332	154.440000
264.627289	154.840000
264.720245	155.560000
264.813202	155.100000
264.906158	155.140000
264.999115	155.840000
265.092072	155.580000
265.185028	155.740000
265.277985	156.300000
265.370941	155.900000
265.463898	155.420000
265.556854	155.320000
265.649811	154.380000
265.742798	154.480000
265.835754	154.540000
265.928711	155.260000
266.021667	155.320000
266.114655	155.660000
266.207611	155.760000
266.300568	155.260000
266.393585	154.640000
266.486511	155.100000
266.579498	154.540000
266.672485	154.320000
266.765442	154.180000
266.858429	154.700000
266.951385	154.140000
267.044342	154.160000
267.137329	154.280000
267.230316	155.100000
267.323273	154.540000
267.416260	155.080000
267.509216	155.340000
267.602203	155.400000
267.695160	155.680000
267.788147	155.760000
267.881134	155.180000
267.974091	155.580000
268.067078	154.960000
268.160065	154.460000
268.253052	154.440000
268.346008	154.720000
268.438995	154.300000
268.531982	154.620000
268.624969	154.400000
268.717987	154.700000
268.810944	154.500000
268.903961	154.800000
268.996948	154.540000
269.089905	155.480000
269.182892	155.480000
269.275879	156.040000
269.368866	155.360000
269.461853	155.880000
269.554871	155.300000
269.647858	155.360000
269.740845	155.700000
269.833832	156.300000
269.926819	155.620000
270.019806	155.960000
270.112793	155.320000
270.205811	155.060000
270.298798	154.800000
270.391785	155.500000
270.484772	154.800000
270.577789	155.120000
270.670776	154.340000
270.763763	154.380000
270.856750	154.260000
270.949768	154.380000
271.042786	154.440000
271.135773	154.780000
271.228790	155.240000
271.321808	154.860000
271.414795	154.580000
271.507782	154.180000
271.600800	154.100000
271.693817	154.100000
271.786804	154.760000
271.879822	155.260000
271.972809	155.520000
272.065826	155.980000
272.158844	155.480000
272.251831	155.760000
272.344849	155.560000
272.437866	155.340000
272.530853	155.280000
272.623871	155.380000
272.716888	154.140000
272.809906	154.620000
272.902893	154.940000
272.995911	154.220000
273.088928	154.500000
273.181946	154.740000
273.274963	154.260000
273.367981	154.200000
273.460999	154.580000
273.554047	154.840000
273.647003	155.960000
273.740051	155.980000
273.833069	156.300000
273.926086	156.500000
274.019135	156.100000
274.112152	155.560000
274.205170	155.540000
274.298187	155.720000
274.391205	155.280000
274.484222	155.260000
274.577240	154.840000
274.670258	155.080000
274.763306	154.700000
274.856323	155.300000
274.949341	155.400000
275.042358	156.060000
275.135406	155.700000
275.228424	155.620000
275.321442	155.520000
275.414490	155.180000
275.507507	155.320000
275.600525	155.800000
275.693573	155.800000
275.786591	155.380000
275.879669	155.660000
275.972656	155.020000
276.065735	154.660000
276.158752	155.200000
276.251801	155.920000
276.344818	156.100000
276.437866	156.460000
276.530884	156.240000
276.623932	155.600000
276.716980	155.540000
276.809998	155.400000
276.903046	155.340000
276.996094	156.440000
277.089111	157.160000
277.182159	157.760000
277.275208	157.540000
277.368256	157.500000
277.461304	156.880000
277.554321	155.880000
277.647369	155.220000
277.740417	155.480000
277.833466	155.240000
277.926514	155.360000
278.019562	156.320000
278.112610	155.740000
278.205688	155.680000
278.298706	155.800000
278.391785	155.300000
278.484833	154.760000
278.577881	154.940000
278.670929	155.300000
278.763977	155.320000
278.857025	155.900000
278.950073	155.880000
279.043121	155.860000
279.136169	155.740000
279.229248	155.280000
279.322296	155.200000
279.415344	155.240000
279.508392	155.220000
279.601440	154.980000
279.694519	155.200000
279.787567	155.060000
279.880615	154.840000
279.973694	154.660000
280.066742	154.540000
280.159790	154.860000
280.252869	154.360000
280.345917	154.660000
280.438995	154.660000
280.532074	154.660000
280.625122	154.900000
280.718201	156.060000
280.811279	155.960000
280.904327	155.940000
280.997406	156.120000
281.090454	156.160000
281.183533	155.060000
281.276581	154.800000
281.369659	154.540000
281.462738	154.520000
281.555786	154.460000
281.648865	154.700000
281.741943	154.680000
281.835022	155.420000
281.928070	155.200000
282.021149	154.980000
282.114227	155.060000
282.207306	155.160000
282.300385	155.320000
282.393433	155.580000
282.486511	155.600000
282.579590	156.080000
282.672668	156.420000
282.765747	156.020000
282.858856	155.800000
282.951904	155.940000
283.045013	156.040000
283.138062	156.320000
283.231171	156.720000
283.324249	157.120000
283.417328	157.040000
283.510406	156.120000
283.603485	155.740000
283.696564	155.460000
283.789642	155.380000
283.882751	154.920000
283.975830	155.900000
284.068909	155.760000
284.161987	156.200000
284.255066	155.700000
284.348175	156.020000
284.441254	155.540000
284.534332	156.100000
284.627441	155.780000
284.720520	155.480000
284.813599	155.500000
284.906708	155.620000
284.999786	154.740000
285.092896	154.440000
285.185974	155.780000
285.279053	155.360000
285.372192	155.280000
285.465240	156.240000
285.558380	156.180000
285.651459	155.400000
285.744568	156.500000
285.837677	156.220000
285.930756	156.120000
286.023865	156.280000
286.116943	156.120000
286.210052	155.700000
286.303162	155.820000
286.396240	155.360000
286.489349	155.240000
286.582458	155.700000
286.675568	155.320000
286.768646	155.200000
286.861755	155.700000
286.954865	156.440000
287.047974	155.780000
287.141083	155.860000
287.234161	156.060000
287.327271	155.420000
287.420380	155.480000
287.513519	155.100000
287.606598	155.260000
287.699738	155.280000
287.792816	155.440000
287.885956	154.960000
287.979034	155.460000
288.072174	155.400000
288.165283	155.220000
288.258392	155.260000
288.351501	154.760000
288.444611	154.920000
288.537720	155.120000
288.630859	155.220000
288.723969	155.580000
288.817078	155.980000
288.910187	156.060000
289.003296	155.540000
289.096436	155.020000
289.189545	154.640000
289.282654	154.140000
289.375763	154.260000
289.468903	154.680000
289.562012	155.300000
289.655121	155.260000
289.748260	155.860000
289.841400	156.200000
289.934509	155.940000
290.027649	156.140000
290.120728	155.900000
290.213898	155.800000
290.306976	155.400000
290.400146	155.700000
290.493256	154.820000
290.586395	155.360000
290.679535	155.620000
290.772644	155.540000
290.865784	154.640000
290.958893	155.160000
291.052032	154.860000
291.145172	154.640000
291.238281	154.280000
291.331421	154.720000
291.424561	155.220000
291.517670	154.880000
291.610809	155.140000
291.703949	155.240000
291.797089	155.520000
291.890228	154.760000
291.983337	154.840000
292.076477	154.480000
292.169617	154.780000
292.262756	154.880000
292.355927	154.860000
292.449036	154.960000
292.542206	155.060000
292.635315	155.480000
292.728485	155.720000
292.821625	155.540000
292.914764	156.740000
293.007904	156.560000
293.101044	156.200000
293.194183	155.940000
293.287323	156.240000
293.380463	155.600000
293.473602	155.280000
293.566742	155.400000
293.659882	155.700000
293.753021	155.920000
293.846191	155.520000
293.939331	155.520000
294.032471	155.220000
294.125610	154.480000
294.218781	154.760000
294.311920	155.120000
294.405060	155.400000
294.498230	155.600000
294.591370	155.920000
294.684540	155.160000
294.777679	154.440000
294.870850	154.780000
294.963959	154.600000
295.057159	154.580000
295.150299	155.300000
295.243469	155.380000
295.336609	154.820000
295.429779	154.500000
295.522919	154.800000
295.616089	154.460000
295.709229	155.320000
295.802399	155.400000
295.895569	155.480000
295.988708	155.440000
296.081879	155.700000
296.175018	155.100000
296.268188	155.160000
296.361359	155.760000
296.454529	155.560000
296.547668	155.120000
296.640839	155.540000
296.734009	155.240000
296.827179	155.240000
296.920319	155.860000
297.013519	155.940000
297.106659	155.700000
297.199860	155.960000
297.292999	156.040000
297.386200	155.060000
297.479309	154.800000
297.572510	154.800000
297.665680	154.580000
297.758850	154.120000
297.852020	154.480000
297.945190	154.640000
298.038361	154.400000
298.131531	155.360000
298.224701	155.540000
298.317871	155.120000
298.411072	154.920000
298.504242	154.860000
298.597412	154.360000
298.690582	154.500000
298.783752	154.660000
298.876923	155.480000
298.970093	155.900000
299.063293	156.260000
299.156464	156.480000
299.249634	156.860000
299.342834	156.620000
299.436005	156.860000
299.529205	156.500000
299.622345	156.200000
299.715576	155.400000
299.808716	155.000000
299.901917	154.480000
299.995117	154.420000
300.088287	154.620000
300.181488	154.640000
300.274658	154.620000
300.367828	154.840000
300.461029	155.080000
300.554199	155.180000
300.647400	155.720000
300.740601	156.160000
300.833771	155.760000
300.926971	155.900000
301.020142	155.240000
301.113342	155.020000
301.206512	155.200000
301.299713	155.720000
301.392914	155.320000
301.486084	155.840000
301.579285	155.920000
301.672516	156.220000
301.765686	156.020000
301.858887	156.040000
301.952057	155.880000
302.045288	156.080000
302.138458	155.440000
302.231659	155.460000
302.324860	155.480000
302.418060	155.060000
302.511261	154.840000
302.604462	154.980000
302.697662	154.760000
302.790863	154.480000
302.884064	154.260000
302.977264	154.400000
303.070465	154.640000
303.163666	155.320000
303.256866	155.740000
303.350067	156.200000
303.443268	156.160000
303.536469	156.300000
303.629669	155.640000
303.722870	155.880000
303.816071	155.460000
303.909271	155.280000
304.002472	154.200000
304.095673	154.060000
304.188934	153.380000
304.282104	154.660000
304.375336	154.900000
304.468506	155.380000
304.561768	155.260000
304.654968	155.900000
304.748169	155.240000
304.841370	154.960000
304.934601	155.100000
305.027802	154.820000
305.121002	154.360000
305.214233	154.220000
305.307434	154.500000
305.400665	155.040000
305.493866	155.200000
