Model Number: SPM-002-B   
Serial Number: 70087108
Firmware Version: 004.15.4
Exposure Time: 100000.000000us
Data Taken on: 15-01-2021 17:50:22.191
Wavelength	Amplitude
221.570786	0.000000
221.663406	0.000000
221.756027	0.000000
221.848648	0.000000
221.941269	0.000000
222.033905	0.000000
222.126526	0.000000
222.219162	0.000000
222.311798	0.000000
222.404419	0.000000
222.497055	0.000000
222.589676	0.000000
222.682312	0.000000
222.774933	0.000000
222.867569	0.000000
222.960205	0.000000
223.052841	0.000000
223.145462	0.000000
223.238098	0.000000
223.330734	0.000000
223.423386	0.000000
223.516022	0.000000
223.608658	0.000000
223.701309	0.000000
223.793945	0.000000
223.886581	0.000000
223.979218	0.000000
224.071869	0.000000
224.164505	0.000000
224.257156	0.000000
224.349792	0.000000
224.442444	0.000000
224.535095	0.000000
224.627747	0.000000
224.720398	0.000000
224.813034	0.000000
224.905685	0.000000
224.998337	153.660000
225.090988	153.880000
225.183640	153.740000
225.276291	153.460000
225.368942	153.960000
225.461594	154.840000
225.554245	155.100000
225.646912	155.220000
225.739578	155.800000
225.832230	156.340000
225.924896	155.160000
226.017548	155.120000
226.110199	155.640000
226.202866	154.860000
226.295532	154.520000
226.388184	154.740000
226.480850	154.280000
226.573517	153.780000
226.666168	153.760000
226.758835	153.720000
226.851501	154.600000
226.944183	154.720000
227.036850	154.400000
227.129517	154.820000
227.222183	155.120000
227.314850	154.740000
227.407516	155.260000
227.500198	156.100000
227.592865	155.740000
227.685532	155.140000
227.778214	154.960000
227.870880	155.260000
227.963562	155.360000
228.056229	156.040000
228.148926	156.160000
228.241592	156.860000
228.334274	156.140000
228.426956	155.880000
228.519638	155.540000
228.612305	155.140000
228.704987	154.600000
228.797668	154.640000
228.890350	154.080000
228.983032	153.640000
229.075714	154.380000
229.168396	154.280000
229.261108	153.800000
229.353790	153.940000
229.446472	154.520000
229.539169	154.300000
229.631851	153.900000
229.724533	154.400000
229.817230	154.660000
229.909912	155.220000
230.002609	154.920000
230.095306	155.080000
230.187988	155.040000
230.280685	155.040000
230.373383	154.140000
230.466095	154.380000
230.558792	154.480000
230.651474	154.420000
230.744171	154.100000
230.836868	153.980000
230.929581	154.260000
231.022278	154.380000
231.114975	154.540000
231.207672	154.780000
231.300369	155.680000
231.393082	155.500000
231.485779	155.340000
231.578506	155.260000
231.671204	155.200000
231.763916	154.300000
231.856613	154.140000
231.949326	154.360000
232.042023	154.360000
232.134735	154.400000
232.227448	154.160000
232.320160	154.560000
232.412872	154.500000
232.505585	155.140000
232.598297	155.240000
232.691010	155.380000
232.783722	154.760000
232.876450	155.340000
232.969162	154.540000
233.061874	154.360000
233.154587	154.180000
233.247314	154.540000
233.340027	153.860000
233.432739	154.580000
233.525467	154.500000
233.618179	155.320000
233.710907	155.020000
233.803635	155.340000
233.896347	154.660000
233.989090	155.320000
234.081818	154.860000
234.174545	155.340000
234.267258	155.120000
234.359985	155.540000
234.452713	154.900000
234.545441	154.700000
234.638168	154.340000
234.730896	154.720000
234.823639	154.620000
234.916367	154.940000
235.009094	155.360000
235.101822	155.580000
235.194580	155.400000
235.287308	155.640000
235.380051	154.960000
235.472778	155.080000
235.565521	155.240000
235.658249	154.540000
235.750992	154.420000
235.843719	154.480000
235.936462	154.700000
236.029205	153.920000
236.121948	153.940000
236.214691	154.020000
236.307449	155.020000
236.400192	154.320000
236.492935	154.500000
236.585678	155.000000
236.678421	154.960000
236.771164	154.460000
236.863907	155.140000
236.956665	155.420000
237.049408	156.920000
237.142151	156.500000
237.234909	157.500000
237.327652	157.360000
237.420410	157.100000
237.513153	155.980000
237.605927	155.940000
237.698669	154.860000
237.791428	154.340000
237.884186	154.940000
237.976944	154.380000
238.069702	154.560000
238.162445	154.160000
238.255203	154.400000
238.347961	154.720000
238.440720	154.900000
238.533478	155.020000
238.626266	155.120000
238.719025	155.300000
238.811783	154.800000
238.904541	154.760000
238.997314	154.520000
239.090073	154.180000
239.182831	154.360000
239.275604	154.960000
239.368362	154.540000
239.461136	154.580000
239.553909	155.060000
239.646667	154.760000
239.739441	154.060000
239.832214	154.620000
239.925003	154.980000
240.017761	155.500000
240.110535	156.200000
240.203308	155.780000
240.296082	155.900000
240.388855	155.740000
240.481628	155.660000
240.574417	155.260000
240.667191	155.620000
240.759964	155.100000
240.852737	155.080000
240.945526	154.720000
241.038315	154.460000
241.131088	154.640000
241.223877	155.140000
241.316650	154.520000
241.409439	154.740000
241.502228	154.480000
241.595001	155.020000
241.687790	154.620000
241.780579	154.900000
241.873367	155.040000
241.966141	155.320000
242.058929	154.380000
242.151718	155.040000
242.244507	155.500000
242.337311	154.580000
242.430099	155.080000
242.522903	155.660000
242.615692	155.060000
242.708481	154.720000
242.801270	155.480000
242.894073	155.300000
242.986862	154.980000
243.079651	155.580000
243.172455	155.480000
243.265244	155.640000
243.358063	154.700000
243.450867	155.180000
243.543655	154.820000
243.636459	155.140000
243.729263	155.300000
243.822067	155.920000
243.914856	156.060000
244.007660	155.880000
244.100464	155.700000
244.193268	154.940000
244.286072	154.640000
244.378876	154.100000
244.471680	154.140000
244.564499	154.600000
244.657318	155.540000
244.750122	156.140000
244.842926	155.680000
244.935745	155.840000
245.028549	155.140000
245.121368	154.600000
245.214172	154.380000
245.306992	154.980000
245.399796	154.560000
245.492615	155.100000
245.585434	154.800000
245.678253	154.660000
245.771072	154.420000
245.863892	155.020000
245.956711	155.020000
246.049530	155.040000
246.142349	154.860000
246.235168	155.180000
246.327988	155.420000
246.420807	154.780000
246.513626	154.880000
246.606445	154.700000
246.699280	154.360000
246.792099	153.960000
246.884918	153.820000
246.977753	153.600000
247.070587	153.660000
247.163422	153.500000
247.256241	153.540000
247.349075	154.220000
247.441895	154.480000
247.534729	154.800000
247.627563	154.900000
247.720383	155.420000
247.813217	155.180000
247.906052	155.060000
247.998886	154.920000
248.091736	154.860000
248.184570	154.220000
248.277405	154.160000
248.370239	155.200000
248.463074	156.480000
248.555908	156.680000
248.648743	156.880000
248.741592	157.260000
248.834427	156.440000
248.927261	154.920000
249.020111	155.400000
249.112946	155.880000
249.205795	155.220000
249.298630	155.080000
249.391495	155.280000
249.484344	154.280000
249.577179	153.940000
249.670029	154.460000
249.762878	155.020000
249.855728	155.300000
249.948563	155.780000
250.041412	155.200000
250.134262	155.280000
250.227112	155.260000
250.319962	155.180000
250.412827	155.320000
250.505692	155.060000
250.598541	155.160000
250.691391	154.560000
250.784241	154.540000
250.877106	154.640000
250.969955	154.800000
251.062805	154.940000
251.155670	155.680000
251.248520	155.500000
251.341385	155.560000
251.434235	155.540000
251.527100	155.060000
251.619965	154.660000
251.712814	155.480000
251.805695	155.440000
251.898560	155.560000
251.991425	155.880000
252.084290	155.680000
252.177155	154.920000
252.270020	154.680000
252.362885	154.740000
252.455750	154.520000
252.548615	154.580000
252.641479	154.620000
252.734360	154.800000
252.827240	154.720000
252.920105	155.140000
253.012970	154.740000
253.105850	154.340000
253.198715	153.800000
253.291595	153.940000
253.384460	153.220000
253.477341	153.500000
253.570221	154.100000
253.663086	154.060000
253.755966	154.940000
253.848846	155.180000
253.941727	155.240000
254.034592	155.080000
254.127472	154.520000
254.220367	154.060000
254.313248	154.120000
254.406128	154.040000
254.499008	154.300000
254.591904	155.860000
254.684784	156.000000
254.777664	156.100000
254.870544	155.780000
254.963440	155.660000
255.056335	155.200000
255.149216	154.760000
255.242111	155.220000
255.334991	155.860000
255.427887	155.880000
255.520767	155.960000
255.613663	156.200000
255.706558	155.260000
255.799438	154.700000
255.892334	154.100000
255.985229	153.880000
256.078125	153.600000
256.171021	153.980000
256.263916	154.800000
256.356812	155.420000
256.449707	155.560000
256.542603	155.500000
256.635498	156.160000
256.728394	155.740000
256.821289	155.400000
256.914215	155.720000
257.007080	155.880000
257.100006	155.500000
257.192932	155.640000
257.285828	156.000000
257.378723	155.360000
257.471619	155.120000
257.564545	154.600000
257.657440	154.820000
257.750336	155.200000
257.843262	155.220000
257.936157	156.620000
258.029053	157.200000
258.121979	156.980000
258.214874	156.340000
258.307800	156.380000
258.400696	155.020000
258.493622	154.900000
258.586517	154.120000
258.679443	154.720000
258.772339	154.420000
258.865265	154.380000
258.958160	153.720000
259.051086	155.020000
259.144012	154.560000
259.236938	155.620000
259.329834	155.720000
259.422791	155.780000
259.515717	154.720000
259.608612	154.620000
259.701538	154.180000
259.794464	154.020000
259.887390	154.140000
259.980316	154.460000
260.073212	154.140000
260.166138	153.200000
260.259064	153.600000
260.351990	154.240000
260.444916	154.000000
260.537842	154.700000
260.630768	155.680000
260.723694	155.620000
260.816620	155.360000
260.909546	155.360000
261.002472	154.720000
261.095398	154.080000
261.188354	154.020000
261.281281	153.540000
261.374207	153.560000
261.467133	154.400000
261.560089	154.460000
261.653015	154.020000
261.745972	154.800000
261.838867	155.300000
261.931824	155.400000
262.024780	155.280000
262.117706	156.100000
262.210663	155.840000
262.303589	155.760000
262.396515	155.620000
262.489471	156.960000
262.582397	156.420000
262.675354	156.040000
262.768280	155.880000
262.861237	155.440000
262.954163	154.820000
263.047119	155.320000
263.140045	155.020000
263.233002	155.060000
263.325958	154.960000
263.418884	154.500000
263.511841	154.020000
263.604797	154.500000
263.697723	154.480000
263.790680	154.540000
263.883636	155.000000
263.976593	154.980000
264.069550	155.120000
264.162476	154.640000
264.255463	154.760000
264.348419	154.460000
264.441376	154.860000
264.534332	154.320000
264.627289	154.360000
264.720245	154.800000
264.813202	154.220000
264.906158	154.300000
264.999115	154.920000
265.092072	155.220000
265.185028	155.360000
265.277985	155.780000
265.370941	155.420000
265.463898	155.140000
265.556854	154.700000
265.649811	153.700000
265.742798	154.000000
265.835754	153.980000
265.928711	154.460000
266.021667	154.720000
266.114655	155.300000
266.207611	155.200000
266.300568	154.800000
266.393585	154.100000
266.486511	154.660000
266.579498	153.960000
266.672485	154.080000
266.765442	153.840000
266.858429	154.660000
266.951385	153.980000
267.044342	154.340000
267.137329	154.440000
267.230316	155.120000
267.323273	154.580000
267.416260	155.500000
267.509216	155.380000
267.602203	155.040000
267.695160	155.460000
267.788147	155.300000
267.881134	154.460000
267.974091	154.620000
268.067078	154.520000
268.160065	153.960000
268.253052	153.920000
268.346008	154.040000
268.438995	153.620000
268.531982	153.780000
268.624969	153.580000
268.717987	154.020000
268.810944	153.960000
268.903961	154.240000
268.996948	153.800000
269.089905	154.480000
269.182892	154.560000
269.275879	155.140000
269.368866	154.760000
269.461853	155.480000
269.554871	155.080000
269.647858	154.840000
269.740845	154.720000
269.833832	155.200000
269.926819	154.520000
270.019806	154.760000
270.112793	154.460000
270.205811	154.540000
270.298798	154.460000
270.391785	155.340000
270.484772	154.980000
270.577789	155.220000
270.670776	154.720000
270.763763	154.700000
270.856750	154.240000
270.949768	153.880000
271.042786	153.880000
271.135773	154.140000
271.228790	154.600000
271.321808	154.380000
271.414795	154.380000
271.507782	154.000000
271.600800	153.620000
271.693817	153.200000
271.786804	153.680000
271.879822	154.140000
271.972809	154.100000
272.065826	154.740000
272.158844	154.580000
272.251831	155.040000
272.344849	154.840000
272.437866	154.900000
272.530853	154.900000
272.623871	155.040000
272.716888	154.040000
272.809906	154.740000
272.902893	154.780000
272.995911	154.000000
273.088928	153.980000
273.181946	154.180000
273.274963	153.480000
273.367981	153.680000
273.460999	153.840000
273.554047	154.440000
273.647003	155.160000
273.740051	155.240000
273.833069	155.500000
273.926086	156.200000
274.019135	155.940000
274.112152	155.400000
274.205170	155.480000
274.298187	155.560000
274.391205	155.000000
274.484222	154.580000
274.577240	154.580000
274.670258	154.700000
274.763306	154.640000
274.856323	155.140000
274.949341	155.280000
275.042358	155.520000
275.135406	155.180000
275.228424	154.840000
275.321442	154.520000
275.414490	154.460000
275.507507	154.740000
275.600525	155.360000
275.693573	155.260000
275.786591	155.040000
275.879669	155.060000
275.972656	154.160000
276.065735	153.760000
276.158752	154.200000
276.251801	154.900000
276.344818	155.320000
276.437866	155.680000
276.530884	155.500000
276.623932	154.960000
276.716980	155.100000
276.809998	155.060000
276.903046	155.300000
276.996094	156.280000
277.089111	156.800000
277.182159	156.680000
277.275208	156.140000
277.368256	155.980000
277.461304	155.280000
277.554321	154.760000
277.647369	154.560000
277.740417	154.880000
277.833466	154.500000
277.926514	154.360000
278.019562	155.060000
278.112610	154.520000
278.205688	154.440000
278.298706	154.720000
278.391785	154.400000
278.484833	153.720000
278.577881	153.860000
278.670929	154.360000
278.763977	154.280000
278.857025	154.780000
278.950073	155.100000
279.043121	154.960000
279.136169	154.520000
279.229248	154.320000
279.322296	154.220000
279.415344	153.960000
279.508392	153.900000
279.601440	154.040000
279.694519	154.580000
279.787567	154.600000
279.880615	154.640000
279.973694	154.680000
280.066742	154.540000
280.159790	154.220000
280.252869	153.900000
280.345917	154.280000
280.438995	154.080000
280.532074	153.980000
280.625122	154.500000
280.718201	155.260000
280.811279	154.840000
280.904327	155.080000
280.997406	155.340000
281.090454	154.960000
281.183533	154.320000
281.276581	154.640000
281.369659	154.320000
281.462738	154.180000
281.555786	154.300000
281.648865	154.880000
281.741943	154.820000
281.835022	155.640000
281.928070	155.280000
282.021149	155.260000
282.114227	154.740000
282.207306	154.640000
282.300385	154.720000
282.393433	155.120000
282.486511	155.080000
282.579590	155.620000
282.672668	155.840000
282.765747	155.200000
282.858856	154.800000
282.951904	154.820000
283.045013	154.620000
283.138062	154.860000
283.231171	155.320000
283.324249	156.020000
283.417328	155.920000
283.510406	155.860000
283.603485	155.540000
283.696564	155.140000
283.789642	155.100000
283.882751	154.960000
283.975830	155.320000
284.068909	154.940000
284.161987	155.940000
284.255066	154.960000
284.348175	155.000000
284.441254	154.440000
284.534332	154.900000
284.627441	153.940000
284.720520	154.180000
284.813599	154.240000
284.906708	154.480000
284.999786	153.820000
285.092896	153.880000
285.185974	155.080000
285.279053	154.760000
285.372192	154.900000
285.465240	155.520000
285.558380	155.260000
285.651459	154.760000
285.744568	155.640000
285.837677	155.300000
285.930756	155.260000
286.023865	155.660000
286.116943	154.960000
286.210052	154.740000
286.303162	154.780000
286.396240	154.940000
286.489349	154.380000
286.582458	154.860000
286.675568	154.320000
286.768646	154.460000
286.861755	154.560000
286.954865	155.520000
287.047974	155.100000
287.141083	155.260000
287.234161	154.760000
287.327271	154.160000
287.420380	154.280000
287.513519	154.300000
287.606598	154.580000
287.699738	154.920000
287.792816	155.260000
287.885956	154.580000
287.979034	154.480000
288.072174	154.300000
288.165283	154.080000
288.258392	153.920000
288.351501	153.700000
288.444611	153.860000
288.537720	154.420000
288.630859	154.400000
288.723969	154.560000
288.817078	155.100000
288.910187	155.420000
289.003296	154.840000
289.096436	154.620000
289.189545	154.460000
289.282654	153.680000
289.375763	153.880000
289.468903	154.200000
289.562012	154.620000
289.655121	154.760000
289.748260	155.200000
289.841400	155.460000
289.934509	154.960000
290.027649	154.860000
290.120728	154.760000
290.213898	155.080000
290.306976	154.460000
290.400146	154.760000
290.493256	154.600000
290.586395	154.760000
290.679535	154.900000
290.772644	155.020000
290.865784	154.300000
290.958893	154.660000
291.052032	154.480000
291.145172	154.260000
291.238281	153.760000
291.331421	154.100000
291.424561	154.220000
291.517670	154.040000
291.610809	154.160000
291.703949	154.440000
291.797089	154.740000
291.890228	154.460000
291.983337	154.560000
292.076477	154.300000
292.169617	154.880000
292.262756	154.820000
292.355927	154.440000
292.449036	154.340000
292.542206	154.780000
292.635315	154.540000
292.728485	155.160000
292.821625	155.340000
292.914764	156.480000
293.007904	156.500000
293.101044	156.500000
293.194183	155.920000
293.287323	156.160000
293.380463	155.360000
293.473602	154.920000
293.566742	155.220000
293.659882	155.600000
293.753021	155.820000
293.846191	155.780000
293.939331	155.400000
294.032471	154.900000
294.125610	154.540000
294.218781	154.660000
294.311920	155.100000
294.405060	155.640000
294.498230	155.600000
294.591370	155.480000
294.684540	154.800000
294.777679	153.880000
294.870850	153.980000
294.963959	153.940000
295.057159	154.160000
295.150299	154.440000
295.243469	154.620000
295.336609	154.120000
295.429779	154.500000
295.522919	154.560000
295.616089	154.620000
295.709229	155.320000
295.802399	155.380000
295.895569	154.820000
295.988708	154.600000
296.081879	154.780000
296.175018	154.080000
296.268188	154.520000
296.361359	155.200000
296.454529	155.480000
296.547668	155.140000
296.640839	155.340000
296.734009	154.960000
296.827179	154.740000
296.920319	155.060000
297.013519	154.980000
297.106659	155.180000
297.199860	155.000000
297.292999	155.080000
297.386200	154.700000
297.479309	154.740000
297.572510	154.520000
297.665680	154.440000
297.758850	154.160000
297.852020	153.980000
297.945190	153.800000
298.038361	153.600000
298.131531	154.840000
298.224701	154.960000
298.317871	154.520000
298.411072	154.200000
298.504242	154.060000
298.597412	152.880000
298.690582	153.000000
298.783752	153.380000
298.876923	154.060000
298.970093	154.400000
299.063293	155.160000
299.156464	155.360000
299.249634	155.780000
299.342834	156.000000
299.436005	156.540000
299.529205	155.980000
299.622345	155.800000
299.715576	154.880000
299.808716	154.440000
299.901917	153.840000
299.995117	154.460000
300.088287	154.560000
300.181488	154.580000
300.274658	154.480000
300.367828	154.660000
300.461029	154.360000
300.554199	154.660000
300.647400	155.000000
300.740601	155.500000
300.833771	155.500000
300.926971	155.740000
301.020142	155.020000
301.113342	154.940000
301.206512	154.880000
301.299713	155.140000
301.392914	154.840000
301.486084	155.300000
301.579285	155.320000
301.672516	155.760000
301.765686	155.620000
301.858887	155.520000
301.952057	155.200000
302.045288	155.280000
302.138458	155.140000
302.231659	154.840000
302.324860	154.680000
302.418060	154.660000
302.511261	154.400000
302.604462	154.160000
302.697662	153.960000
302.790863	153.760000
302.884064	153.460000
302.977264	153.780000
303.070465	154.020000
303.163666	154.920000
303.256866	155.420000
303.350067	155.600000
303.443268	155.540000
303.536469	155.720000
303.629669	154.780000
303.722870	154.720000
303.816071	154.540000
303.909271	154.580000
304.002472	153.660000
304.095673	153.840000
304.188934	153.340000
304.282104	154.700000
304.375336	154.580000
304.468506	154.640000
304.561768	154.340000
304.654968	154.880000
304.748169	153.800000
304.841370	153.700000
304.934601	154.520000
305.027802	154.360000
305.121002	154.120000
305.214233	154.560000
305.307434	154.680000
305.400665	154.900000
305.493866	155.040000
