Model Number: SPM-002-B   
Serial Number: 70087108
Firmware Version: 004.15.4
Exposure Time: 100000.000000us
Data Taken on: 15-01-2021 17:50:32.334
Wavelength	Amplitude
221.570786	0.000000
221.663406	0.000000
221.756027	0.000000
221.848648	0.000000
221.941269	0.000000
222.033905	0.000000
222.126526	0.000000
222.219162	0.000000
222.311798	0.000000
222.404419	0.000000
222.497055	0.000000
222.589676	0.000000
222.682312	0.000000
222.774933	0.000000
222.867569	0.000000
222.960205	0.000000
223.052841	0.000000
223.145462	0.000000
223.238098	0.000000
223.330734	0.000000
223.423386	0.000000
223.516022	0.000000
223.608658	0.000000
223.701309	0.000000
223.793945	0.000000
223.886581	0.000000
223.979218	0.000000
224.071869	0.000000
224.164505	0.000000
224.257156	0.000000
224.349792	0.000000
224.442444	0.000000
224.535095	0.000000
224.627747	0.000000
224.720398	0.000000
224.813034	0.000000
224.905685	0.000000
224.998337	154.000000
225.090988	153.800000
225.183640	154.220000
225.276291	154.260000
225.368942	154.600000
225.461594	155.220000
225.554245	155.220000
225.646912	154.960000
225.739578	155.540000
225.832230	155.800000
225.924896	154.760000
226.017548	155.440000
226.110199	155.920000
226.202866	155.400000
226.295532	155.420000
226.388184	155.680000
226.480850	154.840000
226.573517	154.460000
226.666168	154.500000
226.758835	154.380000
226.851501	154.860000
226.944183	154.800000
227.036850	153.960000
227.129517	153.840000
227.222183	154.120000
227.314850	154.060000
227.407516	154.700000
227.500198	155.840000
227.592865	155.560000
227.685532	155.040000
227.778214	154.740000
227.870880	154.880000
227.963562	155.160000
228.056229	155.620000
228.148926	155.640000
228.241592	156.600000
228.334274	156.040000
228.426956	155.440000
228.519638	155.600000
228.612305	155.120000
228.704987	154.560000
228.797668	154.960000
228.890350	154.620000
228.983032	153.600000
229.075714	154.580000
229.168396	154.300000
229.261108	153.720000
229.353790	154.040000
229.446472	154.940000
229.539169	154.900000
229.631851	154.220000
229.724533	154.440000
229.817230	154.480000
229.909912	155.320000
230.002609	155.040000
230.095306	155.460000
230.187988	155.540000
230.280685	155.380000
230.373383	153.880000
230.466095	153.940000
230.558792	154.380000
230.651474	154.240000
230.744171	154.240000
230.836868	154.380000
230.929581	154.500000
231.022278	154.640000
231.114975	154.640000
231.207672	154.540000
231.300369	155.300000
231.393082	155.240000
231.485779	154.840000
231.578506	155.080000
231.671204	155.160000
231.763916	154.700000
231.856613	154.540000
231.949326	154.780000
232.042023	154.380000
232.134735	154.660000
232.227448	154.280000
232.320160	154.860000
232.412872	154.780000
232.505585	155.840000
232.598297	155.800000
232.691010	155.940000
232.783722	155.220000
232.876450	155.960000
232.969162	155.280000
233.061874	154.640000
233.154587	154.440000
233.247314	154.820000
233.340027	153.900000
233.432739	154.200000
233.525467	154.580000
233.618179	154.920000
233.710907	154.580000
233.803635	155.060000
233.896347	154.680000
233.989090	155.440000
234.081818	155.640000
234.174545	156.100000
234.267258	155.540000
234.359985	155.820000
234.452713	155.120000
234.545441	154.900000
234.638168	154.480000
234.730896	154.980000
234.823639	154.820000
234.916367	155.120000
235.009094	155.180000
235.101822	155.160000
235.194580	155.000000
235.287308	154.980000
235.380051	154.720000
235.472778	155.180000
235.565521	155.260000
235.658249	155.000000
235.750992	155.200000
235.843719	154.860000
235.936462	154.560000
236.029205	154.200000
236.121948	153.620000
236.214691	153.980000
236.307449	155.040000
236.400192	154.720000
236.492935	155.080000
236.585678	155.740000
236.678421	155.280000
236.771164	154.580000
236.863907	155.520000
236.956665	155.380000
237.049408	156.880000
237.142151	156.580000
237.234909	157.400000
237.327652	156.920000
237.420410	156.860000
237.513153	155.580000
237.605927	155.560000
237.698669	154.800000
237.791428	153.960000
237.884186	154.560000
237.976944	154.440000
238.069702	154.640000
238.162445	154.640000
238.255203	155.380000
238.347961	155.180000
238.440720	155.020000
238.533478	154.980000
238.626266	154.500000
238.719025	154.540000
238.811783	154.200000
238.904541	154.020000
238.997314	153.720000
239.090073	153.440000
239.182831	153.700000
239.275604	154.820000
239.368362	154.900000
239.461136	155.020000
239.553909	155.560000
239.646667	155.080000
239.739441	154.280000
239.832214	154.620000
239.925003	155.060000
240.017761	155.300000
240.110535	155.980000
240.203308	155.600000
240.296082	155.500000
240.388855	155.320000
240.481628	155.500000
240.574417	155.440000
240.667191	155.660000
240.759964	155.580000
240.852737	155.580000
240.945526	155.060000
241.038315	154.620000
241.131088	154.580000
241.223877	154.800000
241.316650	154.380000
241.409439	154.980000
241.502228	154.780000
241.595001	155.500000
241.687790	155.180000
241.780579	155.380000
241.873367	155.480000
241.966141	155.720000
242.058929	154.720000
242.151718	155.180000
242.244507	155.740000
242.337311	154.760000
242.430099	155.260000
242.522903	155.800000
242.615692	154.980000
242.708481	154.620000
242.801270	155.280000
242.894073	154.780000
242.986862	154.680000
243.079651	155.580000
243.172455	155.460000
243.265244	155.480000
243.358063	154.800000
243.450867	155.140000
243.543655	154.980000
243.636459	155.040000
243.729263	155.140000
243.822067	155.980000
243.914856	155.940000
244.007660	155.660000
244.100464	155.540000
244.193268	155.200000
244.286072	154.840000
244.378876	154.300000
244.471680	154.120000
244.564499	154.620000
244.657318	155.380000
244.750122	155.760000
244.842926	155.520000
244.935745	156.180000
245.028549	155.540000
245.121368	154.960000
245.214172	154.940000
245.306992	155.340000
245.399796	154.540000
245.492615	154.880000
245.585434	154.620000
245.678253	154.340000
245.771072	154.160000
245.863892	154.900000
245.956711	154.860000
246.049530	155.020000
246.142349	154.880000
246.235168	155.080000
246.327988	155.280000
246.420807	155.040000
246.513626	154.880000
246.606445	154.820000
246.699280	154.720000
246.792099	154.380000
246.884918	154.040000
246.977753	153.540000
247.070587	153.700000
247.163422	153.480000
247.256241	153.300000
247.349075	153.480000
247.441895	154.240000
247.534729	154.180000
247.627563	154.380000
247.720383	155.040000
247.813217	155.100000
247.906052	154.920000
247.998886	154.920000
248.091736	154.980000
248.184570	154.640000
248.277405	154.900000
248.370239	155.720000
248.463074	156.620000
248.555908	156.820000
248.648743	156.560000
248.741592	156.920000
248.834427	155.820000
248.927261	154.540000
249.020111	155.120000
249.112946	155.560000
249.205795	154.640000
249.298630	155.440000
249.391495	155.960000
249.484344	155.160000
249.577179	155.280000
249.670029	155.980000
249.762878	155.940000
249.855728	156.020000
249.948563	156.040000
250.041412	155.040000
250.134262	154.820000
250.227112	154.800000
250.319962	154.820000
250.412827	154.880000
250.505692	154.800000
250.598541	155.060000
250.691391	154.540000
250.784241	154.380000
250.877106	154.420000
250.969955	154.340000
251.062805	154.560000
251.155670	155.440000
251.248520	154.940000
251.341385	155.340000
251.434235	155.300000
251.527100	155.140000
251.619965	154.280000
251.712814	155.440000
251.805695	155.020000
251.898560	155.500000
251.991425	155.560000
252.084290	155.940000
252.177155	155.120000
252.270020	154.880000
252.362885	154.880000
252.455750	154.840000
252.548615	154.520000
252.641479	154.520000
252.734360	154.600000
252.827240	154.580000
252.920105	154.720000
253.012970	154.540000
253.105850	154.460000
253.198715	154.180000
253.291595	154.300000
253.384460	153.540000
253.477341	153.540000
253.570221	153.940000
253.663086	154.120000
253.755966	154.760000
253.848846	155.460000
253.941727	156.060000
254.034592	155.560000
254.127472	155.040000
254.220367	154.540000
254.313248	154.260000
254.406128	153.500000
254.499008	154.160000
254.591904	155.040000
254.684784	155.520000
254.777664	155.360000
254.870544	155.480000
254.963440	155.160000
255.056335	155.260000
255.149216	154.680000
255.242111	155.480000
255.334991	155.820000
255.427887	155.680000
255.520767	155.580000
255.613663	155.720000
255.706558	154.800000
255.799438	154.580000
255.892334	154.580000
255.985229	154.440000
256.078125	154.060000
256.171021	154.280000
256.263916	154.920000
256.356812	155.200000
256.449707	155.320000
256.542603	155.120000
256.635498	155.580000
256.728394	155.220000
256.821289	154.960000
256.914215	155.380000
257.007080	155.760000
257.100006	155.680000
257.192932	156.000000
257.285828	156.200000
257.378723	155.320000
257.471619	155.520000
257.564545	155.020000
257.657440	154.540000
257.750336	155.220000
257.843262	155.320000
257.936157	156.200000
258.029053	156.360000
258.121979	156.380000
258.214874	155.720000
258.307800	155.620000
258.400696	154.560000
258.493622	154.640000
258.586517	154.360000
258.679443	154.540000
258.772339	154.180000
258.865265	154.180000
258.958160	153.740000
259.051086	154.700000
259.144012	154.480000
259.236938	155.600000
259.329834	155.620000
259.422791	155.540000
259.515717	154.580000
259.608612	154.260000
259.701538	154.120000
259.794464	153.900000
259.887390	154.300000
259.980316	154.600000
260.073212	154.560000
260.166138	153.480000
260.259064	154.060000
260.351990	154.440000
260.444916	154.280000
260.537842	154.900000
260.630768	155.780000
260.723694	155.460000
260.816620	155.260000
260.909546	155.280000
261.002472	154.800000
261.095398	154.380000
261.188354	154.260000
261.281281	153.800000
261.374207	154.060000
261.467133	154.820000
261.560089	154.760000
261.653015	154.620000
261.745972	155.360000
261.838867	155.560000
261.931824	155.620000
262.024780	155.440000
262.117706	155.820000
262.210663	155.860000
262.303589	155.520000
262.396515	155.020000
262.489471	156.240000
262.582397	156.160000
262.675354	155.540000
262.768280	155.680000
262.861237	155.820000
262.954163	155.340000
263.047119	155.240000
263.140045	155.100000
263.233002	155.200000
263.325958	155.400000
263.418884	154.720000
263.511841	154.820000
263.604797	155.000000
263.697723	154.920000
263.790680	154.380000
263.883636	155.240000
263.976593	155.260000
264.069550	155.480000
264.162476	155.040000
264.255463	155.280000
264.348419	155.040000
264.441376	155.320000
264.534332	154.740000
264.627289	155.160000
264.720245	155.640000
264.813202	155.040000
264.906158	154.840000
264.999115	155.440000
265.092072	155.080000
265.185028	155.340000
265.277985	155.760000
265.370941	155.540000
265.463898	155.280000
265.556854	155.200000
265.649811	153.920000
265.742798	153.800000
265.835754	153.900000
265.928711	154.580000
266.021667	154.920000
266.114655	155.580000
266.207611	156.300000
266.300568	155.880000
266.393585	155.160000
266.486511	155.200000
266.579498	154.360000
266.672485	153.880000
266.765442	153.680000
266.858429	154.160000
266.951385	153.880000
267.044342	154.160000
267.137329	153.760000
267.230316	154.560000
267.323273	154.060000
267.416260	154.560000
267.509216	154.920000
267.602203	155.320000
267.695160	155.500000
267.788147	155.660000
267.881134	155.260000
267.974091	155.300000
268.067078	155.200000
268.160065	154.980000
268.253052	155.080000
268.346008	155.240000
268.438995	154.740000
268.531982	154.640000
268.624969	154.300000
268.717987	154.360000
268.810944	154.020000
268.903961	154.620000
268.996948	154.200000
269.089905	154.860000
269.182892	154.860000
269.275879	155.400000
269.368866	154.480000
269.461853	155.140000
269.554871	154.880000
269.647858	154.720000
269.740845	154.920000
269.833832	155.780000
269.926819	155.460000
270.019806	155.440000
270.112793	155.140000
270.205811	155.020000
270.298798	154.860000
270.391785	155.100000
270.484772	154.880000
270.577789	155.380000
270.670776	154.680000
270.763763	154.440000
270.856750	154.620000
270.949768	154.340000
271.042786	154.260000
271.135773	154.660000
271.228790	155.220000
271.321808	154.640000
271.414795	154.300000
271.507782	153.780000
271.600800	153.340000
271.693817	153.400000
271.786804	153.920000
271.879822	154.360000
271.972809	154.440000
272.065826	155.160000
272.158844	154.300000
272.251831	154.920000
272.344849	154.800000
272.437866	154.880000
272.530853	154.880000
272.623871	155.440000
272.716888	153.800000
272.809906	154.600000
272.902893	154.620000
272.995911	154.080000
273.088928	153.820000
273.181946	154.380000
273.274963	153.580000
273.367981	153.480000
273.460999	153.840000
273.554047	154.460000
273.647003	155.360000
273.740051	155.100000
273.833069	155.400000
273.926086	155.540000
274.019135	155.260000
274.112152	154.720000
274.205170	155.120000
274.298187	155.660000
274.391205	155.040000
274.484222	154.840000
274.577240	154.620000
274.670258	154.440000
274.763306	154.160000
274.856323	154.840000
274.949341	154.820000
275.042358	155.360000
275.135406	155.280000
275.228424	154.880000
275.321442	154.600000
275.414490	154.660000
275.507507	154.900000
275.600525	155.800000
275.693573	155.600000
275.786591	155.320000
275.879669	155.500000
275.972656	154.920000
276.065735	154.420000
276.158752	155.180000
276.251801	155.900000
276.344818	156.060000
276.437866	156.480000
276.530884	156.160000
276.623932	155.280000
276.716980	155.140000
276.809998	154.940000
276.903046	154.480000
276.996094	155.740000
277.089111	156.720000
277.182159	156.960000
277.275208	156.560000
277.368256	156.740000
277.461304	155.880000
277.554321	155.060000
277.647369	154.840000
277.740417	155.060000
277.833466	154.840000
277.926514	154.620000
278.019562	155.180000
278.112610	154.740000
278.205688	154.720000
278.298706	155.040000
278.391785	154.900000
278.484833	154.240000
278.577881	154.100000
278.670929	154.440000
278.763977	154.320000
278.857025	154.820000
278.950073	155.000000
279.043121	155.040000
279.136169	154.760000
279.229248	154.360000
279.322296	154.420000
279.415344	154.520000
279.508392	154.280000
279.601440	154.240000
279.694519	154.280000
279.787567	153.940000
279.880615	153.700000
279.973694	153.940000
280.066742	153.880000
280.159790	153.960000
280.252869	153.620000
280.345917	154.180000
280.438995	154.060000
280.532074	154.100000
280.625122	154.520000
280.718201	155.520000
280.811279	155.260000
280.904327	155.720000
280.997406	155.860000
281.090454	155.800000
281.183533	154.880000
281.276581	154.580000
281.369659	154.180000
281.462738	154.280000
281.555786	154.240000
281.648865	154.660000
281.741943	154.900000
281.835022	155.460000
281.928070	155.240000
282.021149	154.840000
282.114227	154.480000
282.207306	154.400000
282.300385	154.440000
282.393433	154.740000
282.486511	155.020000
282.579590	155.560000
282.672668	155.840000
282.765747	155.060000
282.858856	154.480000
282.951904	154.580000
283.045013	154.820000
283.138062	155.100000
283.231171	155.640000
283.324249	156.420000
283.417328	156.720000
283.510406	156.000000
283.603485	155.720000
283.696564	155.480000
283.789642	155.140000
283.882751	154.540000
283.975830	155.420000
284.068909	155.020000
284.161987	155.400000
284.255066	154.820000
284.348175	155.060000
284.441254	154.660000
284.534332	155.160000
284.627441	154.760000
284.720520	154.660000
284.813599	154.680000
284.906708	154.700000
284.999786	153.840000
285.092896	153.800000
285.185974	155.120000
285.279053	154.420000
285.372192	154.340000
285.465240	155.400000
285.558380	155.040000
285.651459	154.340000
285.744568	155.380000
285.837677	155.120000
285.930756	154.920000
286.023865	155.280000
286.116943	154.840000
286.210052	154.860000
286.303162	154.840000
286.396240	154.220000
286.489349	154.000000
286.582458	154.300000
286.675568	154.160000
286.768646	154.340000
286.861755	155.040000
286.954865	156.100000
287.047974	155.880000
287.141083	155.360000
287.234161	155.060000
287.327271	154.760000
287.420380	154.800000
287.513519	154.580000
287.606598	154.880000
287.699738	155.220000
287.792816	155.300000
287.885956	154.740000
287.979034	155.140000
288.072174	155.100000
288.165283	154.900000
288.258392	155.060000
288.351501	154.520000
288.444611	154.780000
288.537720	155.140000
288.630859	155.000000
288.723969	155.060000
288.817078	155.700000
288.910187	155.600000
289.003296	154.980000
289.096436	154.780000
289.189545	154.460000
289.282654	153.840000
289.375763	154.000000
289.468903	154.680000
289.562012	155.100000
289.655121	154.980000
289.748260	155.240000
289.841400	155.460000
289.934509	154.800000
290.027649	154.940000
290.120728	154.660000
290.213898	154.820000
290.306976	154.020000
290.400146	154.320000
290.493256	153.640000
290.586395	154.280000
290.679535	154.540000
290.772644	154.780000
290.865784	154.160000
290.958893	154.700000
291.052032	154.360000
291.145172	154.420000
291.238281	154.020000
291.331421	154.280000
291.424561	154.480000
291.517670	154.480000
291.610809	154.040000
291.703949	154.120000
291.797089	154.660000
291.890228	154.080000
291.983337	153.940000
292.076477	153.940000
292.169617	154.420000
292.262756	154.120000
292.355927	154.300000
292.449036	154.340000
292.542206	154.580000
292.635315	154.760000
292.728485	155.120000
292.821625	154.840000
292.914764	156.100000
293.007904	156.020000
293.101044	155.940000
293.194183	155.720000
293.287323	155.700000
293.380463	154.740000
293.473602	154.460000
293.566742	154.440000
293.659882	154.580000
293.753021	155.340000
293.846191	155.080000
293.939331	154.740000
294.032471	154.480000
294.125610	154.240000
294.218781	154.340000
294.311920	154.740000
294.405060	155.260000
294.498230	155.540000
294.591370	155.740000
294.684540	154.900000
294.777679	154.560000
294.870850	154.880000
294.963959	154.560000
295.057159	154.560000
295.150299	155.080000
295.243469	155.140000
295.336609	154.500000
295.429779	154.780000
295.522919	154.760000
295.616089	154.560000
295.709229	155.460000
295.802399	155.660000
295.895569	155.320000
295.988708	155.120000
296.081879	155.420000
296.175018	154.420000
296.268188	154.500000
296.361359	154.920000
296.454529	155.180000
296.547668	154.900000
296.640839	155.000000
296.734009	154.860000
296.827179	155.040000
296.920319	155.040000
297.013519	154.940000
297.106659	155.580000
297.199860	155.440000
297.292999	155.260000
297.386200	154.840000
297.479309	154.640000
297.572510	154.100000
297.665680	153.980000
297.758850	153.900000
297.852020	154.160000
297.945190	154.240000
298.038361	153.800000
298.131531	155.060000
298.224701	154.660000
298.317871	153.980000
298.411072	153.360000
298.504242	153.240000
298.597412	152.260000
298.690582	152.500000
298.783752	153.180000
298.876923	154.200000
298.970093	154.500000
299.063293	155.080000
299.156464	155.580000
299.249634	155.740000
299.342834	155.540000
299.436005	155.760000
299.529205	155.240000
299.622345	155.100000
299.715576	154.380000
299.808716	154.220000
299.901917	154.160000
299.995117	154.400000
300.088287	154.480000
300.181488	154.340000
300.274658	154.120000
300.367828	154.200000
300.461029	154.120000
300.554199	154.220000
300.647400	154.800000
300.740601	155.560000
300.833771	155.520000
300.926971	155.560000
301.020142	154.900000
301.113342	154.460000
301.206512	154.320000
301.299713	154.860000
301.392914	154.940000
301.486084	155.340000
301.579285	155.660000
301.672516	155.920000
301.765686	155.320000
301.858887	154.860000
301.952057	154.800000
302.045288	154.840000
302.138458	154.520000
302.231659	154.400000
302.324860	154.460000
302.418060	154.180000
302.511261	153.760000
302.604462	154.060000
302.697662	153.940000
302.790863	153.860000
302.884064	153.560000
302.977264	153.860000
303.070465	153.780000
303.163666	154.720000
303.256866	155.440000
303.350067	155.560000
303.443268	155.560000
303.536469	155.940000
303.629669	155.200000
303.722870	154.880000
303.816071	155.100000
303.909271	155.200000
304.002472	154.060000
304.095673	153.740000
304.188934	153.040000
304.282104	153.800000
304.375336	153.800000
304.468506	154.100000
304.561768	154.420000
304.654968	155.260000
304.748169	154.520000
304.841370	154.200000
304.934601	154.540000
305.027802	154.060000
305.121002	153.600000
305.214233	153.660000
305.307434	153.600000
305.400665	154.100000
305.493866	154.300000
