Model Number: SPM-002-B   
Serial Number: 70087108
Firmware Version: 004.15.4
Exposure Time: 100000.000000us
Data Taken on: 15-01-2021 17:51:18.623
Wavelength	Amplitude
221.570786	0.000000
221.663406	0.000000
221.756027	0.000000
221.848648	0.000000
221.941269	0.000000
222.033905	0.000000
222.126526	0.000000
222.219162	0.000000
222.311798	0.000000
222.404419	0.000000
222.497055	0.000000
222.589676	0.000000
222.682312	0.000000
222.774933	0.000000
222.867569	0.000000
222.960205	0.000000
223.052841	0.000000
223.145462	0.000000
223.238098	0.000000
223.330734	0.000000
223.423386	0.000000
223.516022	0.000000
223.608658	0.000000
223.701309	0.000000
223.793945	0.000000
223.886581	0.000000
223.979218	0.000000
224.071869	0.000000
224.164505	0.000000
224.257156	0.000000
224.349792	0.000000
224.442444	0.000000
224.535095	0.000000
224.627747	0.000000
224.720398	0.000000
224.813034	0.000000
224.905685	0.000000
224.998337	154.420000
225.090988	154.000000
225.183640	154.440000
225.276291	154.300000
225.368942	154.440000
225.461594	154.940000
225.554245	155.480000
225.646912	154.980000
225.739578	155.700000
225.832230	156.240000
225.924896	155.300000
226.017548	155.440000
226.110199	156.480000
226.202866	155.460000
226.295532	155.000000
226.388184	155.180000
226.480850	154.420000
226.573517	153.680000
226.666168	154.140000
226.758835	154.620000
226.851501	155.140000
226.944183	155.520000
227.036850	155.200000
227.129517	155.320000
227.222183	155.480000
227.314850	155.340000
227.407516	155.660000
227.500198	156.720000
227.592865	156.060000
227.685532	155.420000
227.778214	155.200000
227.870880	155.480000
227.963562	155.280000
228.056229	155.780000
228.148926	156.060000
228.241592	156.980000
228.334274	156.080000
228.426956	155.560000
228.519638	155.820000
228.612305	155.040000
228.704987	154.600000
228.797668	155.080000
228.890350	154.820000
228.983032	154.000000
229.075714	155.020000
229.168396	154.700000
229.261108	154.040000
229.353790	154.320000
229.446472	154.800000
229.539169	154.700000
229.631851	154.340000
229.724533	154.980000
229.817230	155.020000
229.909912	156.060000
230.002609	155.980000
230.095306	156.000000
230.187988	156.060000
230.280685	156.200000
230.373383	154.680000
230.466095	154.300000
230.558792	154.840000
230.651474	154.460000
230.744171	154.160000
230.836868	154.360000
230.929581	154.840000
231.022278	154.760000
231.114975	155.000000
231.207672	155.160000
231.300369	155.460000
231.393082	155.480000
231.485779	155.140000
231.578506	154.860000
231.671204	155.120000
231.763916	155.000000
231.856613	154.860000
231.949326	155.060000
232.042023	155.140000
232.134735	154.900000
232.227448	154.620000
232.320160	154.780000
232.412872	154.980000
232.505585	155.880000
232.598297	156.320000
232.691010	156.480000
232.783722	155.900000
232.876450	156.660000
232.969162	155.680000
233.061874	154.760000
233.154587	154.540000
233.247314	155.220000
233.340027	154.140000
233.432739	154.920000
233.525467	155.280000
233.618179	155.760000
233.710907	154.940000
233.803635	155.140000
233.896347	154.420000
233.989090	155.260000
234.081818	155.180000
234.174545	155.800000
234.267258	155.560000
234.359985	155.800000
234.452713	155.220000
234.545441	155.020000
234.638168	154.740000
234.730896	155.220000
234.823639	155.300000
234.916367	155.760000
235.009094	155.620000
235.101822	155.580000
235.194580	155.620000
235.287308	155.480000
235.380051	154.680000
235.472778	155.320000
235.565521	155.760000
235.658249	155.380000
235.750992	155.580000
235.843719	155.560000
235.936462	155.340000
236.029205	155.120000
236.121948	154.600000
236.214691	154.980000
236.307449	155.940000
236.400192	155.800000
236.492935	155.320000
236.585678	155.680000
236.678421	155.380000
236.771164	154.940000
236.863907	155.400000
236.956665	155.960000
237.049408	157.840000
237.142151	157.400000
237.234909	158.420000
237.327652	158.140000
237.420410	157.800000
237.513153	156.440000
237.605927	156.620000
237.698669	155.260000
237.791428	154.620000
237.884186	155.160000
237.976944	154.820000
238.069702	154.880000
238.162445	154.580000
238.255203	154.960000
238.347961	155.060000
238.440720	155.060000
238.533478	155.120000
238.626266	155.140000
238.719025	155.500000
238.811783	155.280000
238.904541	155.320000
238.997314	155.020000
239.090073	154.620000
239.182831	154.920000
239.275604	155.680000
239.368362	155.760000
239.461136	156.140000
239.553909	156.400000
239.646667	155.900000
239.739441	155.500000
239.832214	155.660000
239.925003	155.740000
240.017761	156.800000
240.110535	157.360000
240.203308	156.700000
240.296082	156.760000
240.388855	156.740000
240.481628	156.720000
240.574417	156.760000
240.667191	156.940000
240.759964	156.620000
240.852737	156.620000
240.945526	155.680000
241.038315	154.880000
241.131088	154.980000
241.223877	155.060000
241.316650	154.700000
241.409439	155.540000
241.502228	155.600000
241.595001	156.120000
241.687790	156.060000
241.780579	156.140000
241.873367	156.200000
241.966141	156.500000
242.058929	155.480000
242.151718	155.860000
242.244507	156.500000
242.337311	155.780000
242.430099	156.400000
242.522903	157.040000
242.615692	156.560000
242.708481	156.100000
242.801270	156.580000
242.894073	155.860000
242.986862	155.860000
243.079651	156.380000
243.172455	155.900000
243.265244	155.600000
243.358063	155.320000
243.450867	155.340000
243.543655	155.240000
243.636459	155.720000
243.729263	156.260000
243.822067	156.600000
243.914856	157.080000
244.007660	156.900000
244.100464	156.760000
244.193268	156.300000
244.286072	155.940000
244.378876	155.220000
244.471680	154.740000
244.564499	154.940000
244.657318	155.820000
244.750122	156.380000
244.842926	155.880000
244.935745	156.660000
245.028549	156.360000
245.121368	155.440000
245.214172	155.260000
245.306992	156.240000
245.399796	155.440000
245.492615	155.780000
245.585434	155.560000
245.678253	155.720000
245.771072	155.380000
245.863892	156.100000
245.956711	156.060000
246.049530	156.160000
246.142349	155.300000
246.235168	155.260000
246.327988	155.680000
246.420807	155.700000
246.513626	156.000000
246.606445	156.320000
246.699280	155.960000
246.792099	155.400000
246.884918	154.840000
246.977753	154.440000
247.070587	154.560000
247.163422	154.740000
247.256241	154.900000
247.349075	155.240000
247.441895	155.320000
247.534729	155.540000
247.627563	155.360000
247.720383	155.800000
247.813217	155.760000
247.906052	155.700000
247.998886	155.520000
248.091736	155.700000
248.184570	154.940000
248.277405	154.900000
248.370239	155.660000
248.463074	156.600000
248.555908	156.520000
248.648743	156.440000
248.741592	156.800000
248.834427	156.260000
248.927261	155.040000
249.020111	155.480000
249.112946	156.320000
249.205795	155.720000
249.298630	155.760000
249.391495	155.920000
249.484344	155.520000
249.577179	154.960000
249.670029	155.400000
249.762878	155.780000
249.855728	156.140000
249.948563	156.240000
250.041412	155.640000
250.134262	155.700000
250.227112	155.920000
250.319962	156.040000
250.412827	156.060000
250.505692	156.060000
250.598541	156.000000
250.691391	155.360000
250.784241	155.180000
250.877106	155.400000
250.969955	155.260000
251.062805	155.500000
251.155670	155.900000
251.248520	155.320000
251.341385	155.420000
251.434235	155.700000
251.527100	155.400000
251.619965	155.020000
251.712814	156.020000
251.805695	155.860000
251.898560	156.080000
251.991425	156.320000
252.084290	156.440000
252.177155	155.480000
252.270020	155.040000
252.362885	154.900000
252.455750	154.760000
252.548615	154.500000
252.641479	155.100000
252.734360	155.180000
252.827240	155.060000
252.920105	155.020000
253.012970	154.980000
253.105850	154.600000
253.198715	154.480000
253.291595	154.680000
253.384460	154.020000
253.477341	154.040000
253.570221	154.660000
253.663086	154.320000
253.755966	155.000000
253.848846	155.600000
253.941727	155.980000
254.034592	155.280000
254.127472	155.180000
254.220367	155.100000
254.313248	155.120000
254.406128	154.700000
254.499008	155.100000
254.591904	156.100000
254.684784	156.140000
254.777664	156.120000
254.870544	156.100000
254.963440	155.900000
255.056335	155.780000
255.149216	155.440000
255.242111	155.800000
255.334991	156.320000
255.427887	156.300000
255.520767	156.160000
255.613663	156.300000
255.706558	155.580000
255.799438	154.880000
255.892334	154.820000
255.985229	154.800000
256.078125	154.440000
256.171021	155.060000
256.263916	155.820000
256.356812	156.120000
256.449707	156.060000
256.542603	155.700000
256.635498	155.760000
256.728394	155.200000
256.821289	154.820000
256.914215	155.280000
257.007080	155.580000
257.100006	155.780000
257.192932	156.260000
257.285828	156.480000
257.378723	155.680000
257.471619	155.600000
257.564545	154.660000
257.657440	154.560000
257.750336	155.340000
257.843262	155.280000
257.936157	156.600000
258.029053	157.160000
258.121979	157.100000
258.214874	156.400000
258.307800	156.500000
258.400696	155.080000
258.493622	155.200000
258.586517	154.300000
258.679443	154.400000
258.772339	154.000000
258.865265	154.060000
258.958160	153.820000
259.051086	155.260000
259.144012	154.880000
259.236938	156.040000
259.329834	156.320000
259.422791	156.060000
259.515717	154.940000
259.608612	154.860000
259.701538	154.400000
259.794464	154.280000
259.887390	154.440000
259.980316	154.380000
260.073212	154.420000
260.166138	153.620000
260.259064	153.820000
260.351990	154.340000
260.444916	154.780000
260.537842	155.120000
260.630768	156.140000
260.723694	155.960000
260.816620	155.440000
260.909546	155.180000
261.002472	154.880000
261.095398	154.460000
261.188354	154.380000
261.281281	153.960000
261.374207	154.120000
261.467133	154.980000
261.560089	155.300000
261.653015	155.140000
261.745972	156.200000
261.838867	156.380000
261.931824	156.080000
262.024780	155.660000
262.117706	155.860000
262.210663	155.780000
262.303589	155.680000
262.396515	155.600000
262.489471	156.440000
262.582397	156.340000
262.675354	155.560000
262.768280	155.700000
262.861237	155.680000
262.954163	155.280000
263.047119	155.380000
263.140045	155.400000
263.233002	155.580000
263.325958	155.240000
263.418884	154.980000
263.511841	154.920000
263.604797	154.980000
263.697723	154.620000
263.790680	154.920000
263.883636	155.240000
263.976593	155.260000
264.069550	155.480000
264.162476	155.420000
264.255463	155.220000
264.348419	154.980000
264.441376	155.200000
264.534332	154.540000
264.627289	154.780000
264.720245	155.420000
264.813202	154.920000
264.906158	155.140000
264.999115	155.960000
265.092072	155.680000
265.185028	155.820000
265.277985	156.500000
265.370941	156.220000
265.463898	155.780000
265.556854	155.580000
265.649811	154.580000
265.742798	154.300000
265.835754	154.420000
265.928711	155.120000
266.021667	155.360000
266.114655	155.680000
266.207611	156.000000
266.300568	155.340000
266.393585	154.820000
266.486511	155.240000
266.579498	154.580000
266.672485	154.180000
266.765442	154.140000
266.858429	154.820000
266.951385	154.380000
267.044342	154.740000
267.137329	154.780000
267.230316	155.000000
267.323273	154.020000
267.416260	154.360000
267.509216	154.380000
267.602203	154.340000
267.695160	154.880000
267.788147	155.100000
267.881134	154.460000
267.974091	154.760000
268.067078	154.620000
268.160065	154.500000
268.253052	154.520000
268.346008	155.060000
268.438995	154.680000
268.531982	155.060000
268.624969	154.660000
268.717987	155.080000
268.810944	154.680000
268.903961	155.100000
268.996948	154.560000
269.089905	155.500000
269.182892	155.400000
269.275879	156.000000
269.368866	155.160000
269.461853	155.780000
269.554871	155.400000
269.647858	155.420000
269.740845	155.640000
269.833832	156.620000
269.926819	155.960000
270.019806	155.820000
270.112793	155.440000
270.205811	155.220000
270.298798	154.880000
270.391785	155.620000
270.484772	155.240000
270.577789	155.260000
270.670776	154.720000
270.763763	154.560000
270.856750	154.280000
270.949768	154.260000
271.042786	154.440000
271.135773	154.780000
271.228790	155.200000
271.321808	155.040000
271.414795	154.540000
271.507782	154.200000
271.600800	153.960000
271.693817	153.860000
271.786804	154.260000
271.879822	154.980000
271.972809	155.120000
272.065826	155.540000
272.158844	155.040000
272.251831	156.000000
272.344849	156.080000
272.437866	155.880000
272.530853	155.700000
272.623871	156.360000
272.716888	154.480000
272.809906	154.680000
272.902893	154.680000
272.995911	154.200000
273.088928	153.840000
273.181946	154.520000
273.274963	154.040000
273.367981	154.040000
273.460999	154.600000
273.554047	155.120000
273.647003	155.900000
273.740051	156.260000
273.833069	156.740000
273.926086	156.620000
274.019135	156.060000
274.112152	155.460000
274.205170	155.440000
274.298187	155.600000
274.391205	155.380000
274.484222	155.700000
274.577240	155.820000
274.670258	155.600000
274.763306	155.220000
274.856323	155.440000
274.949341	155.260000
275.042358	155.640000
275.135406	155.500000
275.228424	155.600000
275.321442	155.660000
275.414490	155.540000
275.507507	155.700000
275.600525	156.200000
275.693573	156.020000
275.786591	155.560000
275.879669	155.520000
275.972656	154.740000
276.065735	154.480000
276.158752	155.080000
276.251801	155.880000
276.344818	156.260000
276.437866	156.500000
276.530884	156.280000
276.623932	155.320000
276.716980	155.400000
276.809998	155.220000
276.903046	154.920000
276.996094	155.820000
277.089111	156.840000
277.182159	156.980000
277.275208	156.840000
277.368256	157.240000
277.461304	156.860000
277.554321	156.120000
277.647369	156.040000
277.740417	156.160000
277.833466	156.040000
277.926514	155.760000
278.019562	156.460000
278.112610	155.660000
278.205688	155.620000
278.298706	155.540000
278.391785	155.460000
278.484833	154.600000
278.577881	154.900000
278.670929	155.200000
278.763977	155.360000
278.857025	155.460000
278.950073	155.880000
279.043121	155.520000
279.136169	155.420000
279.229248	154.840000
279.322296	155.360000
279.415344	154.960000
279.508392	154.980000
279.601440	154.860000
279.694519	155.220000
279.787567	154.540000
279.880615	154.240000
279.973694	154.160000
280.066742	154.040000
280.159790	154.040000
280.252869	154.040000
280.345917	154.700000
280.438995	154.840000
280.532074	154.940000
280.625122	155.540000
280.718201	156.380000
280.811279	155.960000
280.904327	155.880000
280.997406	156.060000
281.090454	155.460000
281.183533	154.580000
281.276581	154.800000
281.369659	154.560000
281.462738	154.700000
281.555786	155.140000
281.648865	155.360000
281.741943	155.500000
281.835022	156.260000
281.928070	155.700000
282.021149	155.140000
282.114227	155.080000
282.207306	154.760000
282.300385	155.100000
282.393433	155.240000
282.486511	155.180000
282.579590	155.500000
282.672668	156.200000
282.765747	155.360000
282.858856	155.120000
282.951904	155.380000
283.045013	155.460000
283.138062	155.440000
283.231171	155.640000
283.324249	156.280000
283.417328	156.080000
283.510406	155.480000
283.603485	155.180000
283.696564	155.240000
283.789642	154.800000
283.882751	154.860000
283.975830	155.640000
284.068909	155.480000
284.161987	156.200000
284.255066	156.080000
284.348175	156.020000
284.441254	155.580000
284.534332	155.920000
284.627441	155.000000
284.720520	154.720000
284.813599	154.820000
284.906708	154.860000
284.999786	154.100000
285.092896	153.980000
285.185974	155.240000
285.279053	154.880000
285.372192	154.800000
285.465240	155.680000
285.558380	155.560000
285.651459	154.680000
285.744568	155.760000
285.837677	155.440000
285.930756	155.320000
286.023865	155.880000
286.116943	155.680000
286.210052	155.200000
286.303162	155.160000
286.396240	154.860000
286.489349	154.820000
286.582458	155.380000
286.675568	155.040000
286.768646	155.300000
286.861755	155.620000
286.954865	156.100000
287.047974	155.580000
287.141083	155.480000
287.234161	155.200000
287.327271	154.960000
287.420380	155.120000
287.513519	154.960000
287.606598	155.260000
287.699738	155.540000
287.792816	155.600000
287.885956	155.140000
287.979034	155.200000
288.072174	155.120000
288.165283	155.060000
288.258392	155.060000
288.351501	154.420000
288.444611	154.660000
288.537720	155.060000
288.630859	154.700000
288.723969	154.920000
288.817078	155.660000
288.910187	155.760000
289.003296	154.960000
289.096436	154.980000
289.189545	154.640000
289.282654	153.780000
289.375763	154.300000
289.468903	155.080000
289.562012	155.500000
289.655121	155.580000
289.748260	156.040000
289.841400	155.940000
289.934509	155.700000
290.027649	155.700000
290.120728	155.740000
290.213898	155.840000
290.306976	155.160000
290.400146	155.280000
290.493256	155.080000
290.586395	155.040000
290.679535	155.220000
290.772644	155.320000
290.865784	154.580000
290.958893	154.540000
291.052032	154.480000
291.145172	154.780000
291.238281	154.460000
291.331421	154.620000
291.424561	155.120000
291.517670	155.240000
291.610809	154.820000
291.703949	154.940000
291.797089	155.200000
291.890228	154.440000
291.983337	154.200000
292.076477	153.980000
292.169617	154.660000
292.262756	154.420000
292.355927	154.700000
292.449036	154.280000
292.542206	154.320000
292.635315	154.060000
292.728485	154.680000
292.821625	154.200000
292.914764	155.740000
293.007904	155.960000
293.101044	155.840000
293.194183	155.640000
293.287323	156.200000
293.380463	155.340000
293.473602	155.160000
293.566742	155.360000
293.659882	155.860000
293.753021	155.980000
293.846191	155.780000
293.939331	155.640000
294.032471	155.460000
294.125610	154.840000
294.218781	155.340000
294.311920	155.740000
294.405060	155.800000
294.498230	155.700000
294.591370	155.800000
294.684540	154.720000
294.777679	154.200000
294.870850	154.620000
294.963959	154.660000
295.057159	154.420000
295.150299	155.080000
295.243469	155.060000
295.336609	154.540000
295.429779	154.660000
295.522919	155.300000
295.616089	155.060000
295.709229	155.920000
295.802399	156.220000
295.895569	156.140000
295.988708	155.580000
296.081879	155.860000
296.175018	154.900000
296.268188	154.680000
296.361359	154.840000
296.454529	154.860000
296.547668	154.520000
296.640839	154.920000
296.734009	154.800000
296.827179	154.880000
296.920319	155.180000
297.013519	155.200000
297.106659	155.640000
297.199860	155.560000
297.292999	155.420000
297.386200	155.180000
297.479309	154.980000
297.572510	154.360000
297.665680	154.280000
297.758850	154.260000
297.852020	154.020000
297.945190	154.160000
298.038361	154.160000
298.131531	155.440000
298.224701	155.300000
298.317871	155.180000
298.411072	154.640000
298.504242	154.480000
298.597412	153.600000
298.690582	153.800000
298.783752	153.900000
298.876923	154.680000
298.970093	154.700000
299.063293	155.260000
299.156464	155.540000
299.249634	156.080000
299.342834	156.220000
299.436005	156.680000
299.529205	156.320000
299.622345	156.360000
299.715576	155.380000
299.808716	154.780000
299.901917	154.600000
299.995117	154.740000
300.088287	154.680000
300.181488	154.940000
300.274658	155.000000
300.367828	154.920000
300.461029	154.660000
300.554199	155.000000
300.647400	155.300000
300.740601	155.860000
300.833771	155.800000
300.926971	156.200000
301.020142	155.360000
301.113342	155.200000
301.206512	155.240000
301.299713	155.540000
301.392914	155.100000
301.486084	155.440000
301.579285	155.600000
301.672516	155.800000
301.765686	155.380000
301.858887	155.460000
301.952057	155.600000
302.045288	155.360000
302.138458	155.160000
302.231659	155.120000
302.324860	154.880000
302.418060	154.460000
302.511261	154.580000
302.604462	154.580000
302.697662	154.640000
302.790863	154.720000
302.884064	154.400000
302.977264	154.640000
303.070465	154.480000
303.163666	155.160000
303.256866	155.480000
303.350067	155.860000
303.443268	155.960000
303.536469	156.360000
303.629669	155.820000
303.722870	155.720000
303.816071	155.480000
303.909271	154.860000
304.002472	153.960000
304.095673	153.720000
304.188934	153.060000
304.282104	154.180000
304.375336	154.480000
304.468506	154.620000
304.561768	154.580000
304.654968	155.260000
304.748169	154.400000
304.841370	154.260000
304.934601	154.520000
305.027802	154.520000
305.121002	154.080000
305.214233	154.220000
305.307434	154.520000
305.400665	155.320000
305.493866	154.960000
