Model Number: SPM-001-M   
Serial Number: 10090201
Firmware Version: 004.17.6
Exposure Time: 500000.000000us
Data Taken on: 10-03-2021 11:47:59.471
Wavelength	Amplitude
733.770752	0.000000
733.808716	0.000000
733.846619	0.000000
733.884583	0.000000
733.922546	0.000000
733.960449	0.000000
733.998413	0.000000
734.036377	0.000000
734.074219	0.000000
734.112183	0.000000
734.150085	0.000000
734.188049	0.000000
734.226013	0.000000
734.263916	0.000000
734.301819	0.000000
734.339783	0.000000
734.377686	0.000000
734.415588	0.000000
734.453552	0.000000
734.491455	0.000000
734.529419	0.000000
734.567322	0.000000
734.605225	0.000000
734.643127	0.000000
734.681091	0.000000
734.718994	0.000000
734.756897	0.000000
734.794800	0.000000
734.832703	0.000000
734.870667	0.000000
734.908508	0.000000
734.946472	0.000000
734.984375	0.000000
735.022278	0.000000
735.060181	0.000000
735.098083	0.000000
735.135986	0.000000
735.173889	0.000000
735.211792	0.000000
735.249695	0.000000
735.287598	0.000000
735.325439	0.000000
735.363403	0.000000
735.401306	0.000000
735.439148	0.000000
735.477051	0.000000
735.515015	0.000000
735.552856	0.000000
735.590759	0.000000
735.628662	0.000000
735.666504	0.000000
735.704407	0.000000
735.742310	0.000000
735.780212	0.000000
735.818115	0.000000
735.856018	0.000000
735.893860	0.000000
735.931763	0.000000
735.969604	0.000000
736.007507	0.000000
736.045410	0.000000
736.083252	0.000000
736.121094	0.000000
736.158997	0.000000
736.196838	0.000000
736.234741	0.000000
736.272644	0.000000
736.310486	0.000000
736.348389	0.000000
736.386230	0.000000
736.424072	0.000000
736.461975	0.000000
736.499878	0.000000
736.537720	0.000000
736.575562	0.000000
736.613403	0.000000
736.651306	0.000000
736.689148	0.000000
736.726990	0.000000
736.764893	0.000000
736.802734	0.000000
736.840576	0.000000
736.878418	0.000000
736.916321	0.000000
736.954102	0.000000
736.992004	0.000000
737.029846	0.000000
737.067688	0.000000
737.105530	0.000000
737.143372	0.000000
737.181213	0.000000
737.219116	0.000000
737.256897	0.000000
737.294739	0.000000
737.332642	0.000000
737.370422	0.000000
737.408325	0.000000
737.446167	0.000000
737.483948	0.000000
737.521790	0.000000
737.559692	0.000000
737.597473	0.000000
737.635315	0.000000
737.673157	0.000000
737.710999	0.000000
737.748840	0.000000
737.786621	0.000000
737.824463	0.000000
737.862305	0.000000
737.900085	0.000000
737.937927	0.000000
737.975769	0.000000
738.013550	0.000000
738.051392	0.000000
738.089233	0.000000
738.127014	0.000000
738.164856	0.000000
738.202698	0.000000
738.240479	0.000000
738.278320	0.000000
738.316162	0.000000
738.353943	0.000000
738.391785	0.000000
738.429565	0.000000
738.467407	0.000000
738.505188	0.000000
738.542969	0.000000
738.580811	0.000000
738.618652	0.000000
738.656372	0.000000
738.694214	0.000000
738.732056	0.000000
738.769836	0.000000
738.807617	0.000000
738.845459	0.000000
738.883240	0.000000
738.921021	0.000000
738.958862	0.000000
738.996582	0.000000
739.034424	0.000000
739.072205	0.000000
739.109985	0.000000
739.147827	0.000000
739.185547	0.000000
739.223389	0.000000
739.261169	0.000000
739.298889	0.000000
739.336731	0.000000
739.374512	0.000000
739.412292	0.000000
739.450073	0.000000
739.487854	0.000000
739.525635	0.000000
739.563416	0.000000
739.601135	0.000000
739.638977	0.000000
739.676758	0.000000
739.714478	0.000000
739.752258	0.000000
739.790100	0.000000
739.827820	0.000000
739.865601	0.000000
739.903381	0.000000
739.941101	0.000000
739.978882	199.200000
740.016724	193.900000
740.054443	200.700000
740.092224	191.700000
740.130005	189.800000
740.167725	191.400000
740.205505	191.300000
740.243225	199.800000
740.281006	196.800000
740.318787	187.600000
740.356506	199.800000
740.394287	198.500000
740.432068	190.100000
740.469727	187.900000
740.507507	199.200000
740.545288	193.300000
740.583008	197.200000
740.620789	194.000000
740.658569	186.000000
740.696228	193.700000
740.734009	201.800000
740.771790	182.000000
740.809509	199.900000
740.847229	189.200000
740.884949	192.000000
740.922729	186.600000
740.960449	192.700000
740.998169	188.800000
741.035950	190.400000
741.073669	195.900000
741.111389	195.700000
741.149170	203.900000
741.186890	206.200000
741.224609	198.500000
741.262329	196.700000
741.300110	204.800000
741.337769	189.600000
741.375549	188.000000
741.413208	196.600000
741.450989	190.000000
741.488708	192.600000
741.526367	192.100000
741.564148	199.100000
741.601868	198.100000
741.639526	193.700000
741.677307	196.900000
741.715027	197.100000
741.752686	190.700000
741.790466	199.900000
741.828186	197.100000
741.865845	189.800000
741.903564	186.000000
741.941345	195.000000
741.979004	190.300000
742.016724	196.300000
742.054382	195.500000
742.092102	200.200000
742.129822	187.600000
742.167480	192.100000
742.205200	194.800000
742.242920	195.000000
742.280640	199.500000
742.318359	189.700000
742.356079	191.400000
742.393738	196.000000
742.431396	193.800000
742.469116	197.200000
742.506775	184.100000
742.544495	196.900000
742.582214	199.200000
742.619873	193.800000
742.657593	202.400000
742.695251	197.800000
742.732971	193.600000
742.770630	196.100000
742.808289	196.100000
742.846008	194.200000
742.883728	198.400000
742.921326	194.200000
742.959045	191.900000
742.996765	194.800000
743.034424	194.900000
743.072083	190.700000
743.109802	194.400000
743.147400	188.100000
743.185120	196.000000
743.222839	193.400000
743.260437	200.900000
743.298157	196.400000
743.335754	187.600000
743.373474	192.700000
743.411133	187.900000
743.448792	196.100000
743.486450	194.400000
743.524170	186.800000
743.561768	193.000000
743.599487	200.200000
743.637146	206.000000
743.674744	192.400000
743.712463	192.600000
743.750122	195.000000
743.787720	197.400000
743.825439	189.200000
743.863037	191.500000
743.900696	194.500000
743.938416	219.100000
743.976013	193.000000
744.013672	203.700000
744.051331	200.000000
744.088928	202.400000
744.126587	202.000000
744.164307	194.900000
744.201904	192.600000
744.239563	198.000000
744.277222	197.200000
744.314819	192.800000
744.352478	202.000000
744.390137	197.000000
744.427734	197.200000
744.465393	191.600000
744.502991	190.700000
744.540649	198.200000
744.578308	197.100000
744.615906	188.000000
744.653564	184.800000
744.691223	199.200000
744.728821	187.700000
744.766418	193.500000
744.804077	197.400000
744.841675	191.900000
744.879333	188.400000
744.916992	194.100000
744.954529	192.600000
744.992187	200.500000
745.029785	192.900000
745.067444	190.700000
745.105042	195.200000
745.142639	196.100000
745.180298	204.300000
745.217896	194.100000
745.255493	192.200000
745.293152	198.700000
745.330750	198.100000
745.368347	201.700000
745.405945	198.100000
745.443604	195.500000
745.481140	196.900000
745.518799	193.500000
745.556396	198.000000
745.593994	198.500000
745.631592	193.400000
745.669189	189.900000
745.706787	196.600000
745.744385	191.000000
745.781982	195.900000
745.819580	191.000000
745.857178	192.100000
745.894775	194.500000
745.932373	195.200000
745.969971	194.900000
746.007568	185.500000
746.045166	204.100000
746.082764	199.700000
746.120300	198.900000
746.157898	196.600000
746.195557	194.100000
746.233093	189.000000
746.270691	199.300000
746.308228	195.400000
746.345825	200.700000
746.383423	197.900000
746.420959	191.000000
746.458557	193.000000
746.496155	192.900000
746.533691	193.900000
746.571289	190.800000
746.608887	194.600000
746.646423	197.300000
746.684021	194.800000
746.721619	192.300000
746.759155	195.600000
746.796753	187.700000
746.834351	187.800000
746.871826	190.400000
746.909424	201.500000
746.946960	195.400000
746.984558	193.300000
747.022156	192.700000
747.059631	202.800000
747.097229	196.700000
747.134827	193.200000
747.172363	201.900000
747.209900	195.600000
747.247498	188.800000
747.285034	202.500000
747.322571	201.200000
747.360168	193.800000
747.397644	185.400000
747.435242	199.000000
747.472778	201.400000
747.510315	191.700000
747.547913	191.300000
747.585388	201.800000
747.622925	192.700000
747.660522	186.400000
747.697998	189.000000
747.735596	195.100000
747.773132	190.500000
747.810669	194.000000
747.848206	197.700000
747.885742	189.600000
747.923279	188.800000
747.960815	198.000000
747.998352	194.200000
748.035889	200.200000
748.073425	200.100000
748.110901	192.600000
748.148437	190.100000
748.185974	195.700000
748.223511	204.300000
748.261047	197.500000
748.298584	196.400000
748.336060	195.000000
748.373596	197.300000
748.411133	213.100000
748.448608	191.100000
748.486145	200.900000
748.523682	203.700000
748.561218	202.100000
748.598755	195.000000
748.636292	197.200000
748.673706	192.400000
748.711243	200.800000
748.748718	196.600000
748.786255	195.300000
748.823792	194.400000
748.861267	189.800000
748.898804	196.600000
748.936340	196.400000
748.973816	193.400000
749.011292	200.000000
749.048828	195.500000
749.086304	196.800000
749.123840	207.100000
749.161316	189.000000
749.198792	204.400000
749.236328	201.100000
749.273743	195.000000
749.311279	192.500000
749.348816	197.900000
749.386230	196.100000
749.423767	184.100000
749.461304	196.700000
749.498718	195.300000
749.536255	201.800000
749.573730	208.800000
749.611206	199.200000
749.648682	194.100000
749.686218	194.100000
749.723633	201.500000
749.761169	193.000000
749.798645	191.000000
749.836060	193.300000
749.873596	191.500000
749.911011	193.100000
749.948547	202.900000
749.986023	194.600000
750.023437	194.800000
750.060913	188.500000
750.098450	189.600000
750.135864	194.200000
750.173340	196.500000
750.210815	200.600000
750.248291	190.200000
750.285767	194.300000
750.323242	201.800000
750.360657	197.600000
750.398132	188.900000
750.435608	199.100000
750.473022	190.700000
750.510498	190.900000
750.547974	190.700000
750.585449	193.400000
750.622925	184.000000
750.660339	203.100000
750.697815	196.000000
750.735291	194.000000
750.772644	195.700000
750.810120	193.900000
750.847595	196.800000
750.885010	190.600000
750.922485	202.100000
750.959961	194.200000
750.997375	202.600000
751.034851	199.300000
751.072266	200.000000
751.109680	188.100000
751.147156	200.300000
751.184570	198.500000
751.221985	196.600000
751.259460	185.400000
751.296875	194.300000
751.334290	197.200000
751.371765	199.600000
751.409180	199.200000
751.446594	201.300000
751.484070	198.600000
751.521423	197.300000
751.558899	197.000000
751.596375	202.600000
751.633728	203.000000
751.671204	209.200000
751.708618	192.200000
751.746033	196.700000
751.783447	189.900000
751.820801	191.400000
751.858276	198.200000
751.895691	195.800000
751.933105	193.600000
751.970520	191.000000
752.007935	193.000000
752.045349	200.100000
752.082764	196.500000
752.120178	194.100000
752.157532	191.100000
752.195007	191.700000
752.232422	197.700000
752.269775	201.300000
752.307190	197.700000
752.344543	190.700000
752.382019	194.500000
752.419434	193.900000
752.456787	196.000000
752.494202	200.100000
752.531616	197.700000
752.568970	199.200000
752.606384	195.700000
752.643799	197.400000
752.681152	203.200000
752.718567	200.200000
752.755981	185.300000
752.793335	198.700000
752.830750	185.500000
752.868164	202.300000
752.905518	190.800000
752.942932	200.400000
752.980225	189.700000
753.017639	200.800000
753.055054	193.100000
753.092407	199.000000
753.129822	201.400000
753.167175	205.700000
753.204529	195.300000
753.241943	194.500000
753.279358	188.200000
753.316650	199.800000
753.354065	197.800000
753.391479	200.900000
753.428772	204.300000
753.466187	199.400000
753.503479	189.500000
753.540894	195.200000
753.578308	190.800000
753.615601	190.800000
753.653015	195.400000
753.690369	193.500000
753.727722	191.400000
753.765076	188.400000
753.802490	190.800000
753.839783	187.100000
753.877136	193.500000
753.914551	211.200000
753.951843	188.700000
753.989258	198.600000
754.026611	196.000000
754.063904	196.200000
754.101257	189.900000
754.138611	186.000000
754.175964	196.500000
754.213318	206.400000
754.250610	187.300000
754.288025	191.700000
754.325378	190.100000
754.362671	200.700000
754.400024	193.300000
754.437378	204.400000
754.474670	205.800000
754.512085	191.300000
754.549438	196.300000
754.586731	193.400000
754.624084	194.400000
754.661438	190.600000
754.698730	204.500000
754.736084	192.800000
754.773376	195.500000
754.810730	198.000000
754.848083	194.300000
754.885315	200.400000
754.922668	188.800000
754.960022	191.000000
754.997314	201.100000
755.034668	196.700000
755.072021	197.000000
755.109253	193.700000
755.146606	204.800000
755.183960	194.900000
755.221252	206.200000
755.258545	204.400000
755.295898	203.100000
755.333191	204.900000
755.370544	201.100000
755.407776	197.700000
755.445129	198.700000
755.482422	201.900000
755.519714	194.000000
755.557068	190.500000
755.594360	187.900000
755.631653	203.200000
755.668945	207.800000
755.706299	201.200000
755.743530	208.900000
755.780884	206.700000
755.818176	205.800000
755.855408	204.100000
755.892761	200.800000
755.930054	200.500000
755.967346	202.300000
756.004639	205.100000
756.041870	199.300000
756.079224	206.100000
756.116516	196.200000
756.153748	205.400000
756.191040	207.600000
756.228394	204.500000
756.265625	195.800000
756.302917	201.600000
756.340210	196.400000
756.377441	207.700000
756.414795	207.500000
756.452087	201.500000
756.489319	195.300000
756.526611	204.700000
756.563843	201.500000
756.601135	214.000000
756.638428	209.900000
756.675659	202.800000
756.712952	207.200000
756.750244	207.700000
756.787476	203.200000
756.824768	211.600000
756.862061	200.500000
756.899292	250.100000
756.936584	208.400000
756.973816	214.200000
757.011047	217.500000
757.048340	205.700000
757.085632	204.500000
757.122864	220.500000
757.160156	204.600000
757.197327	207.500000
757.234619	208.700000
757.271912	204.000000
757.309082	212.100000
757.346375	202.400000
757.383667	212.900000
757.420837	208.300000
757.458130	208.600000
757.495422	207.000000
757.532593	208.200000
757.569885	199.500000
757.607117	201.400000
757.644348	208.700000
757.681580	221.100000
757.718811	194.600000
757.756042	207.200000
757.793335	205.300000
757.830505	211.900000
757.867798	204.200000
757.905029	204.600000
757.942200	208.400000
757.979492	204.500000
758.016724	206.500000
758.053894	207.400000
758.091187	226.200000
758.128418	209.400000
758.165588	207.200000
758.202820	221.300000
758.240112	210.600000
758.277283	222.200000
758.314514	211.200000
758.351685	207.500000
758.388916	219.400000
758.426147	218.800000
758.463379	220.600000
758.500610	214.500000
758.537842	211.100000
758.575012	219.100000
758.612244	207.100000
758.649475	226.600000
758.686646	205.200000
758.723877	220.600000
758.761108	220.000000
758.798279	213.300000
758.835510	214.900000
758.872742	221.200000
758.909851	216.600000
758.947083	217.700000
758.984253	216.400000
759.021484	221.000000
759.058716	219.200000
759.095886	219.000000
759.133057	213.800000
759.170288	219.000000
759.207458	210.600000
759.244690	225.600000
759.281860	226.100000
759.319031	215.700000
759.356262	215.800000
759.393433	213.600000
759.430603	215.900000
759.467773	214.500000
759.505005	224.300000
759.542175	221.500000
759.579346	216.400000
759.616516	215.700000
759.653687	219.500000
759.690918	213.800000
759.728027	218.800000
759.765259	219.000000
759.802429	221.500000
759.839539	218.400000
759.876770	224.300000
759.913940	228.300000
759.951111	221.200000
759.988281	218.800000
760.025452	217.200000
760.062561	214.300000
760.099792	229.600000
760.136963	223.000000
760.174072	220.100000
760.211243	213.300000
760.248413	217.000000
760.285583	216.500000
760.322754	232.200000
760.359863	226.900000
760.397034	229.000000
760.434204	220.700000
760.471375	221.300000
760.508545	220.700000
760.545715	221.200000
760.582825	218.100000
760.619995	227.500000
760.657166	216.000000
760.694275	228.600000
760.731445	225.300000
760.768555	226.500000
760.805664	227.000000
760.842834	226.600000
760.879944	227.300000
760.917114	226.000000
760.954285	225.200000
760.991394	220.200000
761.028564	231.300000
761.065674	228.500000
761.102783	222.400000
761.139954	232.100000
761.177124	231.800000
761.214172	234.600000
761.251343	226.200000
761.288452	227.800000
761.325562	233.200000
761.362732	225.100000
761.399841	229.800000
761.436951	231.200000
761.474121	227.400000
761.511169	230.700000
761.548340	235.900000
761.585449	234.000000
761.622559	237.700000
761.659668	233.400000
761.696838	240.700000
761.733887	236.200000
761.771057	235.400000
761.808167	235.000000
761.845276	241.200000
761.882385	249.800000
761.919434	239.600000
761.956604	257.100000
761.993713	235.100000
762.030762	244.900000
762.067871	240.900000
762.105042	237.700000
762.142090	250.500000
762.179199	242.700000
762.216309	248.900000
762.253418	257.900000
762.290527	252.000000
762.327637	249.200000
762.364685	239.200000
762.401794	247.800000
762.438904	246.400000
762.475952	241.600000
762.513062	240.600000
762.550110	241.100000
762.587219	258.100000
762.624329	256.300000
762.661377	250.700000
762.698486	247.100000
762.735596	248.900000
762.772644	242.900000
762.809753	240.200000
762.846863	249.500000
762.883911	252.800000
762.921021	253.200000
762.958069	250.000000
762.995117	259.800000
763.032227	259.200000
763.069336	250.900000
763.106323	247.200000
763.143433	246.600000
763.180481	253.900000
763.217590	255.200000
763.254639	251.100000
763.291687	254.700000
763.328735	261.400000
763.365845	254.700000
763.402893	253.500000
763.439941	258.500000
763.477051	260.300000
763.514038	263.400000
763.551147	253.600000
763.588196	259.500000
763.625244	257.300000
763.662292	267.800000
763.699402	268.400000
763.736389	264.400000
763.773499	274.200000
763.810486	270.000000
763.847534	262.800000
763.884644	268.800000
763.921631	263.200000
763.958679	275.700000
763.995728	263.600000
764.032776	274.300000
764.069824	260.500000
764.106873	269.100000
764.143860	277.000000
764.180969	266.600000
764.218018	275.200000
764.255005	269.000000
764.292053	269.900000
764.329102	282.500000
764.366089	282.900000
764.403137	279.800000
764.440125	270.500000
764.477173	273.600000
764.514221	275.300000
764.551208	272.800000
764.588257	269.500000
764.625305	280.800000
764.662292	285.900000
764.699341	292.200000
764.736389	280.900000
764.773376	297.100000
764.810425	284.600000
764.847473	290.400000
764.884399	286.900000
764.921448	293.800000
764.958435	293.200000
764.995483	280.300000
765.032532	300.100000
765.069458	285.200000
765.106506	286.600000
765.143555	282.500000
765.180481	289.600000
765.217529	298.800000
765.254578	283.200000
765.291504	292.200000
765.328552	289.100000
765.365540	287.100000
765.402527	301.300000
765.439575	286.900000
765.476501	284.100000
765.513550	284.600000
765.550537	289.300000
765.587463	298.200000
765.624512	289.200000
765.661499	281.600000
765.698486	301.200000
765.735474	288.700000
765.772461	293.000000
765.809448	300.300000
765.846436	296.400000
765.883423	302.100000
765.920410	295.400000
765.957397	292.000000
765.994385	298.400000
766.031311	307.000000
766.068359	298.800000
766.105286	300.800000
766.142273	307.500000
766.179260	301.800000
766.216187	295.000000
766.253174	292.500000
766.290161	302.500000
766.327148	306.500000
766.364136	306.600000
766.401123	323.200000
766.438049	298.000000
766.475037	315.500000
766.512024	310.700000
766.548950	326.700000
766.585937	320.000000
766.622864	318.800000
766.659790	316.300000
766.696777	306.700000
766.733704	321.800000
766.770691	314.200000
766.807678	329.200000
766.844604	325.600000
766.881531	322.400000
766.918518	330.600000
766.955444	333.300000
766.992432	327.600000
767.029358	328.700000
767.066284	335.200000
767.103271	332.400000
767.140198	362.500000
767.177124	348.200000
767.214050	339.900000
767.251038	338.600000
767.287964	338.100000
767.324890	331.200000
767.361816	340.400000
767.398743	346.800000
767.435730	341.400000
767.472595	345.700000
767.509583	350.300000
767.546509	337.400000
767.583374	347.400000
767.620361	340.400000
767.657288	346.800000
767.694214	348.800000
767.731140	347.500000
767.768066	348.000000
767.804993	355.100000
767.841919	344.600000
767.878845	354.100000
767.915710	362.300000
767.952698	356.100000
767.989563	359.300000
768.026489	360.400000
