Model Number: SPM-002-B   
Serial Number: 70087108
Firmware Version: 004.15.4
Exposure Time: 100000.000000us
Data Taken on: 15-01-2021 16:18:59.039
Wavelength	Amplitude
221.570786	0.000000
221.663406	0.000000
221.756027	0.000000
221.848648	0.000000
221.941269	0.000000
222.033905	0.000000
222.126526	0.000000
222.219162	0.000000
222.311798	0.000000
222.404419	0.000000
222.497055	0.000000
222.589676	0.000000
222.682312	0.000000
222.774933	0.000000
222.867569	0.000000
222.960205	0.000000
223.052841	0.000000
223.145462	0.000000
223.238098	0.000000
223.330734	0.000000
223.423386	0.000000
223.516022	0.000000
223.608658	0.000000
223.701309	0.000000
223.793945	0.000000
223.886581	0.000000
223.979218	0.000000
224.071869	0.000000
224.164505	0.000000
224.257156	0.000000
224.349792	0.000000
224.442444	0.000000
224.535095	0.000000
224.627747	0.000000
224.720398	0.000000
224.813034	0.000000
224.905685	0.000000
224.998337	151.240000
225.090988	151.160000
225.183640	151.460000
225.276291	151.180000
225.368942	151.060000
225.461594	151.820000
225.554245	152.040000
225.646912	152.160000
225.739578	152.580000
225.832230	153.240000
225.924896	152.400000
226.017548	152.700000
226.110199	153.100000
226.202866	152.360000
226.295532	152.060000
226.388184	151.720000
226.480850	151.120000
226.573517	150.580000
226.666168	151.080000
226.758835	151.340000
226.851501	152.300000
226.944183	152.700000
227.036850	152.420000
227.129517	152.480000
227.222183	152.460000
227.314850	152.060000
227.407516	152.200000
227.500198	152.920000
227.592865	152.320000
227.685532	152.020000
227.778214	151.840000
227.870880	152.100000
227.963562	152.340000
228.056229	153.100000
228.148926	153.120000
228.241592	154.280000
228.334274	153.720000
228.426956	153.380000
228.519638	153.180000
228.612305	152.380000
228.704987	151.700000
228.797668	152.000000
228.890350	151.560000
228.983032	150.940000
229.075714	151.900000
229.168396	151.620000
229.261108	151.200000
229.353790	151.420000
229.446472	151.900000
229.539169	151.900000
229.631851	151.660000
229.724533	152.020000
229.817230	152.180000
229.909912	153.020000
230.002609	152.780000
230.095306	153.060000
230.187988	153.040000
230.280685	152.800000
230.373383	151.620000
230.466095	151.640000
230.558792	151.680000
230.651474	151.540000
230.744171	151.360000
230.836868	151.560000
230.929581	151.700000
231.022278	151.880000
231.114975	152.060000
231.207672	152.140000
231.300369	152.520000
231.393082	152.680000
231.485779	152.400000
231.578506	152.280000
231.671204	152.580000
231.763916	152.460000
231.856613	152.120000
231.949326	152.080000
232.042023	151.960000
232.134735	152.020000
232.227448	152.100000
232.320160	152.660000
232.412872	152.880000
232.505585	153.640000
232.598297	153.440000
232.691010	153.200000
232.783722	152.440000
232.876450	152.760000
232.969162	151.860000
233.061874	151.680000
233.154587	151.200000
233.247314	151.840000
233.340027	151.280000
233.432739	151.920000
233.525467	151.880000
233.618179	152.500000
233.710907	151.960000
233.803635	152.360000
233.896347	152.000000
233.989090	152.840000
234.081818	152.940000
234.174545	153.240000
234.267258	152.780000
234.359985	153.140000
234.452713	152.460000
234.545441	152.020000
234.638168	151.860000
234.730896	152.300000
234.823639	152.340000
234.916367	152.620000
235.009094	152.740000
235.101822	152.880000
235.194580	152.940000
235.287308	152.740000
235.380051	152.400000
235.472778	152.880000
235.565521	152.960000
235.658249	152.440000
235.750992	152.180000
235.843719	151.900000
235.936462	151.940000
236.029205	151.460000
236.121948	151.220000
236.214691	151.700000
236.307449	152.840000
236.400192	152.060000
236.492935	152.100000
236.585678	152.600000
236.678421	152.280000
236.771164	151.820000
236.863907	152.540000
236.956665	152.960000
237.049408	154.500000
237.142151	153.940000
237.234909	154.520000
237.327652	154.360000
237.420410	153.920000
237.513153	152.720000
237.605927	153.120000
237.698669	152.140000
237.791428	151.540000
237.884186	152.140000
237.976944	151.800000
238.069702	151.980000
238.162445	152.040000
238.255203	152.280000
238.347961	152.460000
238.440720	152.440000
238.533478	152.300000
238.626266	152.060000
238.719025	152.640000
238.811783	152.360000
238.904541	152.280000
238.997314	152.200000
239.090073	152.040000
239.182831	151.920000
239.275604	152.680000
239.368362	152.400000
239.461136	152.360000
239.553909	152.620000
239.646667	152.280000
239.739441	151.400000
239.832214	151.800000
239.925003	151.860000
240.017761	152.500000
240.110535	153.060000
240.203308	152.620000
240.296082	152.500000
240.388855	152.720000
240.481628	152.560000
240.574417	152.440000
240.667191	152.600000
240.759964	152.400000
240.852737	152.340000
240.945526	151.860000
241.038315	151.600000
241.131088	151.700000
241.223877	152.060000
241.316650	151.420000
241.409439	152.000000
241.502228	151.620000
241.595001	152.360000
241.687790	152.120000
241.780579	152.620000
241.873367	152.580000
241.966141	152.900000
242.058929	151.760000
242.151718	152.000000
242.244507	152.260000
242.337311	151.520000
242.430099	152.200000
242.522903	152.880000
242.615692	152.440000
242.708481	152.240000
242.801270	152.620000
242.894073	152.180000
242.986862	152.040000
243.079651	152.700000
243.172455	152.460000
243.265244	152.720000
243.358063	152.140000
243.450867	152.500000
243.543655	152.280000
243.636459	152.500000
243.729263	152.700000
243.822067	153.300000
243.914856	153.700000
244.007660	153.700000
244.100464	153.660000
244.193268	153.180000
244.286072	152.940000
244.378876	152.280000
244.471680	151.980000
244.564499	152.320000
244.657318	152.920000
244.750122	153.260000
244.842926	152.720000
244.935745	153.240000
245.028549	152.920000
245.121368	152.460000
245.214172	152.240000
245.306992	152.940000
245.399796	152.340000
245.492615	152.380000
245.585434	152.220000
245.678253	152.120000
245.771072	151.920000
245.863892	152.360000
245.956711	152.320000
246.049530	152.280000
246.142349	152.100000
246.235168	152.060000
246.327988	152.480000
246.420807	152.420000
246.513626	152.660000
246.606445	152.500000
246.699280	152.420000
246.792099	152.020000
246.884918	151.820000
246.977753	151.000000
247.070587	151.340000
247.163422	151.220000
247.256241	151.140000
247.349075	151.480000
247.441895	152.060000
247.534729	151.840000
247.627563	151.840000
247.720383	152.500000
247.813217	152.320000
247.906052	152.120000
247.998886	152.380000
248.091736	152.440000
248.184570	151.600000
248.277405	151.920000
248.370239	152.900000
248.463074	153.800000
248.555908	153.980000
248.648743	154.040000
248.741592	153.960000
248.834427	153.220000
248.927261	151.860000
249.020111	152.340000
249.112946	152.900000
249.205795	152.600000
249.298630	152.860000
249.391495	153.140000
249.484344	152.480000
249.577179	152.140000
249.670029	152.360000
249.762878	152.520000
249.855728	152.700000
249.948563	152.940000
250.041412	152.540000
250.134262	152.560000
250.227112	152.700000
250.319962	152.440000
250.412827	152.400000
250.505692	152.280000
250.598541	152.440000
250.691391	151.940000
250.784241	152.200000
250.877106	151.940000
250.969955	152.000000
251.062805	152.320000
251.155670	152.620000
251.248520	152.500000
251.341385	153.000000
251.434235	152.840000
251.527100	152.420000
251.619965	152.180000
251.712814	153.000000
251.805695	152.860000
251.898560	153.420000
251.991425	153.920000
252.084290	154.080000
252.177155	152.860000
252.270020	152.680000
252.362885	152.480000
252.455750	151.820000
252.548615	151.620000
252.641479	152.080000
252.734360	151.740000
252.827240	151.600000
252.920105	151.920000
253.012970	151.920000
253.105850	151.880000
253.198715	151.860000
253.291595	152.140000
253.384460	151.760000
253.477341	151.960000
253.570221	152.400000
253.663086	152.320000
253.755966	152.900000
253.848846	152.960000
253.941727	152.860000
254.034592	152.080000
254.127472	151.740000
254.220367	151.420000
254.313248	151.820000
254.406128	151.340000
254.499008	152.020000
254.591904	153.220000
254.684784	153.500000
254.777664	153.100000
254.870544	153.120000
254.963440	152.560000
255.056335	152.500000
255.149216	152.060000
255.242111	152.600000
255.334991	153.240000
255.427887	153.460000
255.520767	153.600000
255.613663	153.680000
255.706558	153.120000
255.799438	152.680000
255.892334	152.760000
255.985229	152.140000
256.078125	152.060000
256.171021	152.000000
256.263916	152.720000
256.356812	152.860000
256.449707	153.080000
256.542603	153.220000
256.635498	154.000000
256.728394	153.500000
256.821289	153.160000
256.914215	153.380000
257.007080	153.480000
257.100006	153.320000
257.192932	153.680000
257.285828	154.000000
257.378723	153.460000
257.471619	152.920000
257.564545	152.300000
257.657440	152.340000
257.750336	152.640000
257.843262	152.660000
257.936157	153.860000
258.029053	154.200000
258.121979	153.620000
258.214874	153.280000
258.307800	153.120000
258.400696	151.880000
258.493622	151.560000
258.586517	151.160000
258.679443	151.420000
258.772339	151.180000
258.865265	151.280000
258.958160	150.940000
259.051086	152.300000
259.144012	151.900000
259.236938	153.000000
259.329834	152.920000
259.422791	152.980000
259.515717	151.820000
259.608612	151.440000
259.701538	150.940000
259.794464	150.880000
259.887390	150.960000
259.980316	151.060000
260.073212	151.120000
260.166138	150.240000
260.259064	150.900000
260.351990	151.580000
260.444916	151.880000
260.537842	152.420000
260.630768	153.300000
260.723694	153.000000
260.816620	152.820000
260.909546	152.660000
261.002472	152.360000
261.095398	152.080000
261.188354	151.800000
261.281281	151.320000
261.374207	151.640000
261.467133	152.040000
261.560089	152.180000
261.653015	152.060000
261.745972	152.720000
261.838867	152.740000
261.931824	152.860000
262.024780	152.460000
262.117706	153.060000
262.210663	153.220000
262.303589	152.660000
262.396515	152.380000
262.489471	153.520000
262.582397	153.340000
262.675354	152.600000
262.768280	152.920000
262.861237	153.060000
262.954163	152.680000
263.047119	152.500000
263.140045	152.180000
263.233002	152.020000
263.325958	152.080000
263.418884	151.340000
263.511841	151.580000
263.604797	152.120000
263.697723	152.320000
263.790680	152.120000
263.883636	152.820000
263.976593	152.420000
264.069550	152.640000
264.162476	152.500000
264.255463	152.440000
264.348419	151.960000
264.441376	152.560000
264.534332	151.840000
264.627289	152.040000
264.720245	152.780000
264.813202	152.480000
264.906158	152.380000
264.999115	153.160000
265.092072	153.060000
265.185028	152.960000
265.277985	153.740000
265.370941	153.340000
265.463898	152.980000
265.556854	152.760000
265.649811	151.600000
265.742798	151.200000
265.835754	151.420000
265.928711	152.140000
266.021667	152.340000
266.114655	152.740000
266.207611	153.120000
266.300568	152.580000
266.393585	151.680000
266.486511	152.020000
266.579498	151.480000
266.672485	151.100000
266.765442	151.220000
266.858429	151.780000
266.951385	151.160000
267.044342	151.760000
267.137329	151.620000
267.230316	151.960000
267.323273	151.780000
267.416260	152.580000
267.509216	152.260000
267.602203	152.620000
267.695160	153.120000
267.788147	152.920000
267.881134	152.140000
267.974091	152.240000
268.067078	152.000000
268.160065	151.600000
268.253052	151.860000
268.346008	152.220000
268.438995	152.440000
268.531982	152.780000
268.624969	152.560000
268.717987	152.580000
268.810944	152.260000
268.903961	152.460000
268.996948	151.980000
269.089905	152.560000
269.182892	152.600000
269.275879	152.960000
269.368866	152.400000
269.461853	152.560000
269.554871	152.140000
269.647858	152.080000
269.740845	152.520000
269.833832	152.980000
269.926819	153.140000
270.019806	153.180000
270.112793	152.540000
270.205811	152.340000
270.298798	152.120000
270.391785	152.400000
270.484772	152.380000
270.577789	152.820000
270.670776	152.020000
270.763763	152.000000
270.856750	151.880000
270.949768	151.340000
271.042786	151.420000
271.135773	151.860000
271.228790	152.140000
271.321808	151.840000
271.414795	151.820000
271.507782	151.340000
271.600800	151.040000
271.693817	151.040000
271.786804	151.220000
271.879822	151.720000
271.972809	151.700000
272.065826	152.180000
272.158844	151.660000
272.251831	152.300000
272.344849	152.320000
272.437866	152.500000
272.530853	152.760000
272.623871	153.240000
272.716888	151.860000
272.809906	152.420000
272.902893	152.400000
272.995911	151.680000
273.088928	151.420000
273.181946	152.020000
273.274963	151.140000
273.367981	151.420000
273.460999	151.700000
273.554047	152.340000
273.647003	152.980000
273.740051	153.040000
273.833069	153.300000
273.926086	153.740000
274.019135	153.120000
274.112152	152.320000
274.205170	152.380000
274.298187	152.360000
274.391205	151.460000
274.484222	151.740000
274.577240	152.240000
274.670258	152.240000
274.763306	152.080000
274.856323	152.700000
274.949341	152.640000
275.042358	152.860000
275.135406	152.800000
275.228424	152.560000
275.321442	152.340000
275.414490	152.160000
275.507507	152.440000
275.600525	153.060000
275.693573	152.820000
275.786591	152.440000
275.879669	152.720000
275.972656	152.020000
276.065735	151.480000
276.158752	152.280000
276.251801	153.120000
276.344818	152.880000
276.437866	152.920000
276.530884	152.800000
276.623932	151.820000
276.716980	151.800000
276.809998	152.080000
276.903046	152.180000
276.996094	153.280000
277.089111	154.120000
277.182159	154.580000
277.275208	153.860000
277.368256	153.980000
277.461304	153.120000
277.554321	152.380000
277.647369	151.980000
277.740417	152.440000
277.833466	152.260000
277.926514	152.480000
278.019562	153.460000
278.112610	152.820000
278.205688	152.960000
278.298706	152.920000
278.391785	152.640000
278.484833	151.960000
278.577881	151.900000
278.670929	152.080000
278.763977	152.360000
278.857025	152.920000
278.950073	152.960000
279.043121	153.100000
279.136169	152.820000
279.229248	152.340000
279.322296	152.100000
279.415344	152.060000
279.508392	152.020000
279.601440	151.920000
279.694519	151.980000
279.787567	151.580000
279.880615	151.420000
279.973694	151.640000
280.066742	151.960000
280.159790	152.280000
280.252869	152.140000
280.345917	152.780000
280.438995	152.460000
280.532074	152.440000
280.625122	152.520000
280.718201	153.200000
280.811279	152.920000
280.904327	153.340000
280.997406	153.140000
281.090454	153.260000
281.183533	152.980000
281.276581	152.840000
281.369659	152.340000
281.462738	152.520000
281.555786	152.400000
281.648865	152.480000
281.741943	152.280000
281.835022	153.040000
281.928070	152.960000
282.021149	152.900000
282.114227	152.560000
282.207306	152.620000
282.300385	152.700000
282.393433	152.700000
282.486511	152.780000
282.579590	153.380000
282.672668	153.700000
282.765747	153.140000
282.858856	153.200000
282.951904	153.080000
283.045013	153.000000
283.138062	153.280000
283.231171	153.380000
283.324249	153.520000
283.417328	153.580000
283.510406	153.100000
283.603485	152.740000
283.696564	152.560000
283.789642	152.140000
283.882751	151.960000
283.975830	152.700000
284.068909	152.300000
284.161987	153.040000
284.255066	152.800000
284.348175	152.860000
284.441254	152.440000
284.534332	153.120000
284.627441	152.300000
284.720520	152.200000
284.813599	152.260000
284.906708	152.200000
284.999786	151.400000
285.092896	151.400000
285.185974	152.540000
285.279053	152.180000
285.372192	152.260000
285.465240	153.080000
285.558380	153.280000
285.651459	152.720000
285.744568	153.600000
285.837677	153.300000
285.930756	153.140000
286.023865	152.920000
286.116943	152.520000
286.210052	152.040000
286.303162	152.280000
286.396240	152.100000
286.489349	151.900000
286.582458	152.220000
286.675568	151.940000
286.768646	151.640000
286.861755	151.760000
286.954865	152.820000
287.047974	152.380000
287.141083	152.300000
287.234161	152.440000
287.327271	152.040000
287.420380	151.980000
287.513519	151.880000
287.606598	152.340000
287.699738	152.460000
287.792816	152.860000
287.885956	152.480000
287.979034	152.700000
288.072174	152.680000
288.165283	152.500000
288.258392	152.680000
288.351501	152.140000
288.444611	152.380000
288.537720	152.600000
288.630859	152.620000
288.723969	152.580000
288.817078	153.260000
288.910187	153.220000
289.003296	152.840000
289.096436	152.500000
289.189545	152.340000
289.282654	151.680000
289.375763	151.860000
289.468903	152.100000
289.562012	152.740000
289.655121	152.420000
289.748260	152.740000
289.841400	153.040000
289.934509	152.520000
290.027649	152.420000
290.120728	152.820000
290.213898	153.120000
290.306976	152.780000
290.400146	153.120000
290.493256	152.780000
290.586395	152.720000
290.679535	152.760000
290.772644	152.680000
290.865784	151.780000
290.958893	152.120000
291.052032	151.820000
291.145172	151.560000
291.238281	151.380000
291.331421	151.980000
291.424561	152.420000
291.517670	152.240000
291.610809	152.360000
291.703949	152.020000
291.797089	152.400000
291.890228	151.700000
291.983337	151.960000
292.076477	151.980000
292.169617	152.380000
292.262756	152.340000
292.355927	152.380000
292.449036	152.380000
292.542206	152.360000
292.635315	152.620000
292.728485	152.760000
292.821625	152.420000
292.914764	153.660000
293.007904	153.400000
293.101044	153.560000
293.194183	153.320000
293.287323	153.540000
293.380463	152.500000
293.473602	152.460000
293.566742	152.380000
293.659882	152.460000
293.753021	152.680000
293.846191	152.840000
293.939331	152.840000
294.032471	152.700000
294.125610	152.400000
294.218781	152.600000
294.311920	152.960000
294.405060	153.140000
294.498230	153.080000
294.591370	153.140000
294.684540	152.480000
294.777679	151.640000
294.870850	151.840000
294.963959	151.660000
295.057159	151.700000
295.150299	152.240000
295.243469	152.200000
295.336609	151.560000
295.429779	151.600000
295.522919	152.040000
295.616089	151.920000
295.709229	152.820000
295.802399	153.300000
295.895569	152.860000
295.988708	152.560000
296.081879	152.900000
296.175018	152.180000
296.268188	152.020000
296.361359	152.920000
296.454529	152.860000
296.547668	152.440000
296.640839	152.720000
296.734009	152.480000
296.827179	152.340000
296.920319	152.660000
297.013519	152.560000
297.106659	152.660000
297.199860	152.820000
297.292999	152.960000
297.386200	152.500000
297.479309	152.460000
297.572510	152.080000
297.665680	151.720000
297.758850	151.320000
297.852020	151.480000
297.945190	151.400000
298.038361	151.120000
298.131531	152.320000
298.224701	152.280000
298.317871	151.780000
298.411072	151.560000
298.504242	151.640000
298.597412	150.660000
298.690582	150.720000
298.783752	151.160000
298.876923	151.520000
298.970093	151.720000
299.063293	152.500000
299.156464	153.020000
299.249634	153.180000
299.342834	153.360000
299.436005	153.740000
299.529205	152.840000
299.622345	152.640000
299.715576	151.860000
299.808716	151.420000
299.901917	151.180000
299.995117	151.860000
300.088287	151.980000
300.181488	152.060000
300.274658	152.140000
300.367828	151.980000
300.461029	151.780000
300.554199	151.720000
300.647400	152.160000
300.740601	152.820000
300.833771	152.700000
300.926971	153.060000
301.020142	152.900000
301.113342	152.820000
301.206512	152.580000
301.299713	153.040000
301.392914	152.520000
301.486084	152.780000
301.579285	152.940000
301.672516	153.140000
301.765686	152.860000
301.858887	153.000000
301.952057	152.600000
302.045288	152.380000
302.138458	152.040000
302.231659	151.960000
302.324860	151.920000
302.418060	151.940000
302.511261	152.020000
302.604462	152.420000
302.697662	152.460000
302.790863	152.220000
302.884064	152.120000
302.977264	152.120000
303.070465	151.980000
303.163666	152.640000
303.256866	153.440000
303.350067	153.240000
303.443268	153.300000
303.536469	153.480000
303.629669	152.680000
303.722870	152.340000
303.816071	152.460000
303.909271	152.440000
304.002472	151.420000
304.095673	151.640000
304.188934	151.180000
304.282104	152.100000
304.375336	152.340000
304.468506	152.420000
304.561768	152.300000
304.654968	152.740000
304.748169	151.900000
304.841370	151.440000
304.934601	152.360000
305.027802	151.920000
305.121002	151.480000
305.214233	151.480000
305.307434	151.920000
305.400665	152.440000
305.493866	152.560000
