Model Number: SPM-001-M   
Serial Number: 10144108
Firmware Version: 004.17.6
Exposure Time: 100000.000000us
Data Taken on: 15-01-2021 16:00:08.885
Wavelength	Amplitude
734.756226	0.000000
734.798218	0.000000
734.840271	0.000000
734.882263	0.000000
734.924255	0.000000
734.966248	0.000000
735.008301	0.000000
735.050293	0.000000
735.092285	0.000000
735.134277	0.000000
735.176270	0.000000
735.218262	0.000000
735.260254	0.000000
735.302307	0.000000
735.344299	0.000000
735.386292	0.000000
735.428284	0.000000
735.470276	0.000000
735.512268	0.000000
735.554260	0.000000
735.596252	0.000000
735.638245	0.000000
735.680237	0.000000
735.722290	0.000000
735.764221	0.000000
735.806213	0.000000
735.848206	0.000000
735.890198	0.000000
735.932190	0.000000
735.974182	0.000000
736.016174	0.000000
736.058167	0.000000
736.100159	0.000000
736.142090	0.000000
736.184143	0.000000
736.226074	0.000000
736.268066	0.000000
736.310059	0.000000
736.352051	0.000000
736.393982	0.000000
736.435974	0.000000
736.477966	0.000000
736.519958	0.000000
736.561890	0.000000
736.603943	0.000000
736.645874	0.000000
736.687866	0.000000
736.729797	0.000000
736.771851	0.000000
736.813782	0.000000
736.855713	0.000000
736.897766	0.000000
736.939697	0.000000
736.981628	0.000000
737.023621	0.000000
737.065613	0.000000
737.107544	0.000000
737.149536	0.000000
737.191528	0.000000
737.233459	0.000000
737.275391	0.000000
737.317383	0.000000
737.359375	0.000000
737.401306	0.000000
737.443237	0.000000
737.485291	0.000000
737.527222	0.000000
737.569153	0.000000
737.611084	0.000000
737.653076	0.000000
737.695007	0.000000
737.736938	0.000000
737.778992	0.000000
737.820923	0.000000
737.862854	0.000000
737.904785	0.000000
737.946777	0.000000
737.988708	0.000000
738.030640	0.000000
738.072632	0.000000
738.114563	0.000000
738.156494	0.000000
738.198425	0.000000
738.240417	0.000000
738.282349	0.000000
738.324280	0.000000
738.366272	0.000000
738.408203	0.000000
738.450073	0.000000
738.492004	0.000000
738.533997	0.000000
738.575928	0.000000
738.617859	0.000000
738.659851	0.000000
738.701782	0.000000
738.743652	0.000000
738.785583	0.000000
738.827576	0.000000
738.869507	0.000000
738.911438	0.000000
738.953369	0.000000
738.995300	0.000000
739.037231	0.000000
739.079102	0.000000
739.121094	0.000000
739.163025	0.000000
739.204956	0.000000
739.246887	0.000000
739.288818	0.000000
739.330688	0.000000
739.372620	0.000000
739.414612	0.000000
739.456482	0.000000
739.498413	0.000000
739.540344	0.000000
739.582275	0.000000
739.624207	0.000000
739.666077	0.000000
739.708069	0.000000
739.749939	0.000000
739.791870	0.000000
739.833740	0.000000
739.875732	0.000000
739.917603	0.000000
739.959473	147.160000
740.001465	146.100000
740.043335	146.220000
740.085266	146.580000
740.127136	146.400000
740.169128	145.800000
740.210999	146.480000
740.252869	146.140000
740.294861	145.560000
740.336731	145.560000
740.378601	145.860000
740.420532	146.500000
740.462463	146.900000
740.504333	147.060000
740.546204	146.780000
740.588196	146.280000
740.630066	145.920000
740.671936	145.720000
740.713806	145.440000
740.755798	146.220000
740.797668	147.000000
740.839539	146.320000
740.881470	146.560000
740.923340	146.720000
740.965210	146.820000
741.007141	146.080000
741.049072	146.000000
741.090942	145.880000
741.132812	145.640000
741.174744	145.200000
741.216614	145.320000
741.258484	146.000000
741.300354	146.260000
741.342285	146.260000
741.384155	146.320000
741.426025	146.380000
741.467957	145.980000
741.509827	146.000000
741.551697	146.620000
741.593567	146.240000
741.635498	146.680000
741.677368	146.840000
741.719238	146.560000
741.761169	146.000000
741.803040	146.440000
741.844849	146.020000
741.886719	145.260000
741.928650	145.160000
741.970520	145.240000
742.012390	145.900000
742.054321	146.100000
742.096130	147.060000
742.138000	147.040000
742.179871	147.420000
742.221802	147.340000
742.263672	147.660000
742.305481	147.060000
742.347412	147.140000
742.389282	146.780000
742.431091	146.100000
742.472961	145.620000
742.514893	145.620000
742.556702	146.040000
742.598572	146.260000
742.640503	146.360000
742.682312	146.680000
742.724182	146.580000
742.765991	146.100000
742.807922	146.320000
742.849792	146.720000
742.891602	146.140000
742.933533	147.080000
742.975342	147.220000
743.017212	146.560000
743.059021	146.440000
743.100952	147.000000
743.142761	146.420000
743.184631	146.320000
743.226501	146.940000
743.268372	146.420000
743.310181	146.260000
743.351990	145.660000
743.393921	146.300000
743.435730	145.900000
743.477600	146.820000
743.519470	146.420000
743.561279	147.340000
743.603149	147.300000
743.644958	147.360000
743.686829	146.700000
743.728699	147.020000
743.770508	146.720000
743.812378	145.960000
743.854187	146.380000
743.896057	146.600000
743.937866	146.580000
743.979736	146.520000
744.021545	146.680000
744.063416	146.380000
744.105286	146.660000
744.147095	146.700000
744.188904	146.920000
744.230713	146.760000
744.272583	146.500000
744.314453	146.080000
744.356262	145.760000
744.398132	145.800000
744.439941	145.840000
744.481750	146.000000
744.523560	146.020000
744.565430	146.420000
744.607239	146.140000
744.649048	146.620000
744.690918	146.480000
744.732727	146.380000
744.774536	146.660000
744.816345	146.160000
744.858215	145.520000
744.900024	145.440000
744.941833	145.420000
744.983704	144.780000
745.025513	145.180000
745.067322	145.520000
745.109070	145.440000
745.150940	145.680000
745.192749	145.580000
745.234558	146.040000
745.276428	145.960000
745.318237	145.580000
745.359985	145.520000
745.401794	145.940000
745.443665	145.980000
745.485474	146.040000
745.527283	146.680000
745.569092	146.340000
745.610901	145.920000
745.652710	145.520000
745.694458	145.400000
745.736328	145.340000
745.778137	145.260000
745.819885	145.340000
745.861755	145.380000
745.903564	146.020000
745.945312	145.580000
745.987122	146.180000
746.028992	146.680000
746.070740	146.560000
746.112549	146.240000
746.154358	146.440000
746.196167	146.480000
746.237915	146.000000
746.279724	146.380000
746.321533	146.380000
746.363342	146.320000
746.405090	145.980000
746.446960	146.100000
746.488708	145.740000
746.530518	145.760000
746.572266	146.500000
746.614136	146.780000
746.655884	147.560000
746.697632	147.280000
746.739502	147.340000
746.781250	146.880000
746.823059	146.680000
746.864807	145.820000
746.906616	146.020000
746.948364	145.840000
746.990173	145.760000
747.031982	145.340000
747.073730	145.700000
747.115540	145.900000
747.157288	146.040000
747.199097	146.300000
747.240845	146.280000
747.282654	145.960000
747.324463	146.040000
747.366211	146.280000
747.407959	145.940000
747.449707	146.420000
747.491516	146.740000
747.533325	146.740000
747.575073	146.180000
747.616882	146.440000
747.658630	146.260000
747.700378	146.100000
747.742126	146.080000
747.783936	146.420000
747.825684	146.480000
747.867432	146.300000
747.909241	146.120000
747.950989	146.080000
747.992737	145.960000
748.034485	145.760000
748.076294	145.860000
748.118042	146.100000
748.159790	145.820000
748.201599	145.700000
748.243347	145.960000
748.285095	146.160000
748.326843	146.020000
748.368652	145.440000
748.410339	145.500000
748.452087	145.440000
748.493896	145.220000
748.535645	145.460000
748.577393	145.900000
748.619141	146.300000
748.660889	145.820000
748.702637	145.800000
748.744385	146.000000
748.786194	146.060000
748.827881	145.580000
748.869629	145.920000
748.911377	145.980000
748.953125	145.620000
748.994873	146.080000
749.036621	145.920000
749.078369	146.040000
749.120117	145.640000
749.161865	145.660000
749.203552	145.780000
749.245361	145.460000
749.287109	145.000000
749.328796	145.660000
749.370605	145.760000
749.412292	145.660000
749.454041	146.160000
749.495728	146.700000
749.537537	146.120000
749.579224	146.100000
749.620972	145.680000
749.662720	145.560000
749.704468	145.600000
749.746155	145.700000
749.787903	145.920000
749.829651	146.360000
749.871399	146.360000
749.913086	146.040000
749.954834	146.420000
749.996582	146.300000
750.038269	145.780000
750.079956	145.960000
750.121765	145.660000
750.163452	145.620000
750.205139	145.540000
750.246948	145.440000
750.288635	145.240000
750.330322	145.480000
750.372009	145.040000
750.413818	145.180000
750.455505	145.380000
750.497192	145.500000
750.538940	145.380000
750.580688	146.180000
750.622375	145.760000
750.664062	146.700000
750.705811	146.260000
750.747498	146.820000
750.789185	146.000000
750.830933	146.080000
750.872681	145.380000
750.914368	145.920000
750.956055	145.600000
750.997803	146.040000
751.039490	145.820000
751.081177	145.520000
751.122925	145.180000
751.164612	145.440000
751.206299	145.400000
751.247986	145.340000
751.289734	145.780000
751.331421	145.980000
751.373108	145.680000
751.414856	145.200000
751.456543	145.700000
751.498169	145.720000
751.539856	145.420000
751.581604	145.260000
751.623291	145.440000
751.664978	145.160000
751.706726	144.560000
751.748413	145.220000
751.790039	145.620000
751.831726	145.920000
751.873474	147.520000
751.915161	147.560000
751.956848	147.480000
751.998535	146.980000
752.040222	146.880000
752.081909	145.680000
752.123596	145.900000
752.165283	145.940000
752.206970	146.800000
752.248657	146.980000
752.290283	147.220000
752.332031	147.380000
752.373718	147.460000
752.415344	146.720000
752.457092	146.140000
752.498718	145.800000
752.540405	145.900000
752.582031	145.520000
752.623779	145.840000
752.665466	146.440000
752.707092	146.300000
752.748840	146.240000
752.790466	146.080000
752.832153	145.460000
752.873779	145.080000
752.915527	144.860000
752.957153	144.820000
752.998779	144.980000
753.040527	145.380000
753.082153	145.280000
753.123840	145.500000
753.165466	145.440000
753.207153	145.560000
753.248840	145.640000
753.290466	145.820000
753.332153	146.000000
753.373840	145.960000
753.415466	146.040000
753.457092	146.220000
753.498840	146.380000
753.540466	146.260000
753.582092	146.520000
753.623779	146.440000
753.665466	146.400000
753.707092	146.260000
753.748718	146.280000
753.790405	145.920000
753.832031	145.680000
753.873718	145.460000
753.915405	145.340000
753.957031	145.360000
753.998657	145.500000
754.040283	145.660000
754.081970	146.120000
754.123596	146.060000
754.165222	146.000000
754.206909	146.160000
754.248535	145.840000
754.290222	145.420000
754.331848	145.480000
754.373535	145.440000
754.415161	145.060000
754.456787	145.000000
754.498413	145.040000
754.540039	145.400000
754.581665	145.340000
754.623291	145.460000
754.664978	145.900000
754.706604	145.680000
754.748230	145.440000
754.789917	146.020000
754.831543	146.000000
754.873169	145.900000
754.914734	146.080000
754.956421	145.920000
754.998047	145.400000
755.039673	145.940000
755.081360	146.120000
755.122925	146.320000
755.164551	146.400000
755.206177	146.580000
755.247864	146.060000
755.289429	145.860000
755.331055	145.400000
755.372742	145.360000
755.414307	144.900000
755.455933	145.220000
755.497559	145.880000
755.539185	146.480000
755.580811	146.940000
755.622437	146.740000
755.664062	146.780000
755.705688	145.660000
755.747253	145.200000
755.788879	144.960000
755.830505	145.600000
755.872131	145.520000
755.913757	145.780000
755.955383	145.700000
755.997009	145.840000
756.038574	145.040000
756.080200	145.260000
756.121826	145.420000
756.163391	145.900000
756.205017	145.540000
756.246643	146.020000
756.288269	145.880000
756.329834	146.160000
756.371399	145.740000
756.413086	145.960000
756.454651	145.980000
756.496216	145.840000
756.537903	145.420000
756.579468	145.740000
756.621033	145.560000
756.662659	145.680000
756.704285	145.560000
756.745850	145.580000
756.787415	145.060000
756.829102	145.080000
756.870667	144.900000
756.912231	144.800000
756.953796	145.040000
756.995422	145.260000
757.037048	145.400000
757.078613	145.720000
757.120239	145.400000
757.161804	145.260000
757.203369	145.080000
757.244934	145.140000
757.286560	145.080000
757.328125	145.600000
757.369751	145.500000
757.411377	145.360000
757.452942	145.180000
757.494507	145.000000
757.536072	144.700000
757.577698	145.260000
757.619263	145.500000
757.660828	146.160000
757.702454	145.960000
757.743958	146.200000
757.785522	145.980000
757.827087	146.500000
757.868713	145.740000
757.910278	145.840000
757.951843	145.580000
757.993469	145.300000
758.035034	145.400000
758.076599	145.600000
758.118103	145.760000
758.159729	146.360000
758.201294	146.420000
758.242859	146.400000
758.284485	146.820000
758.325989	147.080000
758.367554	146.600000
758.409119	146.640000
758.450684	146.600000
758.492249	146.440000
758.533813	146.060000
758.575439	146.220000
758.616943	146.300000
758.658508	146.100000
758.700012	146.020000
758.741638	146.600000
758.783203	146.280000
758.824707	146.220000
758.866333	145.760000
758.907837	145.520000
758.949402	145.560000
758.990967	146.140000
759.032532	146.100000
759.074097	146.360000
759.115601	146.240000
759.157227	146.440000
759.198730	146.060000
759.240295	146.740000
759.281799	147.160000
759.323364	147.900000
759.364929	146.860000
759.406433	146.420000
759.448059	145.640000
759.489563	145.060000
759.531067	144.720000
759.572632	144.900000
759.614197	145.240000
759.655762	145.500000
759.697266	145.960000
759.738831	146.140000
759.780334	145.960000
759.821899	146.360000
759.863403	146.440000
759.904968	146.360000
759.946472	145.700000
759.988037	145.920000
760.029602	145.880000
760.071106	145.700000
760.112610	145.480000
760.154175	146.040000
760.195740	146.200000
760.237244	145.860000
760.278748	145.720000
760.320251	146.180000
760.361816	145.600000
760.403320	145.860000
760.444824	146.240000
760.486389	146.640000
760.527893	146.280000
760.569458	146.460000
760.610962	146.480000
760.652527	146.120000
760.694031	145.700000
760.735535	145.980000
760.777100	146.500000
760.818604	146.700000
760.860046	146.540000
760.901550	146.360000
760.943115	145.920000
760.984619	145.820000
761.026123	145.320000
761.067688	145.660000
761.109192	145.920000
761.150696	146.160000
761.192200	145.960000
761.233704	145.840000
761.275208	146.060000
761.316711	145.980000
761.358276	145.860000
761.399780	145.760000
761.441223	146.040000
761.482727	145.740000
761.524292	145.460000
761.565796	145.360000
761.607239	145.580000
761.648804	145.060000
761.690308	145.180000
761.731750	145.080000
761.773254	145.720000
761.814819	145.560000
761.856262	145.840000
761.897766	146.120000
761.939270	146.500000
761.980774	146.020000
762.022278	146.000000
762.063721	145.800000
762.105286	145.580000
762.146729	145.880000
762.188232	146.440000
762.229736	146.320000
762.271240	146.900000
762.312683	146.660000
762.354187	146.540000
762.395691	146.600000
762.437195	146.600000
762.478638	145.720000
762.520203	145.660000
762.561646	145.560000
762.603088	144.740000
762.644592	144.640000
762.686096	145.400000
762.727539	145.380000
762.769043	145.660000
762.810547	145.680000
762.851990	146.220000
762.893494	146.240000
762.934937	146.200000
762.976440	145.900000
763.017944	145.660000
763.059387	145.440000
763.100891	145.100000
763.142334	145.720000
763.183777	145.600000
763.225281	145.860000
763.266785	145.420000
763.308228	145.680000
763.349670	145.620000
763.391174	145.980000
763.432617	146.020000
763.474060	146.520000
763.515564	146.200000
763.557068	145.380000
763.598511	145.120000
763.639954	145.220000
763.681458	144.920000
763.722900	145.240000
763.764343	146.120000
763.805786	146.600000
763.847290	146.840000
763.888733	147.100000
763.930176	146.960000
763.971680	146.900000
764.013123	146.320000
764.054565	146.440000
764.096008	146.620000
764.137451	146.840000
764.178894	146.300000
764.220337	146.560000
764.261841	146.260000
764.303284	145.840000
764.344727	145.420000
764.386169	145.060000
764.427612	145.060000
764.469055	145.440000
764.510498	145.500000
764.552002	145.960000
764.593384	146.320000
764.634827	146.200000
764.676270	145.580000
764.717773	145.540000
764.759155	145.320000
764.800598	145.860000
764.842102	145.680000
764.883484	145.860000
764.924927	145.940000
764.966370	146.020000
765.007812	145.640000
765.049255	146.200000
765.090637	146.800000
765.132141	147.320000
765.173584	146.720000
765.214966	146.940000
765.256409	146.520000
765.297852	146.440000
765.339294	146.060000
765.380676	146.560000
765.422180	146.260000
765.463562	146.280000
765.505005	145.800000
765.546387	145.660000
765.587830	145.520000
765.629272	145.940000
765.670654	145.820000
765.712158	145.980000
765.753540	145.800000
765.794922	146.400000
765.836365	145.780000
765.877808	146.060000
765.919189	146.380000
765.960632	146.680000
766.002075	146.020000
766.043457	146.260000
766.084839	146.100000
766.126282	145.760000
766.167725	146.300000
766.209106	146.360000
766.250488	146.200000
766.291992	146.420000
766.333374	146.220000
766.374756	145.880000
766.416138	145.920000
766.457581	146.340000
766.498962	145.920000
766.540405	145.960000
766.581848	145.860000
766.623230	145.720000
766.664612	145.960000
766.705994	146.420000
766.747437	146.540000
766.788818	146.620000
766.830200	147.440000
766.871643	146.720000
766.913025	146.520000
766.954407	146.100000
766.995789	145.680000
767.037231	144.580000
767.078613	144.960000
767.119995	145.680000
767.161438	145.960000
767.202820	146.120000
767.244141	146.600000
767.285522	146.100000
767.326965	144.940000
767.368347	145.080000
767.409729	145.080000
767.451172	144.980000
767.492554	145.320000
767.533875	145.680000
767.575256	145.200000
767.616699	145.320000
767.658081	145.480000
767.699402	145.360000
767.740845	145.160000
767.782227	145.880000
767.823608	145.740000
767.864929	145.760000
767.906372	145.900000
767.947754	146.760000
767.989075	146.660000
768.030518	146.800000
768.071838	146.580000
768.113220	146.840000
768.154602	146.340000
768.195984	146.080000
768.237366	146.160000
768.278687	146.660000
768.320129	146.360000
768.361450	146.740000
768.402832	146.720000
768.444153	146.880000
768.485596	146.860000
768.526917	147.300000
768.568298	146.880000
768.609680	146.840000
768.651062	146.060000
768.692383	145.900000
768.733765	145.400000
768.775146	145.760000
768.816467	145.920000
768.857849	146.060000
768.899231	146.140000
768.940552	146.960000
768.981934	146.880000
769.023254	147.080000
769.064636	147.260000
769.106018	147.440000
769.147339	147.340000
769.188721	147.020000
769.230042	147.240000
769.271423	147.120000
769.312744	146.660000
769.354126	145.680000
769.395447	145.600000
769.436768	145.180000
769.478210	144.840000
769.519531	144.920000
769.560852	145.480000
769.602173	145.540000
769.643555	145.320000
769.684875	145.720000
769.726196	145.520000
769.767578	145.320000
769.808899	145.460000
769.850220	145.740000
769.891541	145.640000
769.932922	145.680000
769.974243	145.640000
770.015564	145.760000
770.056946	145.460000
770.098267	145.740000
770.139587	145.860000
770.180908	146.020000
770.222290	146.500000
770.263611	146.440000
770.304932	146.200000
770.346313	146.340000
770.387634	146.860000
770.428955	146.480000
770.470215	146.640000
770.511597	146.760000
770.552917	146.860000
770.594238	146.200000
770.635620	146.580000
770.676880	146.600000
770.718201	146.940000
770.759521	146.320000
770.800903	146.000000
770.842163	145.420000
770.883484	145.380000
770.924866	145.260000
770.966125	145.880000
771.007446	146.340000
771.048767	146.080000
771.090088	146.100000
771.131409	145.580000
771.172668	144.800000
771.214050	144.600000
771.255371	145.020000
771.296631	145.440000
771.337952	145.920000
771.379272	146.380000
771.420593	146.760000
771.461853	146.060000
771.503235	145.320000
771.544495	145.020000
771.585815	145.520000
771.627075	145.200000
771.668457	145.540000
771.709717	145.620000
771.751038	145.520000
771.792358	145.220000
771.833618	145.720000
771.874939	146.420000
771.916199	146.360000
771.957520	146.600000
771.998840	146.440000
772.040100	146.080000
772.081421	146.120000
772.122742	146.140000
772.164001	146.280000
772.205261	146.040000
772.246582	145.940000
772.287903	145.120000
772.329163	145.900000
772.370483	145.820000
772.411743	145.960000
772.453064	145.820000
772.494324	145.900000
772.535645	145.820000
772.576904	146.000000
772.618164	146.160000
772.659485	146.500000
772.700745	146.360000
