Model Number: SPM-001-M   
Serial Number: 10144108
Firmware Version: 004.17.6
Exposure Time: 10000.000000us
Data Taken on: 15-01-2021 16:45:49.985
Wavelength	Amplitude
734.756226	0.000000
734.798218	0.000000
734.840271	0.000000
734.882263	0.000000
734.924255	0.000000
734.966248	0.000000
735.008301	0.000000
735.050293	0.000000
735.092285	0.000000
735.134277	0.000000
735.176270	0.000000
735.218262	0.000000
735.260254	0.000000
735.302307	0.000000
735.344299	0.000000
735.386292	0.000000
735.428284	0.000000
735.470276	0.000000
735.512268	0.000000
735.554260	0.000000
735.596252	0.000000
735.638245	0.000000
735.680237	0.000000
735.722290	0.000000
735.764221	0.000000
735.806213	0.000000
735.848206	0.000000
735.890198	0.000000
735.932190	0.000000
735.974182	0.000000
736.016174	0.000000
736.058167	0.000000
736.100159	0.000000
736.142090	0.000000
736.184143	0.000000
736.226074	0.000000
736.268066	0.000000
736.310059	0.000000
736.352051	0.000000
736.393982	0.000000
736.435974	0.000000
736.477966	0.000000
736.519958	0.000000
736.561890	0.000000
736.603943	0.000000
736.645874	0.000000
736.687866	0.000000
736.729797	0.000000
736.771851	0.000000
736.813782	0.000000
736.855713	0.000000
736.897766	0.000000
736.939697	0.000000
736.981628	0.000000
737.023621	0.000000
737.065613	0.000000
737.107544	0.000000
737.149536	0.000000
737.191528	0.000000
737.233459	0.000000
737.275391	0.000000
737.317383	0.000000
737.359375	0.000000
737.401306	0.000000
737.443237	0.000000
737.485291	0.000000
737.527222	0.000000
737.569153	0.000000
737.611084	0.000000
737.653076	0.000000
737.695007	0.000000
737.736938	0.000000
737.778992	0.000000
737.820923	0.000000
737.862854	0.000000
737.904785	0.000000
737.946777	0.000000
737.988708	0.000000
738.030640	0.000000
738.072632	0.000000
738.114563	0.000000
738.156494	0.000000
738.198425	0.000000
738.240417	0.000000
738.282349	0.000000
738.324280	0.000000
738.366272	0.000000
738.408203	0.000000
738.450073	0.000000
738.492004	0.000000
738.533997	0.000000
738.575928	0.000000
738.617859	0.000000
738.659851	0.000000
738.701782	0.000000
738.743652	0.000000
738.785583	0.000000
738.827576	0.000000
738.869507	0.000000
738.911438	0.000000
738.953369	0.000000
738.995300	0.000000
739.037231	0.000000
739.079102	0.000000
739.121094	0.000000
739.163025	0.000000
739.204956	0.000000
739.246887	0.000000
739.288818	0.000000
739.330688	0.000000
739.372620	0.000000
739.414612	0.000000
739.456482	0.000000
739.498413	0.000000
739.540344	0.000000
739.582275	0.000000
739.624207	0.000000
739.666077	0.000000
739.708069	0.000000
739.749939	0.000000
739.791870	0.000000
739.833740	0.000000
739.875732	0.000000
739.917603	0.000000
739.959473	139.800000
740.001465	139.460000
740.043335	139.640000
740.085266	139.840000
740.127136	139.680000
740.169128	140.400000
740.210999	140.200000
740.252869	139.720000
740.294861	140.020000
740.336731	140.140000
740.378601	140.320000
740.420532	140.320000
740.462463	140.740000
740.504333	140.320000
740.546204	140.220000
740.588196	140.220000
740.630066	140.120000
740.671936	140.700000
740.713806	140.580000
740.755798	140.440000
740.797668	140.080000
740.839539	139.820000
740.881470	139.700000
740.923340	139.480000
740.965210	140.300000
741.007141	139.660000
741.049072	139.940000
741.090942	139.560000
741.132812	139.720000
741.174744	139.360000
741.216614	139.640000
741.258484	139.900000
741.300354	139.880000
741.342285	139.660000
741.384155	139.860000
741.426025	139.720000
741.467957	140.060000
741.509827	140.000000
741.551697	140.920000
741.593567	140.320000
741.635498	140.360000
741.677368	140.040000
741.719238	139.920000
741.761169	139.560000
741.803040	139.940000
741.844849	140.340000
741.886719	140.040000
741.928650	139.980000
741.970520	139.960000
742.012390	139.800000
742.054321	140.160000
742.096130	140.320000
742.138000	140.560000
742.179871	140.440000
742.221802	140.440000
742.263672	140.100000
742.305481	140.300000
742.347412	140.640000
742.389282	140.400000
742.431091	140.620000
742.472961	140.400000
742.514893	139.980000
742.556702	140.060000
742.598572	139.940000
742.640503	140.660000
742.682312	140.720000
742.724182	140.720000
742.765991	140.240000
742.807922	140.580000
742.849792	140.040000
742.891602	139.900000
742.933533	140.360000
742.975342	140.400000
743.017212	139.980000
743.059021	139.480000
743.100952	139.660000
743.142761	140.000000
743.184631	139.900000
743.226501	140.600000
743.268372	140.580000
743.310181	140.540000
743.351990	139.660000
743.393921	139.420000
743.435730	139.380000
743.477600	139.580000
743.519470	140.060000
743.561279	140.160000
743.603149	140.400000
743.644958	140.220000
743.686829	139.960000
743.728699	140.080000
743.770508	140.260000
743.812378	141.000000
743.854187	140.880000
743.896057	141.120000
743.937866	140.460000
743.979736	140.120000
744.021545	140.100000
744.063416	140.240000
744.105286	140.280000
744.147095	140.240000
744.188904	140.220000
744.230713	139.800000
744.272583	139.480000
744.314453	140.000000
744.356262	139.760000
744.398132	140.120000
744.439941	139.940000
744.481750	140.200000
744.523560	139.900000
744.565430	140.300000
744.607239	140.580000
744.649048	140.340000
744.690918	140.880000
744.732727	140.500000
744.774536	140.160000
744.816345	140.300000
744.858215	140.260000
744.900024	140.020000
744.941833	139.960000
744.983704	140.460000
745.025513	139.940000
745.067322	140.220000
745.109070	140.100000
745.150940	140.260000
745.192749	140.680000
745.234558	141.020000
745.276428	140.980000
745.318237	140.540000
745.359985	140.520000
745.401794	140.200000
745.443665	139.960000
745.485474	140.520000
745.527283	140.520000
745.569092	140.780000
745.610901	140.400000
745.652710	140.240000
745.694458	139.900000
745.736328	139.980000
745.778137	139.940000
745.819885	139.800000
745.861755	139.780000
745.903564	139.820000
745.945312	139.640000
745.987122	139.800000
746.028992	139.740000
746.070740	140.400000
746.112549	140.140000
746.154358	140.120000
746.196167	139.900000
746.237915	139.900000
746.279724	139.820000
746.321533	139.920000
746.363342	140.560000
746.405090	140.500000
746.446960	140.580000
746.488708	140.240000
746.530518	139.940000
746.572266	140.100000
746.614136	140.400000
746.655884	141.020000
746.697632	140.720000
746.739502	140.540000
746.781250	140.000000
746.823059	139.760000
746.864807	139.960000
746.906616	140.100000
746.948364	140.900000
746.990173	140.760000
747.031982	140.100000
747.073730	139.760000
747.115540	139.540000
747.157288	139.460000
747.199097	139.560000
747.240845	140.200000
747.282654	139.740000
747.324463	140.140000
747.366211	139.940000
747.407959	139.700000
747.449707	139.980000
747.491516	139.980000
747.533325	139.900000
747.575073	139.700000
747.616882	139.800000
747.658630	139.840000
747.700378	139.660000
747.742126	140.160000
747.783936	140.020000
747.825684	140.420000
747.867432	139.660000
747.909241	139.600000
747.950989	139.380000
747.992737	139.400000
748.034485	139.720000
748.076294	140.080000
748.118042	140.580000
748.159790	140.360000
748.201599	140.460000
748.243347	140.280000
748.285095	139.940000
748.326843	140.520000
748.368652	140.380000
748.410339	140.340000
748.452087	140.120000
748.493896	140.360000
748.535645	139.920000
748.577393	139.780000
748.619141	140.120000
748.660889	139.700000
748.702637	139.880000
748.744385	139.420000
748.786194	139.460000
748.827881	139.660000
748.869629	139.660000
748.911377	139.960000
748.953125	139.960000
748.994873	139.980000
749.036621	139.800000
749.078369	139.780000
749.120117	139.500000
749.161865	139.400000
749.203552	139.980000
749.245361	139.540000
749.287109	139.800000
749.328796	139.700000
749.370605	139.960000
749.412292	140.000000
749.454041	140.260000
749.495728	140.680000
749.537537	140.460000
749.579224	140.580000
749.620972	140.140000
749.662720	140.020000
749.704468	140.080000
749.746155	140.240000
749.787903	140.380000
749.829651	140.540000
749.871399	140.520000
749.913086	140.380000
749.954834	140.200000
749.996582	140.340000
750.038269	139.920000
750.079956	140.540000
750.121765	139.940000
750.163452	139.980000
750.205139	139.660000
750.246948	139.760000
750.288635	139.460000
750.330322	139.820000
750.372009	140.040000
750.413818	140.160000
750.455505	140.120000
750.497192	140.000000
750.538940	139.840000
750.580688	140.220000
750.622375	140.220000
750.664062	140.180000
750.705811	139.980000
750.747498	139.920000
750.789185	139.540000
750.830933	139.460000
750.872681	140.280000
750.914368	140.340000
750.956055	140.880000
750.997803	140.820000
751.039490	140.540000
751.081177	140.160000
751.122925	139.860000
751.164612	139.640000
751.206299	139.480000
751.247986	139.640000
751.289734	139.420000
751.331421	139.580000
751.373108	139.520000
751.414856	139.620000
751.456543	140.040000
751.498169	139.920000
751.539856	139.840000
751.581604	139.920000
751.623291	139.860000
751.664978	140.020000
751.706726	140.120000
751.748413	140.760000
751.790039	140.480000
751.831726	140.800000
751.873474	140.260000
751.915161	139.880000
751.956848	139.900000
751.998535	139.920000
752.040222	139.960000
752.081909	139.960000
752.123596	140.300000
752.165283	140.240000
752.206970	140.140000
752.248657	140.620000
752.290283	140.620000
752.332031	141.120000
752.373718	140.680000
752.415344	140.620000
752.457092	139.940000
752.498718	139.980000
752.540405	139.860000
752.582031	139.840000
752.623779	140.120000
752.665466	139.940000
752.707092	139.820000
752.748840	139.520000
752.790466	139.480000
752.832153	140.100000
752.873779	140.080000
752.915527	140.240000
752.957153	140.020000
752.998779	140.280000
753.040527	139.760000
753.082153	139.860000
753.123840	140.240000
753.165466	140.360000
753.207153	140.620000
753.248840	140.460000
753.290466	140.260000
753.332153	140.040000
753.373840	139.880000
753.415466	140.100000
753.457092	140.240000
753.498840	141.180000
753.540466	141.140000
753.582092	141.660000
753.623779	141.180000
753.665466	141.060000
753.707092	140.740000
753.748718	140.680000
753.790405	140.140000
753.832031	140.160000
753.873718	140.100000
753.915405	140.280000
753.957031	140.360000
753.998657	141.160000
754.040283	140.980000
754.081970	141.340000
754.123596	140.640000
754.165222	140.360000
754.206909	140.020000
754.248535	139.880000
754.290222	139.900000
754.331848	139.960000
754.373535	139.920000
754.415161	139.840000
754.456787	139.840000
754.498413	140.120000
754.540039	139.880000
754.581665	140.540000
754.623291	140.400000
754.664978	140.560000
754.706604	139.980000
754.748230	140.240000
754.789917	139.920000
754.831543	140.080000
754.873169	140.420000
754.914734	140.400000
754.956421	140.280000
754.998047	140.180000
755.039673	139.800000
755.081360	139.880000
755.122925	140.020000
755.164551	140.340000
755.206177	140.100000
755.247864	140.300000
755.289429	140.020000
755.331055	139.780000
755.372742	139.860000
755.414307	139.780000
755.455933	140.040000
755.497559	139.940000
755.539185	139.980000
755.580811	139.940000
755.622437	139.920000
755.664062	140.200000
755.705688	140.060000
755.747253	140.360000
755.788879	140.000000
755.830505	140.380000
755.872131	139.980000
755.913757	139.900000
755.955383	139.740000
755.997009	140.000000
756.038574	139.760000
756.080200	139.700000
756.121826	139.700000
756.163391	139.960000
756.205017	139.640000
756.246643	139.800000
756.288269	139.660000
756.329834	140.260000
756.371399	139.740000
756.413086	139.760000
756.454651	139.700000
756.496216	139.600000
756.537903	139.680000
756.579468	139.900000
756.621033	140.120000
756.662659	139.900000
756.704285	140.000000
756.745850	140.020000
756.787415	140.100000
756.829102	140.720000
756.870667	140.940000
756.912231	140.900000
756.953796	140.340000
756.995422	140.140000
757.037048	139.720000
757.078613	139.860000
757.120239	140.320000
757.161804	140.380000
757.203369	140.600000
757.244934	140.460000
757.286560	140.080000
757.328125	140.180000
757.369751	139.860000
757.411377	140.120000
757.452942	140.060000
757.494507	140.120000
757.536072	139.520000
757.577698	139.720000
757.619263	139.520000
757.660828	139.620000
757.702454	140.160000
757.743958	140.320000
757.785522	140.520000
757.827087	140.480000
757.868713	140.280000
757.910278	140.280000
757.951843	140.080000
757.993469	140.680000
758.035034	140.420000
758.076599	140.720000
758.118103	140.440000
758.159729	140.440000
758.201294	139.980000
758.242859	140.140000
758.284485	140.520000
758.325989	140.380000
758.367554	140.200000
758.409119	140.200000
758.450684	140.160000
758.492249	139.980000
758.533813	139.640000
758.575439	140.500000
758.616943	140.360000
758.658508	140.200000
758.700012	139.700000
758.741638	140.080000
758.783203	139.920000
758.824707	139.760000
758.866333	139.940000
758.907837	139.920000
758.949402	139.960000
758.990967	139.840000
759.032532	139.560000
759.074097	140.040000
759.115601	139.920000
759.157227	140.200000
759.198730	140.000000
759.240295	140.380000
759.281799	140.300000
759.323364	140.580000
759.364929	140.640000
759.406433	140.360000
759.448059	140.620000
759.489563	140.120000
759.531067	140.020000
759.572632	140.060000
759.614197	140.260000
759.655762	140.280000
759.697266	140.080000
759.738831	140.260000
759.780334	139.860000
759.821899	140.020000
759.863403	139.980000
759.904968	139.980000
759.946472	140.300000
759.988037	140.320000
760.029602	140.080000
760.071106	139.880000
760.112610	140.020000
760.154175	139.840000
760.195740	139.900000
760.237244	140.580000
760.278748	140.320000
760.320251	140.780000
760.361816	140.580000
760.403320	140.340000
760.444824	139.960000
760.486389	140.100000
760.527893	140.180000
760.569458	140.120000
760.610962	140.160000
760.652527	140.380000
760.694031	140.020000
760.735535	139.980000
760.777100	139.800000
760.818604	140.260000
760.860046	139.480000
760.901550	139.720000
760.943115	139.520000
760.984619	139.760000
761.026123	139.680000
761.067688	140.340000
761.109192	140.860000
761.150696	140.580000
761.192200	140.680000
761.233704	140.560000
761.275208	139.960000
761.316711	140.020000
761.358276	140.300000
761.399780	140.300000
761.441223	140.000000
761.482727	140.320000
761.524292	140.060000
761.565796	139.760000
761.607239	139.860000
761.648804	139.840000
761.690308	140.220000
761.731750	140.060000
761.773254	140.140000
761.814819	140.320000
761.856262	140.520000
761.897766	140.600000
761.939270	140.560000
761.980774	140.940000
762.022278	140.500000
762.063721	140.360000
762.105286	140.160000
762.146729	140.020000
762.188232	140.100000
762.229736	140.260000
762.271240	140.460000
762.312683	140.140000
762.354187	140.060000
762.395691	140.100000
762.437195	140.040000
762.478638	140.460000
762.520203	140.340000
762.561646	141.060000
762.603088	140.660000
762.644592	140.220000
762.686096	139.840000
762.727539	140.140000
762.769043	140.160000
762.810547	140.200000
762.851990	140.680000
762.893494	140.540000
762.934937	140.280000
762.976440	140.160000
763.017944	139.620000
763.059387	139.860000
763.100891	139.780000
763.142334	139.900000
763.183777	139.480000
763.225281	139.660000
763.266785	139.660000
763.308228	139.840000
763.349670	140.420000
763.391174	140.520000
763.432617	140.800000
763.474060	140.780000
763.515564	140.400000
763.557068	140.400000
763.598511	140.440000
763.639954	140.780000
763.681458	140.560000
763.722900	140.580000
763.764343	140.280000
763.805786	140.260000
763.847290	140.320000
763.888733	140.120000
763.930176	140.720000
763.971680	140.240000
764.013123	139.920000
764.054565	139.640000
764.096008	139.660000
764.137451	139.800000
764.178894	139.600000
764.220337	140.200000
764.261841	140.060000
764.303284	140.120000
764.344727	139.740000
764.386169	140.320000
764.427612	140.360000
764.469055	140.220000
764.510498	140.340000
764.552002	140.380000
764.593384	140.000000
764.634827	139.820000
764.676270	139.900000
764.717773	139.960000
764.759155	140.040000
764.800598	140.820000
764.842102	140.440000
764.883484	140.020000
764.924927	140.060000
764.966370	139.840000
765.007812	139.660000
765.049255	139.820000
765.090637	140.640000
765.132141	140.720000
765.173584	140.600000
765.214966	140.780000
765.256409	140.740000
765.297852	141.000000
765.339294	140.700000
765.380676	141.240000
765.422180	140.860000
765.463562	140.840000
765.505005	140.620000
765.546387	140.500000
765.587830	140.600000
765.629272	140.520000
765.670654	141.100000
765.712158	140.760000
765.753540	140.600000
765.794922	140.380000
765.836365	140.060000
765.877808	140.000000
765.919189	140.000000
765.960632	140.460000
766.002075	140.260000
766.043457	140.480000
766.084839	140.360000
766.126282	140.280000
766.167725	140.760000
766.209106	140.620000
766.250488	140.320000
766.291992	140.520000
766.333374	140.160000
766.374756	139.600000
766.416138	139.400000
766.457581	140.300000
766.498962	139.700000
766.540405	140.460000
766.581848	140.460000
766.623230	140.520000
766.664612	140.400000
766.705994	140.700000
766.747437	140.840000
766.788818	140.620000
766.830200	140.720000
766.871643	140.340000
766.913025	139.980000
766.954407	139.960000
766.995789	139.860000
767.037231	140.620000
767.078613	140.420000
767.119995	140.420000
767.161438	140.140000
767.202820	140.460000
767.244141	140.040000
767.285522	140.080000
767.326965	140.620000
767.368347	140.440000
767.409729	140.200000
767.451172	140.140000
767.492554	139.820000
767.533875	140.040000
767.575256	139.780000
767.616699	140.140000
767.658081	140.080000
767.699402	140.320000
767.740845	139.960000
767.782227	140.240000
767.823608	140.100000
767.864929	139.820000
767.906372	140.240000
767.947754	140.060000
767.989075	139.740000
768.030518	139.740000
768.071838	139.680000
768.113220	140.040000
768.154602	139.960000
768.195984	140.340000
768.237366	140.480000
768.278687	140.840000
768.320129	140.560000
768.361450	140.600000
768.402832	140.860000
768.444153	140.940000
768.485596	140.860000
768.526917	140.720000
768.568298	140.520000
768.609680	140.360000
768.651062	140.080000
768.692383	140.680000
768.733765	140.260000
768.775146	140.900000
768.816467	140.900000
768.857849	140.720000
768.899231	140.340000
768.940552	140.840000
768.981934	140.900000
769.023254	140.940000
769.064636	141.160000
769.106018	141.120000
769.147339	140.740000
769.188721	140.380000
769.230042	140.040000
769.271423	140.480000
769.312744	140.140000
769.354126	140.040000
769.395447	139.740000
769.436768	139.660000
769.478210	139.780000
769.519531	139.860000
769.560852	140.700000
769.602173	141.000000
769.643555	141.200000
769.684875	140.880000
769.726196	140.580000
769.767578	140.400000
769.808899	140.240000
769.850220	140.560000
769.891541	140.400000
769.932922	140.620000
769.974243	140.620000
770.015564	140.560000
770.056946	140.440000
770.098267	140.140000
770.139587	140.360000
770.180908	139.880000
770.222290	139.720000
770.263611	139.760000
770.304932	139.460000
770.346313	139.680000
770.387634	139.700000
770.428955	140.400000
770.470215	139.680000
770.511597	140.120000
770.552917	139.780000
770.594238	139.600000
770.635620	139.400000
770.676880	139.780000
770.718201	139.920000
770.759521	139.820000
770.800903	139.780000
770.842163	139.500000
770.883484	139.520000
770.924866	139.660000
770.966125	139.520000
771.007446	140.040000
771.048767	140.180000
771.090088	140.040000
771.131409	139.980000
771.172668	140.080000
771.214050	140.120000
771.255371	140.280000
771.296631	140.800000
771.337952	140.780000
771.379272	140.940000
771.420593	141.060000
771.461853	140.620000
771.503235	140.840000
771.544495	140.700000
771.585815	140.940000
771.627075	140.160000
771.668457	140.140000
771.709717	139.960000
771.751038	140.020000
771.792358	140.420000
771.833618	140.580000
771.874939	140.620000
771.916199	140.440000
771.957520	140.300000
771.998840	140.140000
772.040100	140.260000
772.081421	140.780000
772.122742	140.320000
772.164001	140.520000
772.205261	140.140000
772.246582	140.320000
772.287903	140.220000
772.329163	140.480000
772.370483	140.480000
772.411743	140.360000
772.453064	140.020000
772.494324	140.060000
772.535645	139.780000
772.576904	140.240000
772.618164	140.080000
772.659485	140.660000
772.700745	140.180000
