Model Number: SPM-001-M   
Serial Number: 10090201
Firmware Version: 004.17.6
Exposure Time: 500000.000000us
Data Taken on: 03-03-2021 09:42:19.170
Wavelength	Amplitude
733.770752	0.000000
733.808716	0.000000
733.846619	0.000000
733.884583	0.000000
733.922546	0.000000
733.960449	0.000000
733.998413	0.000000
734.036377	0.000000
734.074219	0.000000
734.112183	0.000000
734.150085	0.000000
734.188049	0.000000
734.226013	0.000000
734.263916	0.000000
734.301819	0.000000
734.339783	0.000000
734.377686	0.000000
734.415588	0.000000
734.453552	0.000000
734.491455	0.000000
734.529419	0.000000
734.567322	0.000000
734.605225	0.000000
734.643127	0.000000
734.681091	0.000000
734.718994	0.000000
734.756897	0.000000
734.794800	0.000000
734.832703	0.000000
734.870667	0.000000
734.908508	0.000000
734.946472	0.000000
734.984375	0.000000
735.022278	0.000000
735.060181	0.000000
735.098083	0.000000
735.135986	0.000000
735.173889	0.000000
735.211792	0.000000
735.249695	0.000000
735.287598	0.000000
735.325439	0.000000
735.363403	0.000000
735.401306	0.000000
735.439148	0.000000
735.477051	0.000000
735.515015	0.000000
735.552856	0.000000
735.590759	0.000000
735.628662	0.000000
735.666504	0.000000
735.704407	0.000000
735.742310	0.000000
735.780212	0.000000
735.818115	0.000000
735.856018	0.000000
735.893860	0.000000
735.931763	0.000000
735.969604	0.000000
736.007507	0.000000
736.045410	0.000000
736.083252	0.000000
736.121094	0.000000
736.158997	0.000000
736.196838	0.000000
736.234741	0.000000
736.272644	0.000000
736.310486	0.000000
736.348389	0.000000
736.386230	0.000000
736.424072	0.000000
736.461975	0.000000
736.499878	0.000000
736.537720	0.000000
736.575562	0.000000
736.613403	0.000000
736.651306	0.000000
736.689148	0.000000
736.726990	0.000000
736.764893	0.000000
736.802734	0.000000
736.840576	0.000000
736.878418	0.000000
736.916321	0.000000
736.954102	0.000000
736.992004	0.000000
737.029846	0.000000
737.067688	0.000000
737.105530	0.000000
737.143372	0.000000
737.181213	0.000000
737.219116	0.000000
737.256897	0.000000
737.294739	0.000000
737.332642	0.000000
737.370422	0.000000
737.408325	0.000000
737.446167	0.000000
737.483948	0.000000
737.521790	0.000000
737.559692	0.000000
737.597473	0.000000
737.635315	0.000000
737.673157	0.000000
737.710999	0.000000
737.748840	0.000000
737.786621	0.000000
737.824463	0.000000
737.862305	0.000000
737.900085	0.000000
737.937927	0.000000
737.975769	0.000000
738.013550	0.000000
738.051392	0.000000
738.089233	0.000000
738.127014	0.000000
738.164856	0.000000
738.202698	0.000000
738.240479	0.000000
738.278320	0.000000
738.316162	0.000000
738.353943	0.000000
738.391785	0.000000
738.429565	0.000000
738.467407	0.000000
738.505188	0.000000
738.542969	0.000000
738.580811	0.000000
738.618652	0.000000
738.656372	0.000000
738.694214	0.000000
738.732056	0.000000
738.769836	0.000000
738.807617	0.000000
738.845459	0.000000
738.883240	0.000000
738.921021	0.000000
738.958862	0.000000
738.996582	0.000000
739.034424	0.000000
739.072205	0.000000
739.109985	0.000000
739.147827	0.000000
739.185547	0.000000
739.223389	0.000000
739.261169	0.000000
739.298889	0.000000
739.336731	0.000000
739.374512	0.000000
739.412292	0.000000
739.450073	0.000000
739.487854	0.000000
739.525635	0.000000
739.563416	0.000000
739.601135	0.000000
739.638977	0.000000
739.676758	0.000000
739.714478	0.000000
739.752258	0.000000
739.790100	0.000000
739.827820	0.000000
739.865601	0.000000
739.903381	0.000000
739.941101	0.000000
739.978882	187.300000
740.016724	184.000000
740.054443	190.400000
740.092224	182.300000
740.130005	182.000000
740.167725	182.500000
740.205505	181.700000
740.243225	192.100000
740.281006	186.600000
740.318787	178.800000
740.356506	191.300000
740.394287	191.000000
740.432068	181.500000
740.469727	178.400000
740.507507	189.600000
740.545288	184.400000
740.583008	189.800000
740.620789	186.400000
740.658569	177.400000
740.696228	185.900000
740.734009	191.500000
740.771790	174.300000
740.809509	190.700000
740.847229	180.700000
740.884949	183.900000
740.922729	178.000000
740.960449	183.200000
740.998169	179.100000
741.035950	181.700000
741.073669	185.600000
741.111389	186.000000
741.149170	194.800000
741.186890	196.300000
741.224609	187.600000
741.262329	185.800000
741.300110	195.000000
741.337769	180.700000
741.375549	179.200000
741.413208	187.100000
741.450989	180.800000
741.488708	182.000000
741.526367	183.000000
741.564148	188.300000
741.601868	189.900000
741.639526	185.800000
741.677307	186.600000
741.715027	187.500000
741.752686	180.900000
741.790466	193.600000
741.828186	187.800000
741.865845	181.100000
741.903564	177.400000
741.941345	184.400000
741.979004	181.200000
742.016724	189.400000
742.054382	185.200000
742.092102	190.100000
742.129822	177.400000
742.167480	184.500000
742.205200	185.000000
742.242920	186.700000
742.280640	189.800000
742.318359	180.800000
742.356079	184.200000
742.393738	189.300000
742.431396	184.400000
742.469116	190.700000
742.506775	175.800000
742.544495	186.800000
742.582214	188.900000
742.619873	185.300000
742.657593	194.100000
742.695251	189.400000
742.732971	184.800000
742.770630	187.000000
742.808289	185.000000
742.846008	184.300000
742.883728	188.800000
742.921326	185.800000
742.959045	182.900000
742.996765	185.000000
743.034424	183.700000
743.072083	182.100000
743.109802	186.100000
743.147400	178.300000
743.185120	187.800000
743.222839	184.100000
743.260437	190.700000
743.298157	186.600000
743.335754	177.600000
743.373474	184.300000
743.411133	179.800000
743.448792	185.600000
743.486450	185.300000
743.524170	177.200000
743.561768	185.300000
743.599487	192.600000
743.637146	196.200000
743.674744	183.600000
743.712463	182.600000
743.750122	185.300000
743.787720	187.900000
743.825439	181.200000
743.863037	183.200000
743.900696	185.100000
743.938416	211.500000
743.976013	183.300000
744.013672	194.600000
744.051331	189.600000
744.088928	194.100000
744.126587	191.700000
744.164307	186.000000
744.201904	181.600000
744.239563	188.900000
744.277222	187.600000
744.314819	184.800000
744.352478	192.400000
744.390137	187.000000
744.427734	188.300000
744.465393	183.300000
744.502991	181.400000
744.540649	188.100000
744.578308	187.400000
744.615906	180.100000
744.653564	175.800000
744.691223	189.100000
744.728821	178.000000
744.766418	185.600000
744.804077	188.300000
744.841675	182.800000
744.879333	179.300000
744.916992	182.800000
744.954529	184.000000
744.992187	191.000000
745.029785	183.800000
745.067444	181.200000
745.105042	186.100000
745.142639	186.700000
745.180298	195.300000
745.217896	181.800000
745.255493	183.100000
745.293152	189.500000
745.330750	190.000000
745.368347	192.700000
745.405945	188.800000
745.443604	186.000000
745.481140	190.400000
745.518799	184.300000
745.556396	190.000000
745.593994	189.100000
745.631592	185.500000
745.669189	181.500000
745.706787	188.100000
745.744385	182.000000
745.781982	188.400000
745.819580	183.000000
745.857178	183.700000
745.894775	186.600000
745.932373	186.900000
745.969971	186.300000
746.007568	178.000000
746.045166	195.300000
746.082764	191.700000
746.120300	188.400000
746.157898	190.700000
746.195557	185.300000
746.233093	180.400000
746.270691	189.700000
746.308228	187.900000
746.345825	190.800000
746.383423	189.500000
746.420959	181.600000
746.458557	182.800000
746.496155	184.400000
746.533691	186.800000
746.571289	181.700000
746.608887	186.200000
746.646423	187.200000
746.684021	185.400000
746.721619	183.500000
746.759155	188.900000
746.796753	179.600000
746.834351	179.400000
746.871826	181.600000
746.909424	191.700000
746.946960	189.000000
746.984558	185.700000
747.022156	184.100000
747.059631	191.300000
747.097229	187.600000
747.134827	183.100000
747.172363	192.700000
747.209900	188.700000
747.247498	181.200000
747.285034	191.300000
747.322571	191.700000
747.360168	182.700000
747.397644	178.800000
747.435242	189.100000
747.472778	192.900000
747.510315	184.000000
747.547913	183.600000
747.585388	191.000000
747.622925	184.500000
747.660522	176.400000
747.697998	183.500000
747.735596	185.500000
747.773132	182.700000
747.810669	184.800000
747.848206	189.100000
747.885742	180.900000
747.923279	180.000000
747.960815	185.700000
747.998352	186.200000
748.035889	190.300000
748.073425	191.200000
748.110901	184.100000
748.148437	180.800000
748.185974	186.600000
748.223511	194.800000
748.261047	188.800000
748.298584	188.100000
748.336060	185.300000
748.373596	187.600000
748.411133	206.100000
748.448608	182.100000
748.486145	189.100000
748.523682	191.800000
748.561218	192.400000
748.598755	187.300000
748.636292	188.700000
748.673706	184.000000
748.711243	193.200000
748.748718	186.800000
748.786255	187.100000
748.823792	187.000000
748.861267	181.200000
748.898804	187.900000
748.936340	187.000000
748.973816	183.300000
749.011292	192.300000
749.048828	186.500000
749.086304	188.400000
749.123840	197.000000
749.161316	181.300000
749.198792	194.800000
749.236328	193.400000
749.273743	186.000000
749.311279	185.200000
749.348816	188.200000
749.386230	187.400000
749.423767	175.100000
749.461304	187.900000
749.498718	187.000000
749.536255	192.300000
749.573730	196.900000
749.611206	191.900000
749.648682	184.800000
749.686218	185.600000
749.723633	189.200000
749.761169	184.200000
749.798645	182.000000
749.836060	184.500000
749.873596	182.800000
749.911011	187.000000
749.948547	191.700000
749.986023	184.900000
750.023437	185.100000
750.060913	179.700000
750.098450	179.900000
750.135864	185.600000
750.173340	186.100000
750.210815	190.700000
750.248291	182.000000
750.285767	186.300000
750.323242	193.100000
750.360657	186.900000
750.398132	181.400000
750.435608	190.200000
750.473022	181.800000
750.510498	182.000000
750.547974	181.500000
750.585449	183.800000
750.622925	176.700000
750.660339	195.100000
750.697815	186.900000
750.735291	185.100000
750.772644	186.500000
750.810120	187.800000
750.847595	188.800000
750.885010	180.300000
750.922485	195.300000
750.959961	186.200000
750.997375	193.300000
751.034851	189.700000
751.072266	190.600000
751.109680	177.800000
751.147156	192.100000
751.184570	188.000000
751.221985	188.300000
751.259460	178.300000
751.296875	185.800000
751.334290	184.500000
751.371765	189.800000
751.409180	188.900000
751.446594	191.700000
751.484070	188.600000
751.521423	187.900000
751.558899	188.300000
751.596375	193.500000
751.633728	192.200000
751.671204	198.800000
751.708618	181.400000
751.746033	188.300000
751.783447	180.300000
751.820801	182.200000
751.858276	189.200000
751.895691	186.200000
751.933105	184.600000
751.970520	182.200000
752.007935	183.700000
752.045349	190.100000
752.082764	186.700000
752.120178	186.100000
752.157532	182.700000
752.195007	184.600000
752.232422	188.900000
752.269775	190.400000
752.307190	190.600000
752.344543	182.100000
752.382019	185.500000
752.419434	184.800000
752.456787	187.900000
752.494202	190.700000
752.531616	188.200000
752.568970	191.400000
752.606384	187.700000
752.643799	188.200000
752.681152	195.500000
752.718567	188.900000
752.755981	179.900000
752.793335	188.900000
752.830750	178.300000
752.868164	191.000000
752.905518	182.400000
752.942932	189.800000
752.980225	181.100000
753.017639	189.800000
753.055054	184.800000
753.092407	187.300000
753.129822	191.300000
753.167175	194.200000
753.204529	185.700000
753.241943	183.600000
753.279358	180.900000
753.316650	189.500000
753.354065	189.300000
753.391479	189.900000
753.428772	193.700000
753.466187	188.500000
753.503479	179.900000
753.540894	184.100000
753.578308	181.300000
753.615601	179.900000
753.653015	185.800000
753.690369	184.600000
753.727722	182.400000
753.765076	178.100000
753.802490	180.400000
753.839783	178.400000
753.877136	183.300000
753.914551	200.200000
753.951843	181.200000
753.989258	190.700000
754.026611	185.800000
754.063904	187.600000
754.101257	181.200000
754.138611	178.700000
754.175964	185.100000
754.213318	196.100000
754.250610	179.700000
754.288025	183.000000
754.325378	180.200000
754.362671	191.600000
754.400024	184.500000
754.437378	194.600000
754.474670	196.100000
754.512085	183.700000
754.549438	187.000000
754.586731	184.700000
754.624084	184.500000
754.661438	181.200000
754.698730	192.800000
754.736084	185.100000
754.773376	183.700000
754.810730	188.700000
754.848083	183.700000
754.885315	190.300000
754.922668	177.700000
754.960022	181.900000
754.997314	189.800000
755.034668	187.500000
755.072021	185.400000
755.109253	183.900000
755.146606	192.800000
755.183960	183.700000
755.221252	193.000000
755.258545	190.800000
755.295898	191.500000
755.333191	193.100000
755.370544	188.300000
755.407776	184.800000
755.445129	187.200000
755.482422	190.500000
755.519714	184.200000
755.557068	180.500000
755.594360	179.100000
755.631653	190.300000
755.668945	195.600000
755.706299	189.200000
755.743530	197.700000
755.780884	194.200000
755.818176	192.900000
755.855408	191.900000
755.892761	187.800000
755.930054	186.800000
755.967346	187.600000
756.004639	189.000000
756.041870	187.900000
756.079224	191.900000
756.116516	183.300000
756.153748	191.500000
756.191040	196.300000
756.228394	190.000000
756.265625	184.100000
756.302917	188.600000
756.340210	185.400000
756.377441	192.200000
756.414795	195.600000
756.452087	188.400000
756.489319	181.800000
756.526611	191.200000
756.563843	188.500000
756.601135	196.800000
756.638428	197.800000
756.675659	188.300000
756.712952	193.300000
756.750244	191.900000
756.787476	191.000000
756.824768	194.700000
756.862061	186.700000
756.899292	235.200000
756.936584	193.300000
756.973816	198.600000
757.011047	201.100000
757.048340	189.000000
757.085632	190.500000
757.122864	205.700000
757.160156	187.200000
757.197327	191.600000
757.234619	195.000000
757.271912	188.100000
757.309082	195.400000
757.346375	186.900000
757.383667	196.900000
757.420837	191.600000
757.458130	191.800000
757.495422	190.400000
757.532593	194.000000
757.569885	184.400000
757.607117	187.400000
757.644348	192.600000
757.681580	204.000000
757.718811	180.400000
757.756042	191.300000
757.793335	189.500000
757.830505	193.600000
757.867798	189.000000
757.905029	189.500000
757.942200	192.500000
757.979492	187.300000
758.016724	191.000000
758.053894	190.300000
758.091187	210.100000
758.128418	191.700000
758.165588	192.600000
758.202820	202.500000
758.240112	191.200000
758.277283	202.600000
758.314514	194.500000
758.351685	188.700000
758.388916	202.500000
758.426147	201.800000
758.463379	203.100000
758.500610	196.400000
758.537842	194.800000
758.575012	199.100000
758.612244	190.000000
758.649475	205.200000
758.686646	187.000000
758.723877	200.600000
758.761108	202.900000
758.798279	193.500000
758.835510	196.800000
758.872742	200.600000
758.909851	197.600000
758.947083	197.400000
758.984253	197.800000
759.021484	200.600000
759.058716	199.900000
759.095886	200.400000
759.133057	195.500000
759.170288	200.200000
759.207458	192.800000
759.244690	206.900000
759.281860	205.700000
759.319031	197.500000
759.356262	195.400000
759.393433	196.700000
759.430603	196.500000
759.467773	195.600000
759.505005	204.800000
759.542175	204.500000
759.579346	197.700000
759.616516	200.800000
759.653687	201.000000
759.690918	196.500000
759.728027	201.100000
759.765259	200.600000
759.802429	204.100000
759.839539	202.900000
759.876770	207.100000
759.913940	210.900000
759.951111	201.800000
759.988281	201.100000
760.025452	198.400000
760.062561	197.900000
760.099792	210.100000
760.136963	204.500000
760.174072	199.600000
760.211243	197.000000
760.248413	198.700000
760.285583	197.900000
760.322754	212.700000
760.359863	207.300000
760.397034	210.700000
760.434204	202.200000
760.471375	202.800000
760.508545	202.000000
760.545715	199.500000
760.582825	197.700000
760.619995	207.500000
760.657166	197.500000
760.694275	209.000000
760.731445	206.200000
760.768555	205.000000
760.805664	208.300000
760.842834	205.000000
760.879944	208.200000
760.917114	204.300000
760.954285	204.200000
760.991394	196.900000
761.028564	210.000000
761.065674	207.400000
761.102783	200.600000
761.139954	209.100000
761.177124	209.100000
761.214172	210.500000
761.251343	204.900000
761.288452	205.900000
761.325562	209.800000
761.362732	202.400000
761.399841	205.300000
761.436951	208.600000
761.474121	203.000000
761.511169	208.000000
761.548340	211.700000
761.585449	210.700000
761.622559	212.100000
761.659668	208.100000
761.696838	214.200000
761.733887	210.300000
761.771057	207.000000
761.808167	206.800000
761.845276	213.400000
761.882385	222.500000
761.919434	211.200000
761.956604	229.200000
761.993713	205.700000
762.030762	218.000000
762.067871	209.300000
762.105042	211.200000
762.142090	217.200000
762.179199	213.700000
762.216309	216.400000
762.253418	228.000000
762.290527	221.600000
762.327637	219.300000
762.364685	208.000000
762.401794	218.000000
762.438904	215.000000
762.475952	210.300000
762.513062	208.700000
762.550110	210.900000
762.587219	223.100000
762.624329	222.600000
762.661377	217.400000
762.698486	216.600000
762.735596	216.600000
762.772644	210.700000
762.809753	206.200000
762.846863	216.400000
762.883911	220.000000
762.921021	218.700000
762.958069	215.800000
762.995117	224.800000
763.032227	223.800000
763.069336	215.700000
763.106323	213.100000
763.143433	212.800000
763.180481	220.100000
763.217590	222.000000
763.254639	216.800000
763.291687	217.200000
763.328735	226.700000
763.365845	219.900000
763.402893	218.000000
763.439941	222.000000
763.477051	225.200000
763.514038	224.400000
763.551147	218.000000
763.588196	222.800000
763.625244	221.000000
763.662292	228.900000
763.699402	231.000000
763.736389	225.300000
763.773499	233.300000
763.810486	227.100000
763.847534	225.200000
763.884644	227.000000
763.921631	223.600000
763.958679	235.100000
763.995728	226.500000
764.032776	233.100000
764.069824	222.200000
764.106873	231.300000
764.143860	235.100000
764.180969	227.600000
764.218018	236.700000
764.255005	227.100000
764.292053	229.900000
764.329102	238.600000
764.366089	239.800000
764.403137	237.400000
764.440125	229.100000
764.477173	233.300000
764.514221	236.000000
764.551208	233.500000
764.588257	229.200000
764.625305	237.900000
764.662292	242.600000
764.699341	245.500000
764.736389	239.800000
764.773376	254.600000
764.810425	241.200000
764.847473	247.400000
764.884399	243.900000
764.921448	252.200000
764.958435	250.300000
764.995483	239.800000
765.032532	256.600000
765.069458	243.000000
765.106506	244.600000
765.143555	241.300000
765.180481	246.300000
765.217529	255.400000
765.254578	239.000000
765.291504	248.200000
765.328552	246.600000
765.365540	243.600000
765.402527	258.400000
765.439575	244.300000
765.476501	241.100000
765.513550	244.000000
765.550537	249.200000
765.587463	254.900000
765.624512	245.700000
765.661499	240.300000
765.698486	255.800000
765.735474	247.200000
765.772461	249.300000
765.809448	259.500000
765.846436	255.400000
765.883423	259.200000
765.920410	253.200000
765.957397	250.300000
765.994385	255.700000
766.031311	266.000000
766.068359	256.600000
766.105286	257.800000
766.142273	263.100000
766.179260	258.400000
766.216187	251.800000
766.253174	251.600000
766.290161	258.700000
766.327148	262.400000
766.364136	262.500000
766.401123	275.900000
766.438049	255.300000
766.475037	270.900000
766.512024	264.100000
766.548950	279.000000
766.585937	271.900000
766.622864	268.700000
766.659790	266.000000
766.696777	257.700000
766.733704	271.300000
766.770691	262.100000
766.807678	276.000000
766.844604	271.400000
766.881531	269.400000
766.918518	276.400000
766.955444	276.500000
766.992432	269.300000
767.029358	273.200000
767.066284	276.400000
767.103271	273.300000
767.140198	304.000000
767.177124	288.400000
767.214050	278.100000
767.251038	279.700000
767.287964	276.400000
767.324890	273.500000
767.361816	278.100000
767.398743	284.300000
767.435730	277.300000
767.472595	281.800000
767.509583	287.800000
767.546509	275.700000
767.583374	281.000000
767.620361	274.300000
767.657288	281.400000
767.694214	282.100000
767.731140	280.000000
767.768066	283.200000
767.804993	285.800000
767.841919	278.600000
767.878845	284.000000
767.915710	292.000000
767.952698	286.000000
767.989563	287.500000
768.026489	288.700000
