Model Number: SPM-001-M   
Serial Number: 10090201
Firmware Version: 004.17.6
Exposure Time: 500000.000000us
Data Taken on: 03-03-2021 09:42:44.671
Wavelength	Amplitude
733.770752	0.000000
733.808716	0.000000
733.846619	0.000000
733.884583	0.000000
733.922546	0.000000
733.960449	0.000000
733.998413	0.000000
734.036377	0.000000
734.074219	0.000000
734.112183	0.000000
734.150085	0.000000
734.188049	0.000000
734.226013	0.000000
734.263916	0.000000
734.301819	0.000000
734.339783	0.000000
734.377686	0.000000
734.415588	0.000000
734.453552	0.000000
734.491455	0.000000
734.529419	0.000000
734.567322	0.000000
734.605225	0.000000
734.643127	0.000000
734.681091	0.000000
734.718994	0.000000
734.756897	0.000000
734.794800	0.000000
734.832703	0.000000
734.870667	0.000000
734.908508	0.000000
734.946472	0.000000
734.984375	0.000000
735.022278	0.000000
735.060181	0.000000
735.098083	0.000000
735.135986	0.000000
735.173889	0.000000
735.211792	0.000000
735.249695	0.000000
735.287598	0.000000
735.325439	0.000000
735.363403	0.000000
735.401306	0.000000
735.439148	0.000000
735.477051	0.000000
735.515015	0.000000
735.552856	0.000000
735.590759	0.000000
735.628662	0.000000
735.666504	0.000000
735.704407	0.000000
735.742310	0.000000
735.780212	0.000000
735.818115	0.000000
735.856018	0.000000
735.893860	0.000000
735.931763	0.000000
735.969604	0.000000
736.007507	0.000000
736.045410	0.000000
736.083252	0.000000
736.121094	0.000000
736.158997	0.000000
736.196838	0.000000
736.234741	0.000000
736.272644	0.000000
736.310486	0.000000
736.348389	0.000000
736.386230	0.000000
736.424072	0.000000
736.461975	0.000000
736.499878	0.000000
736.537720	0.000000
736.575562	0.000000
736.613403	0.000000
736.651306	0.000000
736.689148	0.000000
736.726990	0.000000
736.764893	0.000000
736.802734	0.000000
736.840576	0.000000
736.878418	0.000000
736.916321	0.000000
736.954102	0.000000
736.992004	0.000000
737.029846	0.000000
737.067688	0.000000
737.105530	0.000000
737.143372	0.000000
737.181213	0.000000
737.219116	0.000000
737.256897	0.000000
737.294739	0.000000
737.332642	0.000000
737.370422	0.000000
737.408325	0.000000
737.446167	0.000000
737.483948	0.000000
737.521790	0.000000
737.559692	0.000000
737.597473	0.000000
737.635315	0.000000
737.673157	0.000000
737.710999	0.000000
737.748840	0.000000
737.786621	0.000000
737.824463	0.000000
737.862305	0.000000
737.900085	0.000000
737.937927	0.000000
737.975769	0.000000
738.013550	0.000000
738.051392	0.000000
738.089233	0.000000
738.127014	0.000000
738.164856	0.000000
738.202698	0.000000
738.240479	0.000000
738.278320	0.000000
738.316162	0.000000
738.353943	0.000000
738.391785	0.000000
738.429565	0.000000
738.467407	0.000000
738.505188	0.000000
738.542969	0.000000
738.580811	0.000000
738.618652	0.000000
738.656372	0.000000
738.694214	0.000000
738.732056	0.000000
738.769836	0.000000
738.807617	0.000000
738.845459	0.000000
738.883240	0.000000
738.921021	0.000000
738.958862	0.000000
738.996582	0.000000
739.034424	0.000000
739.072205	0.000000
739.109985	0.000000
739.147827	0.000000
739.185547	0.000000
739.223389	0.000000
739.261169	0.000000
739.298889	0.000000
739.336731	0.000000
739.374512	0.000000
739.412292	0.000000
739.450073	0.000000
739.487854	0.000000
739.525635	0.000000
739.563416	0.000000
739.601135	0.000000
739.638977	0.000000
739.676758	0.000000
739.714478	0.000000
739.752258	0.000000
739.790100	0.000000
739.827820	0.000000
739.865601	0.000000
739.903381	0.000000
739.941101	0.000000
739.978882	187.300000
740.016724	183.900000
740.054443	189.600000
740.092224	180.900000
740.130005	181.700000
740.167725	181.300000
740.205505	180.000000
740.243225	190.500000
740.281006	187.100000
740.318787	178.000000
740.356506	191.600000
740.394287	189.500000
740.432068	180.300000
740.469727	177.600000
740.507507	190.700000
740.545288	183.800000
740.583008	187.900000
740.620789	185.600000
740.658569	176.600000
740.696228	184.000000
740.734009	191.000000
740.771790	173.400000
740.809509	190.400000
740.847229	181.300000
740.884949	182.500000
740.922729	177.800000
740.960449	183.500000
740.998169	179.800000
741.035950	181.500000
741.073669	186.100000
741.111389	186.400000
741.149170	194.100000
741.186890	194.900000
741.224609	188.700000
741.262329	187.500000
741.300110	194.000000
741.337769	180.500000
741.375549	179.300000
741.413208	186.800000
741.450989	180.500000
741.488708	181.200000
741.526367	183.100000
741.564148	188.300000
741.601868	189.400000
741.639526	184.500000
741.677307	187.500000
741.715027	187.300000
741.752686	181.000000
741.790466	192.000000
741.828186	188.900000
741.865845	178.700000
741.903564	177.100000
741.941345	184.600000
741.979004	181.200000
742.016724	188.400000
742.054382	184.800000
742.092102	189.500000
742.129822	178.200000
742.167480	183.800000
742.205200	185.200000
742.242920	185.000000
742.280640	188.700000
742.318359	181.500000
742.356079	182.200000
742.393738	188.200000
742.431396	183.400000
742.469116	187.600000
742.506775	176.900000
742.544495	187.700000
742.582214	189.100000
742.619873	183.700000
742.657593	192.500000
742.695251	188.800000
742.732971	185.800000
742.770630	186.500000
742.808289	185.300000
742.846008	185.200000
742.883728	188.000000
742.921326	184.700000
742.959045	182.700000
742.996765	184.800000
743.034424	185.200000
743.072083	181.900000
743.109802	184.800000
743.147400	179.300000
743.185120	186.600000
743.222839	184.700000
743.260437	190.900000
743.298157	186.000000
743.335754	177.500000
743.373474	181.800000
743.411133	178.500000
743.448792	185.000000
743.486450	184.800000
743.524170	177.500000
743.561768	185.100000
743.599487	191.100000
743.637146	195.500000
743.674744	183.600000
743.712463	182.600000
743.750122	184.400000
743.787720	186.700000
743.825439	180.900000
743.863037	182.100000
743.900696	185.100000
743.938416	209.600000
743.976013	183.700000
744.013672	192.000000
744.051331	189.200000
744.088928	193.200000
744.126587	192.200000
744.164307	185.500000
744.201904	182.700000
744.239563	188.700000
744.277222	188.600000
744.314819	183.800000
744.352478	192.400000
744.390137	186.300000
744.427734	187.300000
744.465393	182.000000
744.502991	180.800000
744.540649	188.500000
744.578308	185.400000
744.615906	179.300000
744.653564	176.000000
744.691223	188.700000
744.728821	178.700000
744.766418	184.900000
744.804077	186.200000
744.841675	182.200000
744.879333	179.300000
744.916992	185.400000
744.954529	183.100000
744.992187	189.500000
745.029785	184.400000
745.067444	181.500000
745.105042	187.000000
745.142639	187.000000
745.180298	195.400000
745.217896	183.500000
745.255493	183.200000
745.293152	188.700000
745.330750	190.400000
745.368347	191.400000
745.405945	188.000000
745.443604	185.900000
745.481140	188.600000
745.518799	183.500000
745.556396	188.200000
745.593994	190.100000
745.631592	184.200000
745.669189	180.300000
745.706787	186.400000
745.744385	180.600000
745.781982	186.800000
745.819580	182.900000
745.857178	182.700000
745.894775	185.400000
745.932373	186.000000
745.969971	187.200000
746.007568	177.300000
746.045166	195.000000
746.082764	190.100000
746.120300	189.000000
746.157898	187.400000
746.195557	184.800000
746.233093	179.400000
746.270691	188.300000
746.308228	186.600000
746.345825	190.100000
746.383423	188.100000
746.420959	179.600000
746.458557	181.700000
746.496155	183.100000
746.533691	184.800000
746.571289	180.900000
746.608887	185.500000
746.646423	186.800000
746.684021	185.700000
746.721619	183.400000
746.759155	186.500000
746.796753	179.800000
746.834351	180.000000
746.871826	182.100000
746.909424	191.700000
746.946960	186.300000
746.984558	184.400000
747.022156	182.600000
747.059631	192.900000
747.097229	188.200000
747.134827	182.900000
747.172363	191.900000
747.209900	186.800000
747.247498	181.200000
747.285034	192.300000
747.322571	191.600000
747.360168	182.400000
747.397644	178.100000
747.435242	188.700000
747.472778	191.000000
747.510315	182.800000
747.547913	183.300000
747.585388	190.500000
747.622925	183.600000
747.660522	176.500000
747.697998	181.300000
747.735596	185.000000
747.773132	181.600000
747.810669	185.700000
747.848206	187.800000
747.885742	179.300000
747.923279	177.400000
747.960815	187.400000
747.998352	185.000000
748.035889	190.100000
748.073425	188.500000
748.110901	182.600000
748.148437	180.100000
748.185974	185.500000
748.223511	194.000000
748.261047	187.500000
748.298584	185.000000
748.336060	185.100000
748.373596	187.700000
748.411133	205.600000
748.448608	181.100000
748.486145	189.000000
748.523682	191.700000
748.561218	190.900000
748.598755	186.100000
748.636292	188.300000
748.673706	182.700000
748.711243	191.700000
748.748718	187.900000
748.786255	186.100000
748.823792	185.800000
748.861267	180.000000
748.898804	187.300000
748.936340	186.700000
748.973816	182.300000
749.011292	191.500000
749.048828	187.900000
749.086304	188.000000
749.123840	197.400000
749.161316	181.200000
749.198792	193.800000
749.236328	191.200000
749.273743	185.500000
749.311279	183.000000
749.348816	187.900000
749.386230	186.800000
749.423767	175.000000
749.461304	187.600000
749.498718	184.300000
749.536255	192.200000
749.573730	196.600000
749.611206	190.500000
749.648682	184.200000
749.686218	185.600000
749.723633	187.400000
749.761169	183.500000
749.798645	182.100000
749.836060	183.500000
749.873596	183.100000
749.911011	185.300000
749.948547	191.900000
749.986023	184.100000
750.023437	185.000000
750.060913	179.000000
750.098450	178.400000
750.135864	184.300000
750.173340	186.000000
750.210815	189.700000
750.248291	180.200000
750.285767	184.300000
750.323242	190.900000
750.360657	187.400000
750.398132	181.100000
750.435608	188.500000
750.473022	181.600000
750.510498	182.300000
750.547974	180.900000
750.585449	181.700000
750.622925	177.000000
750.660339	195.200000
750.697815	184.700000
750.735291	184.200000
750.772644	187.100000
750.810120	188.300000
750.847595	189.300000
750.885010	182.300000
750.922485	193.700000
750.959961	183.700000
750.997375	191.600000
751.034851	189.600000
751.072266	189.700000
751.109680	179.100000
751.147156	191.000000
751.184570	187.600000
751.221985	185.300000
751.259460	176.000000
751.296875	186.500000
751.334290	185.600000
751.371765	189.400000
751.409180	187.600000
751.446594	190.100000
751.484070	187.100000
751.521423	186.800000
751.558899	186.400000
751.596375	193.800000
751.633728	192.200000
751.671204	196.700000
751.708618	180.900000
751.746033	184.900000
751.783447	180.200000
751.820801	180.700000
751.858276	188.000000
751.895691	185.000000
751.933105	183.100000
751.970520	180.100000
752.007935	183.800000
752.045349	188.900000
752.082764	186.200000
752.120178	184.300000
752.157532	182.000000
752.195007	182.200000
752.232422	188.600000
752.269775	188.100000
752.307190	188.900000
752.344543	181.400000
752.382019	184.400000
752.419434	182.900000
752.456787	188.700000
752.494202	190.100000
752.531616	187.900000
752.568970	188.700000
752.606384	187.200000
752.643799	187.300000
752.681152	192.700000
752.718567	188.600000
752.755981	177.800000
752.793335	189.700000
752.830750	176.900000
752.868164	190.900000
752.905518	181.000000
752.942932	189.600000
752.980225	179.500000
753.017639	189.100000
753.055054	184.200000
753.092407	186.500000
753.129822	192.600000
753.167175	195.000000
753.204529	186.300000
753.241943	182.500000
753.279358	180.300000
753.316650	188.700000
753.354065	186.400000
753.391479	189.700000
753.428772	193.500000
753.466187	188.800000
753.503479	179.900000
753.540894	183.300000
753.578308	179.900000
753.615601	181.300000
753.653015	185.000000
753.690369	182.900000
753.727722	181.100000
753.765076	178.900000
753.802490	179.900000
753.839783	178.300000
753.877136	181.900000
753.914551	202.500000
753.951843	180.300000
753.989258	189.700000
754.026611	186.400000
754.063904	187.500000
754.101257	180.400000
754.138611	178.300000
754.175964	184.700000
754.213318	197.000000
754.250610	177.700000
754.288025	183.600000
754.325378	179.900000
754.362671	191.700000
754.400024	183.700000
754.437378	195.100000
754.474670	195.000000
754.512085	182.300000
754.549438	185.700000
754.586731	184.300000
754.624084	184.600000
754.661438	181.400000
754.698730	193.000000
754.736084	183.300000
754.773376	184.900000
754.810730	187.600000
754.848083	183.100000
754.885315	190.200000
754.922668	178.200000
754.960022	181.000000
754.997314	189.300000
755.034668	184.700000
755.072021	185.900000
755.109253	182.400000
755.146606	191.800000
755.183960	181.800000
755.221252	193.100000
755.258545	189.700000
755.295898	191.800000
755.333191	193.100000
755.370544	188.000000
755.407776	185.000000
755.445129	185.900000
755.482422	189.700000
755.519714	182.400000
755.557068	179.000000
755.594360	178.300000
755.631653	189.200000
755.668945	194.000000
755.706299	187.000000
755.743530	196.400000
755.780884	192.600000
755.818176	190.900000
755.855408	190.400000
755.892761	187.900000
755.930054	186.700000
755.967346	189.600000
756.004639	189.200000
756.041870	188.000000
756.079224	190.200000
756.116516	182.600000
756.153748	191.600000
756.191040	194.000000
756.228394	189.800000
756.265625	183.100000
756.302917	186.700000
756.340210	184.200000
756.377441	191.800000
756.414795	194.500000
756.452087	186.100000
756.489319	180.600000
756.526611	190.200000
756.563843	189.500000
756.601135	195.700000
756.638428	195.900000
756.675659	187.900000
756.712952	192.300000
756.750244	190.400000
756.787476	190.300000
756.824768	193.900000
756.862061	186.000000
756.899292	234.300000
756.936584	192.000000
756.973816	198.500000
757.011047	200.800000
757.048340	187.800000
757.085632	189.900000
757.122864	203.300000
757.160156	186.600000
757.197327	191.100000
757.234619	193.200000
757.271912	188.100000
757.309082	193.600000
757.346375	185.900000
757.383667	194.900000
757.420837	191.900000
757.458130	190.000000
757.495422	189.200000
757.532593	191.100000
757.569885	184.000000
757.607117	185.500000
757.644348	192.400000
757.681580	203.800000
757.718811	179.900000
757.756042	189.700000
757.793335	187.600000
757.830505	192.200000
757.867798	187.800000
757.905029	186.600000
757.942200	192.800000
757.979492	186.800000
758.016724	189.700000
758.053894	188.600000
758.091187	209.900000
758.128418	191.400000
758.165588	190.100000
758.202820	201.800000
758.240112	189.500000
758.277283	201.600000
758.314514	193.400000
758.351685	189.100000
758.388916	202.800000
758.426147	200.100000
758.463379	201.900000
758.500610	196.000000
758.537842	193.800000
758.575012	199.100000
758.612244	188.700000
758.649475	205.700000
758.686646	186.800000
758.723877	199.900000
758.761108	202.600000
758.798279	194.000000
758.835510	195.100000
758.872742	199.800000
758.909851	196.900000
758.947083	197.400000
758.984253	197.200000
759.021484	200.400000
759.058716	199.200000
759.095886	199.600000
759.133057	194.700000
759.170288	198.700000
759.207458	191.400000
759.244690	206.400000
759.281860	203.500000
759.319031	195.800000
759.356262	193.900000
759.393433	195.400000
759.430603	195.600000
759.467773	195.600000
759.505005	202.100000
759.542175	201.900000
759.579346	195.400000
759.616516	199.500000
759.653687	200.600000
759.690918	194.600000
759.728027	198.600000
759.765259	200.600000
759.802429	201.900000
759.839539	202.900000
759.876770	205.700000
759.913940	209.000000
759.951111	201.100000
759.988281	200.300000
760.025452	197.700000
760.062561	195.500000
760.099792	207.200000
760.136963	203.800000
760.174072	198.300000
760.211243	194.900000
760.248413	195.900000
760.285583	198.000000
760.322754	210.900000
760.359863	206.400000
760.397034	208.800000
760.434204	201.400000
760.471375	201.000000
760.508545	199.400000
760.545715	201.900000
760.582825	197.900000
760.619995	207.200000
760.657166	195.800000
760.694275	209.400000
760.731445	205.200000
760.768555	204.200000
760.805664	207.000000
760.842834	205.000000
760.879944	206.900000
760.917114	205.000000
760.954285	203.400000
760.991394	197.500000
761.028564	210.800000
761.065674	206.700000
761.102783	199.800000
761.139954	209.700000
761.177124	209.000000
761.214172	210.900000
761.251343	203.300000
761.288452	205.200000
761.325562	208.300000
761.362732	203.100000
761.399841	204.600000
761.436951	208.300000
761.474121	200.600000
761.511169	207.100000
761.548340	210.500000
761.585449	209.700000
761.622559	210.400000
761.659668	207.300000
761.696838	212.900000
761.733887	210.500000
761.771057	205.400000
761.808167	205.900000
761.845276	210.800000
761.882385	220.100000
761.919434	211.800000
761.956604	227.400000
761.993713	207.500000
762.030762	217.100000
762.067871	208.400000
762.105042	209.300000
762.142090	217.200000
762.179199	213.200000
762.216309	215.600000
762.253418	226.900000
762.290527	220.900000
762.327637	217.600000
762.364685	205.700000
762.401794	216.300000
762.438904	214.200000
762.475952	210.600000
762.513062	209.500000
762.550110	209.200000
762.587219	223.700000
762.624329	223.300000
762.661377	216.800000
762.698486	218.000000
762.735596	217.000000
762.772644	210.200000
762.809753	208.900000
762.846863	215.300000
762.883911	220.400000
762.921021	220.700000
762.958069	214.700000
762.995117	225.200000
763.032227	223.000000
763.069336	215.900000
763.106323	212.700000
763.143433	211.300000
763.180481	219.400000
763.217590	219.600000
763.254639	217.700000
763.291687	216.500000
763.328735	227.200000
763.365845	217.400000
763.402893	217.300000
763.439941	221.300000
763.477051	224.400000
763.514038	223.600000
763.551147	217.800000
763.588196	221.400000
763.625244	220.000000
763.662292	226.400000
763.699402	229.200000
763.736389	224.000000
763.773499	233.400000
763.810486	227.000000
763.847534	223.800000
763.884644	226.400000
763.921631	223.000000
763.958679	234.900000
763.995728	225.400000
764.032776	232.300000
764.069824	221.400000
764.106873	229.700000
764.143860	235.500000
764.180969	226.500000
764.218018	236.900000
764.255005	224.800000
764.292053	229.300000
764.329102	237.800000
764.366089	238.000000
764.403137	236.100000
764.440125	228.400000
764.477173	232.300000
764.514221	236.500000
764.551208	232.700000
764.588257	227.900000
764.625305	238.500000
764.662292	242.800000
764.699341	246.300000
764.736389	237.700000
764.773376	252.900000
764.810425	239.000000
764.847473	248.800000
764.884399	242.100000
764.921448	250.100000
764.958435	248.300000
764.995483	239.900000
765.032532	257.200000
765.069458	241.700000
765.106506	242.200000
765.143555	240.300000
765.180481	245.700000
765.217529	253.000000
765.254578	237.600000
765.291504	247.600000
765.328552	245.800000
765.365540	242.800000
765.402527	259.200000
765.439575	244.400000
765.476501	239.400000
765.513550	241.100000
765.550537	245.600000
765.587463	255.600000
765.624512	244.200000
765.661499	238.700000
765.698486	254.300000
765.735474	244.500000
765.772461	247.700000
765.809448	256.800000
765.846436	253.300000
765.883423	259.300000
765.920410	253.400000
765.957397	250.700000
765.994385	254.000000
766.031311	263.500000
766.068359	257.800000
766.105286	256.500000
766.142273	262.000000
766.179260	258.700000
766.216187	251.000000
766.253174	249.600000
766.290161	256.400000
766.327148	260.600000
766.364136	261.400000
766.401123	276.400000
766.438049	254.700000
766.475037	267.800000
766.512024	264.100000
766.548950	278.300000
766.585937	271.900000
766.622864	269.000000
766.659790	265.500000
766.696777	257.200000
766.733704	270.000000
766.770691	260.400000
766.807678	275.100000
766.844604	269.700000
766.881531	268.800000
766.918518	274.300000
766.955444	276.900000
766.992432	270.500000
767.029358	274.500000
767.066284	276.800000
767.103271	272.500000
767.140198	303.100000
767.177124	289.800000
767.214050	277.600000
767.251038	278.700000
767.287964	276.100000
767.324890	272.600000
767.361816	276.400000
767.398743	286.300000
767.435730	276.600000
767.472595	282.000000
767.509583	286.000000
767.546509	275.200000
767.583374	279.000000
767.620361	273.700000
767.657288	279.200000
767.694214	280.400000
767.731140	279.700000
767.768066	281.200000
767.804993	282.300000
767.841919	277.600000
767.878845	282.600000
767.915710	291.300000
767.952698	282.900000
767.989563	285.900000
768.026489	287.700000
