Model Number: SPM-001-M   
Serial Number: 10090201
Firmware Version: 004.17.6
Exposure Time: 500000.000000us
Data Taken on: 03-03-2021 10:13:41.159
Wavelength	Amplitude
733.770752	0.000000
733.808716	0.000000
733.846619	0.000000
733.884583	0.000000
733.922546	0.000000
733.960449	0.000000
733.998413	0.000000
734.036377	0.000000
734.074219	0.000000
734.112183	0.000000
734.150085	0.000000
734.188049	0.000000
734.226013	0.000000
734.263916	0.000000
734.301819	0.000000
734.339783	0.000000
734.377686	0.000000
734.415588	0.000000
734.453552	0.000000
734.491455	0.000000
734.529419	0.000000
734.567322	0.000000
734.605225	0.000000
734.643127	0.000000
734.681091	0.000000
734.718994	0.000000
734.756897	0.000000
734.794800	0.000000
734.832703	0.000000
734.870667	0.000000
734.908508	0.000000
734.946472	0.000000
734.984375	0.000000
735.022278	0.000000
735.060181	0.000000
735.098083	0.000000
735.135986	0.000000
735.173889	0.000000
735.211792	0.000000
735.249695	0.000000
735.287598	0.000000
735.325439	0.000000
735.363403	0.000000
735.401306	0.000000
735.439148	0.000000
735.477051	0.000000
735.515015	0.000000
735.552856	0.000000
735.590759	0.000000
735.628662	0.000000
735.666504	0.000000
735.704407	0.000000
735.742310	0.000000
735.780212	0.000000
735.818115	0.000000
735.856018	0.000000
735.893860	0.000000
735.931763	0.000000
735.969604	0.000000
736.007507	0.000000
736.045410	0.000000
736.083252	0.000000
736.121094	0.000000
736.158997	0.000000
736.196838	0.000000
736.234741	0.000000
736.272644	0.000000
736.310486	0.000000
736.348389	0.000000
736.386230	0.000000
736.424072	0.000000
736.461975	0.000000
736.499878	0.000000
736.537720	0.000000
736.575562	0.000000
736.613403	0.000000
736.651306	0.000000
736.689148	0.000000
736.726990	0.000000
736.764893	0.000000
736.802734	0.000000
736.840576	0.000000
736.878418	0.000000
736.916321	0.000000
736.954102	0.000000
736.992004	0.000000
737.029846	0.000000
737.067688	0.000000
737.105530	0.000000
737.143372	0.000000
737.181213	0.000000
737.219116	0.000000
737.256897	0.000000
737.294739	0.000000
737.332642	0.000000
737.370422	0.000000
737.408325	0.000000
737.446167	0.000000
737.483948	0.000000
737.521790	0.000000
737.559692	0.000000
737.597473	0.000000
737.635315	0.000000
737.673157	0.000000
737.710999	0.000000
737.748840	0.000000
737.786621	0.000000
737.824463	0.000000
737.862305	0.000000
737.900085	0.000000
737.937927	0.000000
737.975769	0.000000
738.013550	0.000000
738.051392	0.000000
738.089233	0.000000
738.127014	0.000000
738.164856	0.000000
738.202698	0.000000
738.240479	0.000000
738.278320	0.000000
738.316162	0.000000
738.353943	0.000000
738.391785	0.000000
738.429565	0.000000
738.467407	0.000000
738.505188	0.000000
738.542969	0.000000
738.580811	0.000000
738.618652	0.000000
738.656372	0.000000
738.694214	0.000000
738.732056	0.000000
738.769836	0.000000
738.807617	0.000000
738.845459	0.000000
738.883240	0.000000
738.921021	0.000000
738.958862	0.000000
738.996582	0.000000
739.034424	0.000000
739.072205	0.000000
739.109985	0.000000
739.147827	0.000000
739.185547	0.000000
739.223389	0.000000
739.261169	0.000000
739.298889	0.000000
739.336731	0.000000
739.374512	0.000000
739.412292	0.000000
739.450073	0.000000
739.487854	0.000000
739.525635	0.000000
739.563416	0.000000
739.601135	0.000000
739.638977	0.000000
739.676758	0.000000
739.714478	0.000000
739.752258	0.000000
739.790100	0.000000
739.827820	0.000000
739.865601	0.000000
739.903381	0.000000
739.941101	0.000000
739.978882	189.800000
740.016724	184.700000
740.054443	192.500000
740.092224	183.200000
740.130005	183.200000
740.167725	182.700000
740.205505	183.500000
740.243225	193.000000
740.281006	188.300000
740.318787	179.200000
740.356506	193.000000
740.394287	191.900000
740.432068	182.400000
740.469727	179.700000
740.507507	191.100000
740.545288	185.400000
740.583008	188.300000
740.620789	186.800000
740.658569	178.000000
740.696228	186.600000
740.734009	192.300000
740.771790	175.400000
740.809509	191.600000
740.847229	182.100000
740.884949	183.900000
740.922729	179.700000
740.960449	185.900000
740.998169	181.600000
741.035950	184.400000
741.073669	187.700000
741.111389	187.300000
741.149170	197.400000
741.186890	197.900000
741.224609	192.100000
741.262329	187.800000
741.300110	195.500000
741.337769	181.700000
741.375549	180.400000
741.413208	188.700000
741.450989	181.900000
741.488708	184.000000
741.526367	185.700000
741.564148	190.500000
741.601868	191.100000
741.639526	186.100000
741.677307	188.700000
741.715027	189.800000
741.752686	184.000000
741.790466	193.900000
741.828186	190.000000
741.865845	182.800000
741.903564	179.400000
741.941345	186.700000
741.979004	183.800000
742.016724	191.600000
742.054382	188.100000
742.092102	193.100000
742.129822	180.500000
742.167480	185.000000
742.205200	186.600000
742.242920	188.200000
742.280640	190.300000
742.318359	184.400000
742.356079	183.900000
742.393738	188.600000
742.431396	186.800000
742.469116	190.100000
742.506775	177.000000
742.544495	188.800000
742.582214	190.300000
742.619873	185.400000
742.657593	194.200000
742.695251	191.700000
742.732971	186.800000
742.770630	188.500000
742.808289	186.200000
742.846008	185.200000
742.883728	188.900000
742.921326	186.900000
742.959045	183.900000
742.996765	187.300000
743.034424	186.400000
743.072083	183.700000
743.109802	186.100000
743.147400	180.500000
743.185120	187.300000
743.222839	187.300000
743.260437	192.800000
743.298157	188.900000
743.335754	180.000000
743.373474	185.500000
743.411133	179.800000
743.448792	189.500000
743.486450	185.900000
743.524170	179.900000
743.561768	187.100000
743.599487	193.300000
743.637146	197.100000
743.674744	187.300000
743.712463	185.300000
743.750122	187.600000
743.787720	188.500000
743.825439	184.100000
743.863037	185.300000
743.900696	187.600000
743.938416	211.000000
743.976013	187.200000
744.013672	196.200000
744.051331	192.200000
744.088928	195.100000
744.126587	192.500000
744.164307	187.000000
744.201904	184.200000
744.239563	190.000000
744.277222	189.100000
744.314819	186.200000
744.352478	194.700000
744.390137	188.900000
744.427734	189.000000
744.465393	184.600000
744.502991	182.800000
744.540649	189.600000
744.578308	188.000000
744.615906	181.200000
744.653564	177.700000
744.691223	189.800000
744.728821	179.200000
744.766418	186.500000
744.804077	188.900000
744.841675	184.500000
744.879333	180.700000
744.916992	185.700000
744.954529	184.000000
744.992187	191.900000
745.029785	184.800000
745.067444	183.100000
745.105042	188.200000
745.142639	190.100000
745.180298	196.100000
745.217896	185.300000
745.255493	185.800000
745.293152	191.300000
745.330750	192.000000
745.368347	194.500000
745.405945	191.400000
745.443604	186.300000
745.481140	191.700000
745.518799	186.600000
745.556396	190.600000
745.593994	190.900000
745.631592	186.800000
745.669189	181.600000
745.706787	188.100000
745.744385	184.200000
745.781982	189.100000
745.819580	184.000000
745.857178	185.800000
745.894775	187.000000
745.932373	188.900000
745.969971	189.100000
746.007568	178.500000
746.045166	197.100000
746.082764	191.700000
746.120300	190.200000
746.157898	190.300000
746.195557	188.100000
746.233093	181.400000
746.270691	190.200000
746.308228	188.800000
746.345825	192.300000
746.383423	191.700000
746.420959	183.200000
746.458557	184.300000
746.496155	184.600000
746.533691	187.600000
746.571289	182.300000
746.608887	188.300000
746.646423	187.700000
746.684021	187.800000
746.721619	184.500000
746.759155	188.100000
746.796753	180.600000
746.834351	180.500000
746.871826	183.100000
746.909424	192.600000
746.946960	187.500000
746.984558	185.300000
747.022156	185.400000
747.059631	195.500000
747.097229	188.800000
747.134827	185.300000
747.172363	193.300000
747.209900	190.700000
747.247498	182.300000
747.285034	193.600000
747.322571	195.000000
747.360168	186.200000
747.397644	180.000000
747.435242	190.900000
747.472778	193.400000
747.510315	185.200000
747.547913	185.200000
747.585388	194.300000
747.622925	186.200000
747.660522	179.700000
747.697998	183.800000
747.735596	186.000000
747.773132	183.500000
747.810669	187.000000
747.848206	191.300000
747.885742	183.400000
747.923279	181.400000
747.960815	188.100000
747.998352	187.300000
748.035889	192.200000
748.073425	190.800000
748.110901	184.400000
748.148437	182.000000
748.185974	187.800000
748.223511	197.000000
748.261047	189.700000
748.298584	187.900000
748.336060	187.600000
748.373596	190.400000
748.411133	206.200000
748.448608	183.300000
748.486145	190.700000
748.523682	194.900000
748.561218	194.800000
748.598755	187.800000
748.636292	190.800000
748.673706	184.800000
748.711243	194.000000
748.748718	189.000000
748.786255	188.100000
748.823792	187.800000
748.861267	182.600000
748.898804	188.600000
748.936340	189.700000
748.973816	185.300000
749.011292	193.400000
749.048828	189.500000
749.086304	190.600000
749.123840	199.900000
749.161316	182.900000
749.198792	197.200000
749.236328	193.000000
749.273743	187.100000
749.311279	184.700000
749.348816	191.200000
749.386230	187.100000
749.423767	176.600000
749.461304	189.300000
749.498718	188.000000
749.536255	193.900000
749.573730	200.100000
749.611206	193.300000
749.648682	187.700000
749.686218	186.600000
749.723633	190.900000
749.761169	185.200000
749.798645	183.600000
749.836060	186.200000
749.873596	185.000000
749.911011	186.600000
749.948547	193.900000
749.986023	187.900000
750.023437	186.300000
750.060913	181.000000
750.098450	181.200000
750.135864	186.700000
750.173340	187.600000
750.210815	192.900000
750.248291	182.900000
750.285767	187.100000
750.323242	194.400000
750.360657	189.300000
750.398132	183.200000
750.435608	191.300000
750.473022	184.400000
750.510498	183.500000
750.547974	182.000000
750.585449	185.800000
750.622925	176.200000
750.660339	196.700000
750.697815	187.200000
750.735291	186.000000
750.772644	189.300000
750.810120	189.300000
750.847595	190.700000
750.885010	183.200000
750.922485	196.300000
750.959961	186.100000
750.997375	193.300000
751.034851	191.400000
751.072266	192.400000
751.109680	180.100000
751.147156	192.900000
751.184570	189.800000
751.221985	188.300000
751.259460	179.900000
751.296875	186.500000
751.334290	187.900000
751.371765	190.600000
751.409180	190.600000
751.446594	193.600000
751.484070	190.200000
751.521423	188.800000
751.558899	189.000000
751.596375	195.800000
751.633728	194.900000
751.671204	200.100000
751.708618	184.600000
751.746033	187.400000
751.783447	182.200000
751.820801	184.300000
751.858276	190.200000
751.895691	187.300000
751.933105	186.000000
751.970520	181.300000
752.007935	186.400000
752.045349	191.200000
752.082764	188.800000
752.120178	185.900000
752.157532	183.400000
752.195007	184.000000
752.232422	191.500000
752.269775	192.500000
752.307190	190.000000
752.344543	182.400000
752.382019	185.700000
752.419434	185.500000
752.456787	190.200000
752.494202	192.000000
752.531616	188.500000
752.568970	192.400000
752.606384	189.400000
752.643799	188.800000
752.681152	197.000000
752.718567	191.400000
752.755981	180.500000
752.793335	190.600000
752.830750	179.600000
752.868164	194.000000
752.905518	183.600000
752.942932	192.700000
752.980225	182.800000
753.017639	192.100000
753.055054	186.800000
753.092407	190.200000
753.129822	191.800000
753.167175	196.700000
753.204529	187.100000
753.241943	184.100000
753.279358	180.900000
753.316650	192.700000
753.354065	189.900000
753.391479	193.400000
753.428772	195.900000
753.466187	191.200000
753.503479	181.500000
753.540894	185.300000
753.578308	181.700000
753.615601	182.800000
753.653015	186.500000
753.690369	184.700000
753.727722	183.400000
753.765076	181.400000
753.802490	183.100000
753.839783	178.900000
753.877136	183.700000
753.914551	201.200000
753.951843	183.200000
753.989258	191.500000
754.026611	188.500000
754.063904	190.600000
754.101257	183.500000
754.138611	180.300000
754.175964	187.900000
754.213318	198.700000
754.250610	181.000000
754.288025	185.100000
754.325378	182.300000
754.362671	193.100000
754.400024	187.200000
754.437378	196.300000
754.474670	198.400000
754.512085	184.600000
754.549438	187.700000
754.586731	185.300000
754.624084	186.200000
754.661438	183.000000
754.698730	196.300000
754.736084	185.500000
754.773376	186.300000
754.810730	190.800000
754.848083	185.800000
754.885315	191.100000
754.922668	179.900000
754.960022	181.900000
754.997314	191.100000
755.034668	186.800000
755.072021	187.600000
755.109253	184.500000
755.146606	193.900000
755.183960	185.700000
755.221252	196.000000
755.258545	191.500000
755.295898	193.600000
755.333191	193.800000
755.370544	190.300000
755.407776	187.200000
755.445129	186.600000
755.482422	191.400000
755.519714	183.800000
755.557068	180.800000
755.594360	180.800000
755.631653	191.200000
755.668945	195.900000
755.706299	188.000000
755.743530	199.700000
755.780884	195.200000
755.818176	193.100000
755.855408	191.900000
755.892761	189.600000
755.930054	188.300000
755.967346	189.100000
756.004639	191.500000
756.041870	187.500000
756.079224	193.100000
756.116516	184.400000
756.153748	192.600000
756.191040	196.800000
756.228394	190.700000
756.265625	184.700000
756.302917	188.100000
756.340210	184.100000
756.377441	193.800000
756.414795	195.500000
756.452087	189.100000
756.489319	182.100000
756.526611	192.400000
756.563843	190.300000
756.601135	199.600000
756.638428	197.800000
756.675659	189.200000
756.712952	193.800000
756.750244	191.700000
756.787476	190.100000
756.824768	196.900000
756.862061	188.300000
756.899292	235.700000
756.936584	193.500000
756.973816	200.200000
757.011047	202.700000
757.048340	190.100000
757.085632	189.600000
757.122864	206.500000
757.160156	187.300000
757.197327	192.200000
757.234619	196.100000
757.271912	189.600000
757.309082	195.200000
757.346375	187.800000
757.383667	196.200000
757.420837	192.100000
757.458130	192.600000
757.495422	190.500000
757.532593	193.100000
757.569885	186.100000
757.607117	186.000000
757.644348	194.400000
757.681580	203.500000
757.718811	181.100000
757.756042	191.400000
757.793335	188.300000
757.830505	193.300000
757.867798	189.600000
757.905029	187.100000
757.942200	193.800000
757.979492	188.000000
758.016724	191.700000
758.053894	189.000000
758.091187	208.100000
758.128418	192.300000
758.165588	190.900000
758.202820	203.700000
758.240112	190.900000
758.277283	203.600000
758.314514	195.300000
758.351685	191.200000
758.388916	202.100000
758.426147	199.900000
758.463379	202.300000
758.500610	197.000000
758.537842	194.700000
758.575012	200.400000
758.612244	189.400000
758.649475	206.400000
758.686646	187.700000
758.723877	202.900000
758.761108	203.400000
758.798279	194.900000
758.835510	196.800000
758.872742	203.100000
758.909851	196.800000
758.947083	199.200000
758.984253	197.600000
759.021484	201.300000
759.058716	198.600000
759.095886	201.300000
759.133057	194.400000
759.170288	200.300000
759.207458	192.300000
759.244690	206.900000
759.281860	205.600000
759.319031	197.000000
759.356262	194.300000
759.393433	196.200000
759.430603	195.200000
759.467773	196.000000
759.505005	202.900000
759.542175	204.000000
759.579346	196.700000
759.616516	198.700000
759.653687	200.500000
759.690918	194.300000
759.728027	199.300000
759.765259	201.100000
759.802429	202.000000
759.839539	201.900000
759.876770	204.400000
759.913940	209.100000
759.951111	201.400000
759.988281	201.300000
760.025452	198.100000
760.062561	196.600000
760.099792	209.000000
760.136963	203.300000
760.174072	199.700000
760.211243	194.500000
760.248413	195.800000
760.285583	197.900000
760.322754	212.300000
760.359863	206.700000
760.397034	209.200000
760.434204	200.700000
760.471375	202.700000
760.508545	200.100000
760.545715	201.100000
760.582825	196.900000
760.619995	206.900000
760.657166	196.600000
760.694275	209.700000
760.731445	205.500000
760.768555	205.000000
760.805664	205.600000
760.842834	204.700000
760.879944	206.400000
760.917114	205.800000
760.954285	203.500000
760.991394	197.600000
761.028564	209.700000
761.065674	207.900000
761.102783	199.900000
761.139954	209.200000
761.177124	208.500000
761.214172	210.300000
761.251343	202.700000
761.288452	204.800000
761.325562	208.500000
761.362732	202.700000
761.399841	201.700000
761.436951	205.700000
761.474121	200.600000
761.511169	205.900000
761.548340	210.700000
761.585449	208.100000
761.622559	209.900000
761.659668	207.300000
761.696838	212.000000
761.733887	207.600000
761.771057	205.700000
761.808167	206.900000
761.845276	211.000000
761.882385	219.900000
761.919434	209.700000
761.956604	224.500000
761.993713	204.700000
762.030762	213.900000
762.067871	207.300000
762.105042	207.800000
762.142090	216.200000
762.179199	210.900000
762.216309	213.900000
762.253418	225.900000
762.290527	219.600000
762.327637	216.700000
762.364685	205.500000
762.401794	215.400000
762.438904	214.200000
762.475952	207.800000
762.513062	207.800000
762.550110	208.100000
762.587219	221.400000
762.624329	220.800000
762.661377	215.500000
762.698486	214.200000
762.735596	214.200000
762.772644	207.800000
762.809753	207.400000
762.846863	212.900000
762.883911	217.500000
762.921021	216.900000
762.958069	215.000000
762.995117	221.200000
763.032227	222.600000
763.069336	214.100000
763.106323	210.900000
763.143433	209.200000
763.180481	217.900000
763.217590	216.600000
763.254639	214.600000
763.291687	214.300000
763.328735	224.200000
763.365845	215.800000
763.402893	216.200000
763.439941	216.300000
763.477051	221.500000
763.514038	219.900000
763.551147	216.800000
763.588196	219.500000
763.625244	218.200000
763.662292	225.100000
763.699402	227.700000
763.736389	223.300000
763.773499	231.600000
763.810486	223.700000
763.847534	221.900000
763.884644	224.000000
763.921631	220.000000
763.958679	232.500000
763.995728	222.700000
764.032776	229.300000
764.069824	218.100000
764.106873	227.600000
764.143860	233.600000
764.180969	224.300000
764.218018	231.500000
764.255005	222.900000
764.292053	223.600000
764.329102	234.100000
764.366089	234.200000
764.403137	231.000000
764.440125	225.500000
764.477173	228.100000
764.514221	230.900000
764.551208	228.100000
764.588257	223.200000
764.625305	233.600000
764.662292	238.500000
764.699341	239.700000
764.736389	232.400000
764.773376	247.800000
764.810425	234.900000
764.847473	243.000000
764.884399	236.500000
764.921448	246.200000
764.958435	244.900000
764.995483	235.700000
765.032532	251.900000
765.069458	236.800000
765.106506	236.700000
765.143555	234.300000
765.180481	238.700000
765.217529	249.200000
765.254578	232.600000
765.291504	243.900000
765.328552	239.300000
765.365540	235.600000
765.402527	251.900000
765.439575	241.200000
765.476501	233.800000
765.513550	237.500000
765.550537	243.600000
765.587463	250.100000
765.624512	240.800000
765.661499	232.800000
765.698486	250.200000
765.735474	239.400000
765.772461	243.200000
765.809448	252.800000
765.846436	250.100000
765.883423	253.500000
765.920410	247.300000
765.957397	242.500000
765.994385	249.100000
766.031311	257.700000
766.068359	252.500000
766.105286	251.600000
766.142273	258.000000
766.179260	252.000000
766.216187	246.200000
766.253174	242.500000
766.290161	253.100000
766.327148	255.000000
766.364136	254.200000
766.401123	268.300000
766.438049	247.300000
766.475037	261.700000
766.512024	258.400000
766.548950	270.600000
766.585937	265.100000
766.622864	260.000000
766.659790	261.000000
766.696777	248.700000
766.733704	264.800000
766.770691	254.300000
766.807678	268.600000
766.844604	261.800000
766.881531	261.200000
766.918518	268.600000
766.955444	269.600000
766.992432	263.300000
767.029358	265.300000
767.066284	267.700000
767.103271	266.900000
767.140198	294.900000
767.177124	283.100000
767.214050	271.800000
767.251038	271.300000
767.287964	265.500000
767.324890	265.800000
767.361816	271.400000
767.398743	275.500000
767.435730	267.200000
767.472595	272.300000
767.509583	277.800000
767.546509	265.000000
767.583374	270.400000
767.620361	264.400000
767.657288	269.600000
767.694214	269.800000
767.731140	270.100000
767.768066	270.200000
767.804993	276.500000
767.841919	266.600000
767.878845	275.300000
767.915710	281.900000
767.952698	274.600000
767.989563	276.200000
768.026489	278.900000
