Model Number: SPM-001-M   
Serial Number: 10090201
Firmware Version: 004.17.6
Exposure Time: 500000.000000us
Data Taken on: 03-03-2021 10:23:20.155
Wavelength	Amplitude
733.770752	0.000000
733.808716	0.000000
733.846619	0.000000
733.884583	0.000000
733.922546	0.000000
733.960449	0.000000
733.998413	0.000000
734.036377	0.000000
734.074219	0.000000
734.112183	0.000000
734.150085	0.000000
734.188049	0.000000
734.226013	0.000000
734.263916	0.000000
734.301819	0.000000
734.339783	0.000000
734.377686	0.000000
734.415588	0.000000
734.453552	0.000000
734.491455	0.000000
734.529419	0.000000
734.567322	0.000000
734.605225	0.000000
734.643127	0.000000
734.681091	0.000000
734.718994	0.000000
734.756897	0.000000
734.794800	0.000000
734.832703	0.000000
734.870667	0.000000
734.908508	0.000000
734.946472	0.000000
734.984375	0.000000
735.022278	0.000000
735.060181	0.000000
735.098083	0.000000
735.135986	0.000000
735.173889	0.000000
735.211792	0.000000
735.249695	0.000000
735.287598	0.000000
735.325439	0.000000
735.363403	0.000000
735.401306	0.000000
735.439148	0.000000
735.477051	0.000000
735.515015	0.000000
735.552856	0.000000
735.590759	0.000000
735.628662	0.000000
735.666504	0.000000
735.704407	0.000000
735.742310	0.000000
735.780212	0.000000
735.818115	0.000000
735.856018	0.000000
735.893860	0.000000
735.931763	0.000000
735.969604	0.000000
736.007507	0.000000
736.045410	0.000000
736.083252	0.000000
736.121094	0.000000
736.158997	0.000000
736.196838	0.000000
736.234741	0.000000
736.272644	0.000000
736.310486	0.000000
736.348389	0.000000
736.386230	0.000000
736.424072	0.000000
736.461975	0.000000
736.499878	0.000000
736.537720	0.000000
736.575562	0.000000
736.613403	0.000000
736.651306	0.000000
736.689148	0.000000
736.726990	0.000000
736.764893	0.000000
736.802734	0.000000
736.840576	0.000000
736.878418	0.000000
736.916321	0.000000
736.954102	0.000000
736.992004	0.000000
737.029846	0.000000
737.067688	0.000000
737.105530	0.000000
737.143372	0.000000
737.181213	0.000000
737.219116	0.000000
737.256897	0.000000
737.294739	0.000000
737.332642	0.000000
737.370422	0.000000
737.408325	0.000000
737.446167	0.000000
737.483948	0.000000
737.521790	0.000000
737.559692	0.000000
737.597473	0.000000
737.635315	0.000000
737.673157	0.000000
737.710999	0.000000
737.748840	0.000000
737.786621	0.000000
737.824463	0.000000
737.862305	0.000000
737.900085	0.000000
737.937927	0.000000
737.975769	0.000000
738.013550	0.000000
738.051392	0.000000
738.089233	0.000000
738.127014	0.000000
738.164856	0.000000
738.202698	0.000000
738.240479	0.000000
738.278320	0.000000
738.316162	0.000000
738.353943	0.000000
738.391785	0.000000
738.429565	0.000000
738.467407	0.000000
738.505188	0.000000
738.542969	0.000000
738.580811	0.000000
738.618652	0.000000
738.656372	0.000000
738.694214	0.000000
738.732056	0.000000
738.769836	0.000000
738.807617	0.000000
738.845459	0.000000
738.883240	0.000000
738.921021	0.000000
738.958862	0.000000
738.996582	0.000000
739.034424	0.000000
739.072205	0.000000
739.109985	0.000000
739.147827	0.000000
739.185547	0.000000
739.223389	0.000000
739.261169	0.000000
739.298889	0.000000
739.336731	0.000000
739.374512	0.000000
739.412292	0.000000
739.450073	0.000000
739.487854	0.000000
739.525635	0.000000
739.563416	0.000000
739.601135	0.000000
739.638977	0.000000
739.676758	0.000000
739.714478	0.000000
739.752258	0.000000
739.790100	0.000000
739.827820	0.000000
739.865601	0.000000
739.903381	0.000000
739.941101	0.000000
739.978882	191.100000
740.016724	186.300000
740.054443	192.100000
740.092224	183.300000
740.130005	184.900000
740.167725	184.700000
740.205505	184.800000
740.243225	193.600000
740.281006	189.100000
740.318787	180.400000
740.356506	193.400000
740.394287	192.100000
740.432068	183.900000
740.469727	180.700000
740.507507	192.700000
740.545288	185.700000
740.583008	190.800000
740.620789	189.100000
740.658569	179.100000
740.696228	186.200000
740.734009	193.100000
740.771790	176.400000
740.809509	191.100000
740.847229	183.500000
740.884949	186.400000
740.922729	180.300000
740.960449	185.200000
740.998169	182.300000
741.035950	184.900000
741.073669	189.600000
741.111389	188.500000
741.149170	195.800000
741.186890	197.000000
741.224609	191.300000
741.262329	188.200000
741.300110	197.400000
741.337769	182.400000
741.375549	181.300000
741.413208	189.000000
741.450989	182.800000
741.488708	183.900000
741.526367	185.700000
741.564148	190.800000
741.601868	191.700000
741.639526	185.400000
741.677307	189.500000
741.715027	189.300000
741.752686	184.600000
741.790466	193.900000
741.828186	191.600000
741.865845	183.200000
741.903564	179.700000
741.941345	186.300000
741.979004	182.900000
742.016724	189.100000
742.054382	187.600000
742.092102	191.000000
742.129822	180.300000
742.167480	184.900000
742.205200	186.000000
742.242920	189.200000
742.280640	192.200000
742.318359	183.800000
742.356079	185.300000
742.393738	190.400000
742.431396	187.100000
742.469116	190.000000
742.506775	179.300000
742.544495	191.700000
742.582214	192.000000
742.619873	185.200000
742.657593	194.000000
742.695251	191.300000
742.732971	186.900000
742.770630	189.700000
742.808289	187.100000
742.846008	187.000000
742.883728	189.000000
742.921326	187.200000
742.959045	185.600000
742.996765	186.900000
743.034424	186.500000
743.072083	183.300000
743.109802	187.500000
743.147400	180.700000
743.185120	188.300000
743.222839	186.900000
743.260437	193.000000
743.298157	190.100000
743.335754	179.400000
743.373474	186.400000
743.411133	179.100000
743.448792	188.500000
743.486450	186.100000
743.524170	180.800000
743.561768	187.800000
743.599487	195.000000
743.637146	197.400000
743.674744	186.500000
743.712463	186.300000
743.750122	189.200000
743.787720	187.800000
743.825439	183.700000
743.863037	185.100000
743.900696	188.100000
743.938416	211.300000
743.976013	186.500000
744.013672	194.800000
744.051331	192.800000
744.088928	195.900000
744.126587	193.200000
744.164307	187.700000
744.201904	184.600000
744.239563	190.900000
744.277222	189.900000
744.314819	186.500000
744.352478	194.900000
744.390137	188.100000
744.427734	189.700000
744.465393	185.100000
744.502991	184.600000
744.540649	190.800000
744.578308	188.400000
744.615906	182.200000
744.653564	179.400000
744.691223	190.800000
744.728821	181.400000
744.766418	184.700000
744.804077	190.500000
744.841675	184.500000
744.879333	180.400000
744.916992	187.500000
744.954529	184.600000
744.992187	192.000000
745.029785	186.000000
745.067444	184.800000
745.105042	188.400000
745.142639	190.700000
745.180298	197.800000
745.217896	186.300000
745.255493	186.300000
745.293152	192.800000
745.330750	191.800000
745.368347	196.400000
745.405945	189.800000
745.443604	189.100000
745.481140	191.300000
745.518799	187.100000
745.556396	190.100000
745.593994	192.100000
745.631592	187.000000
745.669189	183.000000
745.706787	189.200000
745.744385	183.700000
745.781982	189.300000
745.819580	186.200000
745.857178	186.200000
745.894775	187.700000
745.932373	187.500000
745.969971	189.900000
746.007568	178.400000
746.045166	196.700000
746.082764	190.900000
746.120300	190.900000
746.157898	191.100000
746.195557	187.300000
746.233093	181.800000
746.270691	192.200000
746.308228	189.800000
746.345825	193.500000
746.383423	191.400000
746.420959	185.100000
746.458557	183.700000
746.496155	186.100000
746.533691	187.700000
746.571289	182.600000
746.608887	189.500000
746.646423	188.800000
746.684021	187.900000
746.721619	184.400000
746.759155	188.500000
746.796753	181.500000
746.834351	181.600000
746.871826	184.500000
746.909424	193.800000
746.946960	189.400000
746.984558	187.600000
747.022156	185.600000
747.059631	195.600000
747.097229	190.500000
747.134827	186.300000
747.172363	194.700000
747.209900	191.900000
747.247498	182.100000
747.285034	196.200000
747.322571	194.300000
747.360168	187.900000
747.397644	180.000000
747.435242	192.300000
747.472778	192.900000
747.510315	186.300000
747.547913	186.800000
747.585388	195.800000
747.622925	186.300000
747.660522	181.000000
747.697998	182.900000
747.735596	186.400000
747.773132	184.700000
747.810669	187.000000
747.848206	190.200000
747.885742	183.100000
747.923279	181.200000
747.960815	190.600000
747.998352	186.700000
748.035889	193.000000
748.073425	192.200000
748.110901	186.000000
748.148437	181.300000
748.185974	187.900000
748.223511	196.600000
748.261047	189.900000
748.298584	188.400000
748.336060	186.600000
748.373596	188.900000
748.411133	208.400000
748.448608	182.800000
748.486145	191.700000
748.523682	196.500000
748.561218	194.700000
748.598755	188.500000
748.636292	191.300000
748.673706	186.100000
748.711243	195.000000
748.748718	188.500000
748.786255	187.500000
748.823792	189.200000
748.861267	183.600000
748.898804	190.000000
748.936340	190.900000
748.973816	187.500000
749.011292	194.400000
749.048828	188.500000
749.086304	190.000000
749.123840	200.800000
749.161316	182.900000
749.198792	196.800000
749.236328	193.200000
749.273743	188.400000
749.311279	184.800000
749.348816	190.700000
749.386230	187.300000
749.423767	178.800000
749.461304	189.300000
749.498718	188.900000
749.536255	193.500000
749.573730	200.100000
749.611206	192.700000
749.648682	188.100000
749.686218	187.000000
749.723633	192.500000
749.761169	184.800000
749.798645	184.800000
749.836060	187.500000
749.873596	185.000000
749.911011	187.700000
749.948547	193.700000
749.986023	188.400000
750.023437	187.700000
750.060913	182.300000
750.098450	182.800000
750.135864	187.400000
750.173340	188.400000
750.210815	192.300000
750.248291	184.700000
750.285767	188.100000
750.323242	194.600000
750.360657	190.100000
750.398132	184.200000
750.435608	191.900000
750.473022	184.800000
750.510498	183.500000
750.547974	184.700000
750.585449	186.800000
750.622925	177.400000
750.660339	197.900000
750.697815	188.900000
750.735291	186.700000
750.772644	188.200000
750.810120	190.900000
750.847595	189.900000
750.885010	184.200000
750.922485	196.500000
750.959961	186.500000
750.997375	194.300000
751.034851	192.700000
751.072266	192.100000
751.109680	181.300000
751.147156	192.900000
751.184570	190.800000
751.221985	187.900000
751.259460	180.800000
751.296875	187.400000
751.334290	189.000000
751.371765	191.900000
751.409180	192.600000
751.446594	192.900000
751.484070	191.000000
751.521423	189.300000
751.558899	190.100000
751.596375	194.700000
751.633728	195.300000
751.671204	199.700000
751.708618	184.900000
751.746033	188.500000
751.783447	183.900000
751.820801	183.600000
751.858276	191.600000
751.895691	187.600000
751.933105	187.300000
751.970520	181.800000
752.007935	186.200000
752.045349	192.300000
752.082764	190.100000
752.120178	186.900000
752.157532	184.200000
752.195007	185.000000
752.232422	191.000000
752.269775	192.200000
752.307190	191.700000
752.344543	184.500000
752.382019	187.600000
752.419434	186.700000
752.456787	190.700000
752.494202	192.300000
752.531616	188.700000
752.568970	192.000000
752.606384	189.300000
752.643799	190.100000
752.681152	195.400000
752.718567	191.400000
752.755981	179.400000
752.793335	191.300000
752.830750	180.900000
752.868164	193.100000
752.905518	182.800000
752.942932	192.400000
752.980225	182.500000
753.017639	193.800000
753.055054	187.100000
753.092407	192.200000
753.129822	193.000000
753.167175	197.200000
753.204529	186.700000
753.241943	186.200000
753.279358	180.300000
753.316650	192.500000
753.354065	190.200000
753.391479	192.900000
753.428772	196.600000
753.466187	192.400000
753.503479	182.000000
753.540894	188.400000
753.578308	182.200000
753.615601	183.100000
753.653015	186.900000
753.690369	187.400000
753.727722	184.000000
753.765076	181.100000
753.802490	182.200000
753.839783	179.400000
753.877136	184.400000
753.914551	202.400000
753.951843	183.300000
753.989258	193.300000
754.026611	188.400000
754.063904	191.200000
754.101257	182.700000
754.138611	180.800000
754.175964	188.400000
754.213318	200.000000
754.250610	181.500000
754.288025	186.200000
754.325378	182.200000
754.362671	193.300000
754.400024	186.400000
754.437378	196.600000
754.474670	197.300000
754.512085	185.200000
754.549438	188.700000
754.586731	183.200000
754.624084	185.700000
754.661438	182.800000
754.698730	197.500000
754.736084	187.200000
754.773376	186.700000
754.810730	189.500000
754.848083	187.900000
754.885315	191.200000
754.922668	180.900000
754.960022	181.500000
754.997314	190.800000
755.034668	187.900000
755.072021	187.400000
755.109253	184.100000
755.146606	193.300000
755.183960	183.800000
755.221252	194.900000
755.258545	189.200000
755.295898	193.900000
755.333191	193.400000
755.370544	188.900000
755.407776	186.600000
755.445129	188.500000
755.482422	191.200000
755.519714	184.400000
755.557068	178.900000
755.594360	178.100000
755.631653	189.300000
755.668945	195.300000
755.706299	187.000000
755.743530	198.800000
755.780884	192.300000
755.818176	193.500000
755.855408	190.900000
755.892761	188.200000
755.930054	187.300000
755.967346	189.500000
756.004639	190.300000
756.041870	186.800000
756.079224	191.100000
756.116516	182.800000
756.153748	191.800000
756.191040	195.500000
756.228394	190.000000
756.265625	183.900000
756.302917	187.900000
756.340210	184.800000
756.377441	193.400000
756.414795	194.200000
756.452087	187.500000
756.489319	182.300000
756.526611	191.600000
756.563843	188.900000
756.601135	197.100000
756.638428	196.800000
756.675659	186.800000
756.712952	191.300000
756.750244	191.200000
756.787476	189.300000
756.824768	194.100000
756.862061	185.000000
756.899292	235.700000
756.936584	193.200000
756.973816	199.300000
757.011047	199.100000
757.048340	189.700000
757.085632	188.100000
757.122864	205.300000
757.160156	185.200000
757.197327	192.600000
757.234619	193.100000
757.271912	188.700000
757.309082	193.000000
757.346375	186.100000
757.383667	195.400000
757.420837	190.600000
757.458130	190.400000
757.495422	188.800000
757.532593	190.500000
757.569885	184.800000
757.607117	185.800000
757.644348	190.800000
757.681580	203.300000
757.718811	177.500000
757.756042	188.000000
757.793335	187.700000
757.830505	193.700000
757.867798	187.400000
757.905029	184.900000
757.942200	191.500000
757.979492	185.800000
758.016724	189.900000
758.053894	187.000000
758.091187	207.600000
758.128418	189.600000
758.165588	190.100000
758.202820	201.700000
758.240112	188.800000
758.277283	200.600000
758.314514	191.600000
758.351685	189.400000
758.388916	199.700000
758.426147	197.400000
758.463379	198.500000
758.500610	193.000000
758.537842	191.000000
758.575012	197.400000
758.612244	185.900000
758.649475	203.300000
758.686646	184.600000
758.723877	198.800000
758.761108	200.200000
758.798279	191.300000
758.835510	193.500000
758.872742	200.600000
758.909851	193.300000
758.947083	196.400000
758.984253	192.800000
759.021484	197.600000
759.058716	195.800000
759.095886	197.900000
759.133057	191.300000
759.170288	197.800000
759.207458	188.500000
759.244690	204.600000
759.281860	201.100000
759.319031	194.600000
759.356262	190.500000
759.393433	192.600000
759.430603	191.000000
759.467773	192.600000
759.505005	199.000000
759.542175	199.800000
759.579346	193.100000
759.616516	195.500000
759.653687	196.100000
759.690918	192.300000
759.728027	195.800000
759.765259	196.200000
759.802429	198.300000
759.839539	197.400000
759.876770	200.900000
759.913940	206.300000
759.951111	199.000000
759.988281	197.400000
760.025452	195.000000
760.062561	192.100000
760.099792	205.800000
760.136963	200.200000
760.174072	196.500000
760.211243	191.500000
760.248413	192.600000
760.285583	192.800000
760.322754	206.300000
760.359863	202.500000
760.397034	203.900000
760.434204	195.700000
760.471375	198.000000
760.508545	195.400000
760.545715	197.400000
760.582825	192.200000
760.619995	203.300000
760.657166	191.300000
760.694275	203.900000
760.731445	199.600000
760.768555	199.400000
760.805664	201.900000
760.842834	200.500000
760.879944	201.700000
760.917114	201.900000
760.954285	198.100000
760.991394	193.000000
761.028564	204.900000
761.065674	202.600000
761.102783	193.800000
761.139954	202.400000
761.177124	202.400000
761.214172	206.400000
761.251343	198.000000
761.288452	200.300000
761.325562	202.300000
761.362732	196.800000
761.399841	197.700000
761.436951	201.200000
761.474121	194.000000
761.511169	200.200000
761.548340	202.100000
761.585449	204.000000
761.622559	203.500000
761.659668	200.800000
761.696838	205.000000
761.733887	203.400000
761.771057	197.200000
761.808167	197.800000
761.845276	203.600000
761.882385	212.600000
761.919434	200.200000
761.956604	218.600000
761.993713	197.300000
762.030762	208.200000
762.067871	201.100000
762.105042	200.100000
762.142090	208.700000
762.179199	203.200000
762.216309	207.700000
762.253418	217.400000
762.290527	212.200000
762.327637	207.900000
762.364685	198.900000
762.401794	208.300000
762.438904	206.600000
762.475952	202.000000
762.513062	200.200000
762.550110	201.200000
762.587219	215.700000
762.624329	212.300000
762.661377	208.300000
762.698486	206.900000
762.735596	207.900000
762.772644	199.700000
762.809753	199.300000
762.846863	205.500000
762.883911	210.800000
762.921021	209.300000
762.958069	206.300000
762.995117	213.500000
763.032227	213.100000
763.069336	204.000000
763.106323	202.500000
763.143433	200.500000
763.180481	210.800000
763.217590	208.600000
763.254639	207.400000
763.291687	206.300000
763.328735	214.300000
763.365845	205.700000
763.402893	207.300000
763.439941	209.100000
763.477051	212.700000
763.514038	213.400000
763.551147	207.600000
763.588196	210.500000
763.625244	209.200000
763.662292	215.200000
763.699402	219.200000
763.736389	212.700000
763.773499	222.100000
763.810486	212.900000
763.847534	210.900000
763.884644	212.000000
763.921631	208.400000
763.958679	221.000000
763.995728	211.900000
764.032776	220.700000
764.069824	207.200000
764.106873	216.900000
764.143860	220.700000
764.180969	211.600000
764.218018	220.000000
764.255005	208.900000
764.292053	211.500000
764.329102	221.800000
764.366089	220.700000
764.403137	220.200000
764.440125	212.500000
764.477173	214.100000
764.514221	218.600000
764.551208	218.600000
764.588257	210.600000
764.625305	221.300000
764.662292	223.600000
764.699341	228.400000
764.736389	216.800000
764.773376	234.300000
764.810425	220.300000
764.847473	228.500000
764.884399	221.800000
764.921448	234.100000
764.958435	229.500000
764.995483	220.800000
765.032532	238.200000
765.069458	223.100000
765.106506	221.900000
765.143555	221.000000
765.180481	224.400000
765.217529	234.000000
765.254578	217.200000
765.291504	229.200000
765.328552	223.600000
765.365540	222.700000
765.402527	236.600000
765.439575	225.100000
765.476501	218.900000
765.513550	219.900000
765.550537	225.600000
765.587463	232.700000
765.624512	223.800000
765.661499	215.600000
765.698486	233.000000
765.735474	221.500000
765.772461	225.500000
765.809448	233.400000
765.846436	231.700000
765.883423	235.700000
765.920410	229.500000
765.957397	224.700000
765.994385	231.100000
766.031311	238.400000
766.068359	232.900000
766.105286	233.000000
766.142273	239.000000
766.179260	233.200000
766.216187	227.500000
766.253174	224.300000
766.290161	234.900000
766.327148	233.900000
766.364136	235.800000
766.401123	250.700000
766.438049	229.800000
766.475037	241.800000
766.512024	237.500000
766.548950	249.700000
766.585937	246.300000
766.622864	239.700000
766.659790	239.700000
766.696777	229.300000
766.733704	244.000000
766.770691	230.200000
766.807678	247.200000
766.844604	240.500000
766.881531	241.100000
766.918518	245.900000
766.955444	248.500000
766.992432	238.500000
767.029358	241.900000
767.066284	244.700000
767.103271	242.300000
767.140198	269.900000
767.177124	259.100000
767.214050	247.200000
767.251038	248.800000
767.287964	242.500000
767.324890	240.800000
767.361816	243.700000
767.398743	250.800000
767.435730	243.800000
767.472595	248.800000
767.509583	251.700000
767.546509	239.100000
767.583374	245.500000
767.620361	237.100000
767.657288	244.600000
767.694214	246.400000
767.731140	246.000000
767.768066	247.100000
767.804993	250.600000
767.841919	240.200000
767.878845	248.700000
767.915710	255.200000
767.952698	249.500000
767.989563	250.900000
768.026489	253.300000
