Model Number: SPM-001-M   
Serial Number: 10090201
Firmware Version: 004.17.6
Exposure Time: 500000.000000us
Data Taken on: 03-03-2021 10:26:22.656
Wavelength	Amplitude
733.770752	0.000000
733.808716	0.000000
733.846619	0.000000
733.884583	0.000000
733.922546	0.000000
733.960449	0.000000
733.998413	0.000000
734.036377	0.000000
734.074219	0.000000
734.112183	0.000000
734.150085	0.000000
734.188049	0.000000
734.226013	0.000000
734.263916	0.000000
734.301819	0.000000
734.339783	0.000000
734.377686	0.000000
734.415588	0.000000
734.453552	0.000000
734.491455	0.000000
734.529419	0.000000
734.567322	0.000000
734.605225	0.000000
734.643127	0.000000
734.681091	0.000000
734.718994	0.000000
734.756897	0.000000
734.794800	0.000000
734.832703	0.000000
734.870667	0.000000
734.908508	0.000000
734.946472	0.000000
734.984375	0.000000
735.022278	0.000000
735.060181	0.000000
735.098083	0.000000
735.135986	0.000000
735.173889	0.000000
735.211792	0.000000
735.249695	0.000000
735.287598	0.000000
735.325439	0.000000
735.363403	0.000000
735.401306	0.000000
735.439148	0.000000
735.477051	0.000000
735.515015	0.000000
735.552856	0.000000
735.590759	0.000000
735.628662	0.000000
735.666504	0.000000
735.704407	0.000000
735.742310	0.000000
735.780212	0.000000
735.818115	0.000000
735.856018	0.000000
735.893860	0.000000
735.931763	0.000000
735.969604	0.000000
736.007507	0.000000
736.045410	0.000000
736.083252	0.000000
736.121094	0.000000
736.158997	0.000000
736.196838	0.000000
736.234741	0.000000
736.272644	0.000000
736.310486	0.000000
736.348389	0.000000
736.386230	0.000000
736.424072	0.000000
736.461975	0.000000
736.499878	0.000000
736.537720	0.000000
736.575562	0.000000
736.613403	0.000000
736.651306	0.000000
736.689148	0.000000
736.726990	0.000000
736.764893	0.000000
736.802734	0.000000
736.840576	0.000000
736.878418	0.000000
736.916321	0.000000
736.954102	0.000000
736.992004	0.000000
737.029846	0.000000
737.067688	0.000000
737.105530	0.000000
737.143372	0.000000
737.181213	0.000000
737.219116	0.000000
737.256897	0.000000
737.294739	0.000000
737.332642	0.000000
737.370422	0.000000
737.408325	0.000000
737.446167	0.000000
737.483948	0.000000
737.521790	0.000000
737.559692	0.000000
737.597473	0.000000
737.635315	0.000000
737.673157	0.000000
737.710999	0.000000
737.748840	0.000000
737.786621	0.000000
737.824463	0.000000
737.862305	0.000000
737.900085	0.000000
737.937927	0.000000
737.975769	0.000000
738.013550	0.000000
738.051392	0.000000
738.089233	0.000000
738.127014	0.000000
738.164856	0.000000
738.202698	0.000000
738.240479	0.000000
738.278320	0.000000
738.316162	0.000000
738.353943	0.000000
738.391785	0.000000
738.429565	0.000000
738.467407	0.000000
738.505188	0.000000
738.542969	0.000000
738.580811	0.000000
738.618652	0.000000
738.656372	0.000000
738.694214	0.000000
738.732056	0.000000
738.769836	0.000000
738.807617	0.000000
738.845459	0.000000
738.883240	0.000000
738.921021	0.000000
738.958862	0.000000
738.996582	0.000000
739.034424	0.000000
739.072205	0.000000
739.109985	0.000000
739.147827	0.000000
739.185547	0.000000
739.223389	0.000000
739.261169	0.000000
739.298889	0.000000
739.336731	0.000000
739.374512	0.000000
739.412292	0.000000
739.450073	0.000000
739.487854	0.000000
739.525635	0.000000
739.563416	0.000000
739.601135	0.000000
739.638977	0.000000
739.676758	0.000000
739.714478	0.000000
739.752258	0.000000
739.790100	0.000000
739.827820	0.000000
739.865601	0.000000
739.903381	0.000000
739.941101	0.000000
739.978882	191.100000
740.016724	185.500000
740.054443	191.900000
740.092224	184.600000
740.130005	182.100000
740.167725	184.000000
740.205505	184.800000
740.243225	193.000000
740.281006	189.400000
740.318787	180.600000
740.356506	194.300000
740.394287	191.000000
740.432068	184.200000
740.469727	180.700000
740.507507	191.200000
740.545288	186.400000
740.583008	189.800000
740.620789	188.200000
740.658569	180.200000
740.696228	185.600000
740.734009	193.200000
740.771790	175.600000
740.809509	191.400000
740.847229	182.500000
740.884949	185.300000
740.922729	180.000000
740.960449	185.800000
740.998169	181.900000
741.035950	183.500000
741.073669	188.600000
741.111389	187.300000
741.149170	197.500000
741.186890	197.100000
741.224609	190.700000
741.262329	187.700000
741.300110	195.900000
741.337769	182.500000
741.375549	180.800000
741.413208	188.400000
741.450989	183.700000
741.488708	184.500000
741.526367	185.500000
741.564148	190.900000
741.601868	191.600000
741.639526	186.400000
741.677307	189.900000
741.715027	188.500000
741.752686	184.000000
741.790466	193.300000
741.828186	189.900000
741.865845	183.600000
741.903564	179.100000
741.941345	187.100000
741.979004	183.000000
742.016724	190.900000
742.054382	187.200000
742.092102	191.600000
742.129822	180.700000
742.167480	184.200000
742.205200	185.200000
742.242920	189.500000
742.280640	191.200000
742.318359	181.600000
742.356079	184.500000
742.393738	189.700000
742.431396	186.300000
742.469116	191.300000
742.506775	178.400000
742.544495	189.900000
742.582214	190.500000
742.619873	186.000000
742.657593	194.100000
742.695251	192.100000
742.732971	186.400000
742.770630	189.400000
742.808289	187.700000
742.846008	186.600000
742.883728	189.100000
742.921326	187.500000
742.959045	184.300000
742.996765	187.200000
743.034424	185.800000
743.072083	185.200000
743.109802	186.200000
743.147400	181.800000
743.185120	189.200000
743.222839	187.300000
743.260437	193.300000
743.298157	189.200000
743.335754	179.600000
743.373474	185.900000
743.411133	180.000000
743.448792	187.300000
743.486450	188.000000
743.524170	179.200000
743.561768	186.400000
743.599487	194.700000
743.637146	196.800000
743.674744	187.100000
743.712463	185.300000
743.750122	188.100000
743.787720	190.200000
743.825439	183.100000
743.863037	184.500000
743.900696	186.800000
743.938416	212.200000
743.976013	185.800000
744.013672	194.500000
744.051331	192.000000
744.088928	196.100000
744.126587	192.700000
744.164307	188.300000
744.201904	184.300000
744.239563	190.000000
744.277222	189.700000
744.314819	185.300000
744.352478	194.300000
744.390137	188.500000
744.427734	191.500000
744.465393	184.400000
744.502991	184.000000
744.540649	189.700000
744.578308	187.300000
744.615906	181.100000
744.653564	178.400000
744.691223	190.100000
744.728821	179.700000
744.766418	186.900000
744.804077	189.300000
744.841675	184.400000
744.879333	181.400000
744.916992	186.100000
744.954529	184.400000
744.992187	192.200000
745.029785	183.600000
745.067444	183.200000
745.105042	189.300000
745.142639	189.400000
745.180298	197.200000
745.217896	184.600000
745.255493	186.200000
745.293152	192.100000
745.330750	191.800000
745.368347	195.200000
745.405945	189.800000
745.443604	187.700000
745.481140	191.500000
745.518799	186.400000
745.556396	190.400000
745.593994	192.200000
745.631592	187.300000
745.669189	181.400000
745.706787	188.000000
745.744385	183.800000
745.781982	188.700000
745.819580	184.200000
745.857178	186.400000
745.894775	188.400000
745.932373	188.100000
745.969971	187.900000
746.007568	178.900000
746.045166	196.700000
746.082764	192.900000
746.120300	190.700000
746.157898	190.600000
746.195557	187.700000
746.233093	180.900000
746.270691	191.400000
746.308228	187.900000
746.345825	191.200000
746.383423	190.800000
746.420959	183.500000
746.458557	185.000000
746.496155	186.700000
746.533691	187.000000
746.571289	182.800000
746.608887	188.100000
746.646423	188.600000
746.684021	187.200000
746.721619	185.500000
746.759155	189.400000
746.796753	181.000000
746.834351	181.100000
746.871826	184.100000
746.909424	194.800000
746.946960	188.200000
746.984558	186.800000
747.022156	185.400000
747.059631	195.400000
747.097229	189.000000
747.134827	185.500000
747.172363	194.300000
747.209900	190.100000
747.247498	182.900000
747.285034	195.100000
747.322571	194.600000
747.360168	185.600000
747.397644	179.200000
747.435242	191.800000
747.472778	193.900000
747.510315	185.100000
747.547913	184.900000
747.585388	195.200000
747.622925	185.500000
747.660522	178.700000
747.697998	183.900000
747.735596	187.400000
747.773132	183.300000
747.810669	186.400000
747.848206	190.500000
747.885742	182.900000
747.923279	182.000000
747.960815	188.800000
747.998352	187.000000
748.035889	191.600000
748.073425	191.000000
748.110901	184.700000
748.148437	183.100000
748.185974	187.900000
748.223511	196.900000
748.261047	188.800000
748.298584	189.000000
748.336060	187.700000
748.373596	190.500000
748.411133	207.000000
748.448608	183.600000
748.486145	192.100000
748.523682	194.600000
748.561218	194.500000
748.598755	188.700000
748.636292	190.500000
748.673706	185.300000
748.711243	194.600000
748.748718	190.900000
748.786255	187.400000
748.823792	187.800000
748.861267	183.100000
748.898804	189.700000
748.936340	190.600000
748.973816	186.600000
749.011292	194.800000
749.048828	188.300000
749.086304	190.600000
749.123840	200.000000
749.161316	184.500000
749.198792	198.300000
749.236328	193.700000
749.273743	187.700000
749.311279	184.900000
749.348816	190.900000
749.386230	187.700000
749.423767	177.000000
749.461304	190.400000
749.498718	188.800000
749.536255	193.200000
749.573730	200.000000
749.611206	193.200000
749.648682	187.800000
749.686218	187.000000
749.723633	192.700000
749.761169	185.000000
749.798645	183.700000
749.836060	185.800000
749.873596	183.900000
749.911011	186.500000
749.948547	194.000000
749.986023	186.400000
750.023437	186.900000
750.060913	181.000000
750.098450	182.000000
750.135864	187.100000
750.173340	187.700000
750.210815	191.600000
750.248291	182.500000
750.285767	186.000000
750.323242	194.200000
750.360657	190.600000
750.398132	182.900000
750.435608	191.500000
750.473022	184.500000
750.510498	183.300000
750.547974	182.700000
750.585449	185.900000
750.622925	177.200000
750.660339	196.700000
750.697815	187.900000
750.735291	186.600000
750.772644	187.800000
750.810120	189.600000
750.847595	190.800000
750.885010	183.200000
750.922485	196.300000
750.959961	185.800000
750.997375	194.500000
751.034851	191.100000
751.072266	192.800000
751.109680	180.200000
751.147156	193.400000
751.184570	189.000000
751.221985	189.400000
751.259460	179.200000
751.296875	187.700000
751.334290	187.100000
751.371765	192.000000
751.409180	190.800000
751.446594	193.200000
751.484070	190.700000
751.521423	189.400000
751.558899	189.900000
751.596375	195.000000
751.633728	193.500000
751.671204	199.900000
751.708618	183.800000
751.746033	188.700000
751.783447	181.900000
751.820801	183.900000
751.858276	190.200000
751.895691	186.500000
751.933105	186.800000
751.970520	182.700000
752.007935	186.900000
752.045349	192.800000
752.082764	187.700000
752.120178	185.600000
752.157532	184.500000
752.195007	185.400000
752.232422	190.100000
752.269775	192.600000
752.307190	191.200000
752.344543	185.300000
752.382019	186.600000
752.419434	185.000000
752.456787	190.300000
752.494202	192.400000
752.531616	189.000000
752.568970	193.100000
752.606384	189.100000
752.643799	190.100000
752.681152	196.400000
752.718567	191.000000
752.755981	180.500000
752.793335	191.300000
752.830750	179.800000
752.868164	193.500000
752.905518	182.800000
752.942932	192.500000
752.980225	182.100000
753.017639	192.200000
753.055054	187.000000
753.092407	190.500000
753.129822	194.300000
753.167175	199.700000
753.204529	186.700000
753.241943	185.100000
753.279358	182.400000
753.316650	191.000000
753.354065	191.500000
753.391479	191.100000
753.428772	196.100000
753.466187	191.100000
753.503479	181.000000
753.540894	186.500000
753.578308	181.200000
753.615601	182.600000
753.653015	186.800000
753.690369	185.900000
753.727722	183.600000
753.765076	182.100000
753.802490	182.300000
753.839783	180.200000
753.877136	185.200000
753.914551	201.400000
753.951843	183.700000
753.989258	191.600000
754.026611	190.500000
754.063904	189.500000
754.101257	182.900000
754.138611	180.500000
754.175964	187.700000
754.213318	198.400000
754.250610	181.000000
754.288025	184.900000
754.325378	182.500000
754.362671	192.600000
754.400024	185.800000
754.437378	196.200000
754.474670	197.900000
754.512085	184.500000
754.549438	187.900000
754.586731	185.400000
754.624084	187.300000
754.661438	182.400000
754.698730	195.100000
754.736084	185.900000
754.773376	185.900000
754.810730	190.200000
754.848083	186.700000
754.885315	192.700000
754.922668	180.800000
754.960022	181.800000
754.997314	192.600000
755.034668	189.000000
755.072021	187.200000
755.109253	183.900000
755.146606	196.100000
755.183960	184.800000
755.221252	195.300000
755.258545	191.700000
755.295898	192.600000
755.333191	193.200000
755.370544	190.900000
755.407776	187.700000
755.445129	188.200000
755.482422	191.500000
755.519714	186.200000
755.557068	180.200000
755.594360	179.400000
755.631653	189.800000
755.668945	195.900000
755.706299	188.500000
755.743530	199.600000
755.780884	194.500000
755.818176	193.400000
755.855408	192.600000
755.892761	188.900000
755.930054	189.200000
755.967346	190.000000
756.004639	191.000000
756.041870	188.300000
756.079224	192.700000
756.116516	184.300000
756.153748	192.700000
756.191040	198.000000
756.228394	191.700000
756.265625	183.300000
756.302917	188.300000
756.340210	186.400000
756.377441	193.600000
756.414795	195.700000
756.452087	188.400000
756.489319	181.800000
756.526611	192.000000
756.563843	189.300000
756.601135	199.500000
756.638428	197.900000
756.675659	189.200000
756.712952	193.100000
756.750244	192.300000
756.787476	189.000000
756.824768	196.600000
756.862061	187.900000
756.899292	237.900000
756.936584	193.300000
756.973816	201.400000
757.011047	203.700000
757.048340	190.600000
757.085632	190.500000
757.122864	206.000000
757.160156	188.000000
757.197327	193.500000
757.234619	194.500000
757.271912	190.200000
757.309082	194.400000
757.346375	187.500000
757.383667	196.800000
757.420837	192.100000
757.458130	192.100000
757.495422	190.000000
757.532593	191.800000
757.569885	184.600000
757.607117	186.600000
757.644348	192.800000
757.681580	203.800000
757.718811	180.200000
757.756042	190.900000
757.793335	189.000000
757.830505	194.100000
757.867798	190.000000
757.905029	188.100000
757.942200	194.900000
757.979492	188.500000
758.016724	190.500000
758.053894	189.000000
758.091187	209.300000
758.128418	192.800000
758.165588	193.600000
758.202820	204.200000
758.240112	191.500000
758.277283	203.600000
758.314514	194.600000
758.351685	190.300000
758.388916	201.800000
758.426147	200.500000
758.463379	203.100000
758.500610	197.200000
758.537842	194.200000
758.575012	201.400000
758.612244	189.500000
758.649475	206.800000
758.686646	187.600000
758.723877	201.600000
758.761108	202.900000
758.798279	194.100000
758.835510	197.100000
758.872742	202.300000
758.909851	197.500000
758.947083	199.700000
758.984253	196.400000
759.021484	202.000000
759.058716	197.900000
759.095886	200.000000
759.133057	194.900000
759.170288	200.400000
759.207458	193.700000
759.244690	207.500000
759.281860	204.700000
759.319031	197.600000
759.356262	195.300000
759.393433	195.600000
759.430603	195.900000
759.467773	195.600000
759.505005	203.300000
759.542175	203.300000
759.579346	196.600000
759.616516	200.100000
759.653687	201.600000
759.690918	196.400000
759.728027	198.900000
759.765259	201.800000
759.802429	202.100000
759.839539	202.400000
759.876770	204.800000
759.913940	211.100000
759.951111	201.900000
759.988281	201.800000
760.025452	198.400000
760.062561	197.000000
760.099792	210.500000
760.136963	204.700000
760.174072	200.000000
760.211243	196.600000
760.248413	197.600000
760.285583	197.900000
760.322754	212.000000
760.359863	207.700000
760.397034	209.100000
760.434204	201.200000
760.471375	200.600000
760.508545	200.300000
760.545715	200.900000
760.582825	197.400000
760.619995	209.600000
760.657166	195.300000
760.694275	208.900000
760.731445	204.700000
760.768555	206.900000
760.805664	206.700000
760.842834	205.000000
760.879944	207.000000
760.917114	204.900000
760.954285	201.500000
760.991394	197.800000
761.028564	209.000000
761.065674	207.700000
761.102783	199.800000
761.139954	209.200000
761.177124	207.100000
761.214172	210.600000
761.251343	203.000000
761.288452	205.000000
761.325562	208.900000
761.362732	202.000000
761.399841	205.100000
761.436951	206.800000
761.474121	202.000000
761.511169	208.000000
761.548340	209.300000
761.585449	209.900000
761.622559	210.000000
761.659668	208.100000
761.696838	214.000000
761.733887	209.700000
761.771057	204.700000
761.808167	205.800000
761.845276	211.500000
761.882385	218.900000
761.919434	210.100000
761.956604	227.200000
761.993713	205.100000
762.030762	216.300000
762.067871	207.400000
762.105042	209.900000
762.142090	217.400000
762.179199	210.200000
762.216309	215.000000
762.253418	225.200000
762.290527	220.000000
762.327637	215.800000
762.364685	207.400000
762.401794	215.200000
762.438904	215.300000
762.475952	210.300000
762.513062	207.300000
762.550110	209.700000
762.587219	223.100000
762.624329	221.200000
762.661377	215.500000
762.698486	215.200000
762.735596	214.700000
762.772644	208.400000
762.809753	207.000000
762.846863	214.300000
762.883911	217.100000
762.921021	218.600000
762.958069	214.400000
762.995117	221.900000
763.032227	222.900000
763.069336	213.900000
763.106323	211.500000
763.143433	209.300000
763.180481	218.800000
763.217590	218.500000
763.254639	214.700000
763.291687	214.800000
763.328735	223.600000
763.365845	215.900000
763.402893	215.500000
763.439941	217.100000
763.477051	222.800000
763.514038	222.400000
763.551147	216.700000
763.588196	219.500000
763.625244	218.100000
763.662292	225.300000
763.699402	226.900000
763.736389	223.800000
763.773499	232.100000
763.810486	224.100000
763.847534	221.900000
763.884644	223.600000
763.921631	222.400000
763.958679	231.600000
763.995728	222.200000
764.032776	231.800000
764.069824	216.900000
764.106873	228.000000
764.143860	232.900000
764.180969	224.100000
764.218018	232.800000
764.255005	223.300000
764.292053	225.000000
764.329102	235.600000
764.366089	235.400000
764.403137	232.700000
764.440125	223.900000
764.477173	228.900000
764.514221	230.800000
764.551208	229.300000
764.588257	223.500000
764.625305	235.100000
764.662292	238.400000
764.699341	243.200000
764.736389	232.500000
764.773376	249.200000
764.810425	236.400000
764.847473	243.100000
764.884399	238.600000
764.921448	247.800000
764.958435	247.200000
764.995483	236.100000
765.032532	252.900000
765.069458	238.000000
765.106506	237.500000
765.143555	236.000000
765.180481	240.100000
765.217529	249.000000
765.254578	233.700000
765.291504	244.700000
765.328552	240.400000
765.365540	236.200000
765.402527	252.600000
765.439575	241.000000
765.476501	236.300000
765.513550	236.200000
765.550537	243.800000
765.587463	251.000000
765.624512	241.700000
765.661499	234.200000
765.698486	250.200000
765.735474	241.500000
765.772461	244.400000
765.809448	251.600000
765.846436	249.800000
765.883423	252.800000
765.920410	250.000000
765.957397	245.100000
765.994385	248.500000
766.031311	259.100000
766.068359	251.500000
766.105286	253.500000
766.142273	258.800000
766.179260	253.800000
766.216187	247.000000
766.253174	244.400000
766.290161	252.200000
766.327148	256.600000
766.364136	255.900000
766.401123	270.400000
766.438049	250.300000
766.475037	262.800000
766.512024	260.600000
766.548950	272.600000
766.585937	268.500000
766.622864	260.500000
766.659790	262.500000
766.696777	250.000000
766.733704	264.600000
766.770691	254.900000
766.807678	270.200000
766.844604	264.700000
766.881531	263.500000
766.918518	268.300000
766.955444	270.400000
766.992432	262.100000
767.029358	266.600000
767.066284	269.000000
767.103271	267.400000
767.140198	295.200000
767.177124	282.000000
767.214050	270.300000
767.251038	273.400000
767.287964	267.900000
767.324890	266.200000
767.361816	270.300000
767.398743	278.300000
767.435730	270.000000
767.472595	273.300000
767.509583	280.100000
767.546509	269.300000
767.583374	273.000000
767.620361	267.100000
767.657288	274.000000
767.694214	273.800000
767.731140	271.600000
767.768066	272.900000
767.804993	278.300000
767.841919	267.600000
767.878845	274.600000
767.915710	283.400000
767.952698	277.200000
767.989563	278.800000
768.026489	279.900000
