Model Number: SPM-001-M   
Serial Number: 10090201
Firmware Version: 004.17.6
Exposure Time: 500000.000000us
Data Taken on: 03-03-2021 09:47:16.167
Wavelength	Amplitude
733.770752	0.000000
733.808716	0.000000
733.846619	0.000000
733.884583	0.000000
733.922546	0.000000
733.960449	0.000000
733.998413	0.000000
734.036377	0.000000
734.074219	0.000000
734.112183	0.000000
734.150085	0.000000
734.188049	0.000000
734.226013	0.000000
734.263916	0.000000
734.301819	0.000000
734.339783	0.000000
734.377686	0.000000
734.415588	0.000000
734.453552	0.000000
734.491455	0.000000
734.529419	0.000000
734.567322	0.000000
734.605225	0.000000
734.643127	0.000000
734.681091	0.000000
734.718994	0.000000
734.756897	0.000000
734.794800	0.000000
734.832703	0.000000
734.870667	0.000000
734.908508	0.000000
734.946472	0.000000
734.984375	0.000000
735.022278	0.000000
735.060181	0.000000
735.098083	0.000000
735.135986	0.000000
735.173889	0.000000
735.211792	0.000000
735.249695	0.000000
735.287598	0.000000
735.325439	0.000000
735.363403	0.000000
735.401306	0.000000
735.439148	0.000000
735.477051	0.000000
735.515015	0.000000
735.552856	0.000000
735.590759	0.000000
735.628662	0.000000
735.666504	0.000000
735.704407	0.000000
735.742310	0.000000
735.780212	0.000000
735.818115	0.000000
735.856018	0.000000
735.893860	0.000000
735.931763	0.000000
735.969604	0.000000
736.007507	0.000000
736.045410	0.000000
736.083252	0.000000
736.121094	0.000000
736.158997	0.000000
736.196838	0.000000
736.234741	0.000000
736.272644	0.000000
736.310486	0.000000
736.348389	0.000000
736.386230	0.000000
736.424072	0.000000
736.461975	0.000000
736.499878	0.000000
736.537720	0.000000
736.575562	0.000000
736.613403	0.000000
736.651306	0.000000
736.689148	0.000000
736.726990	0.000000
736.764893	0.000000
736.802734	0.000000
736.840576	0.000000
736.878418	0.000000
736.916321	0.000000
736.954102	0.000000
736.992004	0.000000
737.029846	0.000000
737.067688	0.000000
737.105530	0.000000
737.143372	0.000000
737.181213	0.000000
737.219116	0.000000
737.256897	0.000000
737.294739	0.000000
737.332642	0.000000
737.370422	0.000000
737.408325	0.000000
737.446167	0.000000
737.483948	0.000000
737.521790	0.000000
737.559692	0.000000
737.597473	0.000000
737.635315	0.000000
737.673157	0.000000
737.710999	0.000000
737.748840	0.000000
737.786621	0.000000
737.824463	0.000000
737.862305	0.000000
737.900085	0.000000
737.937927	0.000000
737.975769	0.000000
738.013550	0.000000
738.051392	0.000000
738.089233	0.000000
738.127014	0.000000
738.164856	0.000000
738.202698	0.000000
738.240479	0.000000
738.278320	0.000000
738.316162	0.000000
738.353943	0.000000
738.391785	0.000000
738.429565	0.000000
738.467407	0.000000
738.505188	0.000000
738.542969	0.000000
738.580811	0.000000
738.618652	0.000000
738.656372	0.000000
738.694214	0.000000
738.732056	0.000000
738.769836	0.000000
738.807617	0.000000
738.845459	0.000000
738.883240	0.000000
738.921021	0.000000
738.958862	0.000000
738.996582	0.000000
739.034424	0.000000
739.072205	0.000000
739.109985	0.000000
739.147827	0.000000
739.185547	0.000000
739.223389	0.000000
739.261169	0.000000
739.298889	0.000000
739.336731	0.000000
739.374512	0.000000
739.412292	0.000000
739.450073	0.000000
739.487854	0.000000
739.525635	0.000000
739.563416	0.000000
739.601135	0.000000
739.638977	0.000000
739.676758	0.000000
739.714478	0.000000
739.752258	0.000000
739.790100	0.000000
739.827820	0.000000
739.865601	0.000000
739.903381	0.000000
739.941101	0.000000
739.978882	189.400000
740.016724	184.800000
740.054443	189.800000
740.092224	182.500000
740.130005	183.000000
740.167725	183.500000
740.205505	182.800000
740.243225	192.400000
740.281006	187.300000
740.318787	178.900000
740.356506	192.500000
740.394287	192.100000
740.432068	182.800000
740.469727	180.500000
740.507507	188.300000
740.545288	185.900000
740.583008	189.200000
740.620789	188.800000
740.658569	177.900000
740.696228	185.500000
740.734009	190.300000
740.771790	175.400000
740.809509	190.500000
740.847229	182.000000
740.884949	182.500000
740.922729	179.800000
740.960449	184.300000
740.998169	182.100000
741.035950	182.600000
741.073669	187.000000
741.111389	186.000000
741.149170	196.300000
741.186890	196.300000
741.224609	190.100000
741.262329	188.700000
741.300110	196.400000
741.337769	180.700000
741.375549	180.100000
741.413208	187.300000
741.450989	181.900000
741.488708	183.500000
741.526367	185.100000
741.564148	188.700000
741.601868	190.800000
741.639526	184.700000
741.677307	188.900000
741.715027	188.300000
741.752686	183.000000
741.790466	192.600000
741.828186	189.000000
741.865845	181.700000
741.903564	178.900000
741.941345	186.500000
741.979004	181.300000
742.016724	188.700000
742.054382	188.400000
742.092102	189.600000
742.129822	179.000000
742.167480	183.600000
742.205200	185.100000
742.242920	187.100000
742.280640	192.000000
742.318359	182.300000
742.356079	183.900000
742.393738	190.000000
742.431396	186.400000
742.469116	189.900000
742.506775	177.100000
742.544495	188.700000
742.582214	189.700000
742.619873	185.700000
742.657593	192.000000
742.695251	190.400000
742.732971	184.500000
742.770630	188.700000
742.808289	185.900000
742.846008	186.400000
742.883728	188.100000
742.921326	186.000000
742.959045	183.800000
742.996765	187.000000
743.034424	186.000000
743.072083	184.500000
743.109802	185.600000
743.147400	180.700000
743.185120	187.700000
743.222839	186.000000
743.260437	192.600000
743.298157	189.600000
743.335754	178.300000
743.373474	184.200000
743.411133	177.800000
743.448792	187.300000
743.486450	185.100000
743.524170	178.100000
743.561768	186.000000
743.599487	190.900000
743.637146	196.500000
743.674744	185.600000
743.712463	182.400000
743.750122	186.600000
743.787720	187.900000
743.825439	182.700000
743.863037	183.100000
743.900696	185.900000
743.938416	211.400000
743.976013	185.500000
744.013672	194.600000
744.051331	191.100000
744.088928	194.500000
744.126587	193.200000
744.164307	188.600000
744.201904	183.800000
744.239563	190.100000
744.277222	188.600000
744.314819	184.900000
744.352478	194.000000
744.390137	187.900000
744.427734	188.200000
744.465393	184.900000
744.502991	182.000000
744.540649	189.100000
744.578308	186.300000
744.615906	180.900000
744.653564	176.600000
744.691223	190.500000
744.728821	178.400000
744.766418	186.300000
744.804077	189.500000
744.841675	184.200000
744.879333	178.500000
744.916992	185.300000
744.954529	183.500000
744.992187	190.900000
745.029785	185.000000
745.067444	184.300000
745.105042	186.200000
745.142639	189.500000
745.180298	196.600000
745.217896	184.700000
745.255493	184.400000
745.293152	191.400000
745.330750	190.900000
745.368347	195.300000
745.405945	188.800000
745.443604	187.600000
745.481140	189.700000
745.518799	184.400000
745.556396	188.900000
745.593994	190.600000
745.631592	185.900000
745.669189	181.100000
745.706787	187.500000
745.744385	183.200000
745.781982	188.500000
745.819580	184.000000
745.857178	183.500000
745.894775	185.900000
745.932373	187.900000
745.969971	189.300000
746.007568	177.100000
746.045166	193.900000
746.082764	191.500000
746.120300	189.500000
746.157898	190.000000
746.195557	186.200000
746.233093	181.200000
746.270691	188.800000
746.308228	187.700000
746.345825	190.900000
746.383423	190.400000
746.420959	182.500000
746.458557	183.400000
746.496155	185.900000
746.533691	187.100000
746.571289	181.600000
746.608887	185.600000
746.646423	187.400000
746.684021	185.900000
746.721619	183.500000
746.759155	188.100000
746.796753	179.500000
746.834351	181.200000
746.871826	181.900000
746.909424	192.300000
746.946960	187.500000
746.984558	186.300000
747.022156	184.600000
747.059631	194.700000
747.097229	189.000000
747.134827	184.000000
747.172363	191.800000
747.209900	189.100000
747.247498	180.800000
747.285034	193.600000
747.322571	193.600000
747.360168	185.400000
747.397644	178.900000
747.435242	190.600000
747.472778	190.500000
747.510315	185.200000
747.547913	184.400000
747.585388	193.400000
747.622925	184.900000
747.660522	178.100000
747.697998	181.100000
747.735596	185.600000
747.773132	182.800000
747.810669	186.200000
747.848206	189.700000
747.885742	182.000000
747.923279	181.100000
747.960815	188.700000
747.998352	185.700000
748.035889	190.100000
748.073425	190.600000
748.110901	183.300000
748.148437	181.300000
748.185974	185.400000
748.223511	196.000000
748.261047	188.100000
748.298584	188.900000
748.336060	185.500000
748.373596	189.200000
748.411133	206.600000
748.448608	183.400000
748.486145	189.500000
748.523682	194.800000
748.561218	192.400000
748.598755	187.900000
748.636292	190.200000
748.673706	184.600000
748.711243	192.400000
748.748718	188.700000
748.786255	187.100000
748.823792	188.300000
748.861267	181.200000
748.898804	188.600000
748.936340	187.700000
748.973816	184.900000
749.011292	192.500000
749.048828	187.900000
749.086304	189.300000
749.123840	197.600000
749.161316	183.000000
749.198792	195.100000
749.236328	193.000000
749.273743	186.400000
749.311279	185.600000
749.348816	189.200000
749.386230	187.700000
749.423767	176.400000
749.461304	188.500000
749.498718	186.800000
749.536255	193.300000
749.573730	198.800000
749.611206	192.000000
749.648682	187.100000
749.686218	186.700000
749.723633	190.900000
749.761169	184.600000
749.798645	182.900000
749.836060	185.800000
749.873596	184.300000
749.911011	185.900000
749.948547	193.700000
749.986023	187.400000
750.023437	186.000000
750.060913	180.200000
750.098450	180.000000
750.135864	186.400000
750.173340	185.600000
750.210815	191.600000
750.248291	181.800000
750.285767	188.000000
750.323242	191.500000
750.360657	189.000000
750.398132	182.000000
750.435608	190.800000
750.473022	182.200000
750.510498	183.200000
750.547974	181.900000
750.585449	185.100000
750.622925	176.800000
750.660339	196.300000
750.697815	186.800000
750.735291	186.200000
750.772644	185.400000
750.810120	188.600000
750.847595	187.600000
750.885010	181.200000
750.922485	195.600000
750.959961	185.000000
750.997375	194.000000
751.034851	190.800000
751.072266	189.700000
751.109680	180.300000
751.147156	192.100000
751.184570	189.700000
751.221985	188.000000
751.259460	177.700000
751.296875	187.200000
751.334290	187.100000
751.371765	190.000000
751.409180	191.600000
751.446594	193.000000
751.484070	189.300000
751.521423	188.500000
751.558899	189.800000
751.596375	192.500000
751.633728	194.500000
751.671204	199.900000
751.708618	183.000000
751.746033	188.200000
751.783447	182.100000
751.820801	182.300000
751.858276	189.600000
751.895691	186.400000
751.933105	185.000000
751.970520	182.000000
752.007935	184.700000
752.045349	191.200000
752.082764	186.900000
752.120178	185.500000
752.157532	183.200000
752.195007	184.100000
752.232422	189.300000
752.269775	191.700000
752.307190	190.700000
752.344543	183.600000
752.382019	185.100000
752.419434	186.100000
752.456787	189.400000
752.494202	191.900000
752.531616	187.700000
752.568970	191.200000
752.606384	188.400000
752.643799	188.800000
752.681152	195.100000
752.718567	190.600000
752.755981	180.400000
752.793335	191.100000
752.830750	178.100000
752.868164	193.300000
752.905518	182.100000
752.942932	192.000000
752.980225	181.600000
753.017639	191.700000
753.055054	185.200000
753.092407	189.300000
753.129822	190.400000
753.167175	195.700000
753.204529	184.400000
753.241943	184.300000
753.279358	180.700000
753.316650	190.200000
753.354065	188.100000
753.391479	191.100000
753.428772	193.700000
753.466187	190.900000
753.503479	180.300000
753.540894	185.100000
753.578308	180.700000
753.615601	181.400000
753.653015	186.100000
753.690369	185.000000
753.727722	183.000000
753.765076	181.100000
753.802490	181.700000
753.839783	178.400000
753.877136	182.500000
753.914551	201.600000
753.951843	181.100000
753.989258	190.600000
754.026611	187.400000
754.063904	189.300000
754.101257	182.500000
754.138611	178.500000
754.175964	187.100000
754.213318	197.300000
754.250610	180.500000
754.288025	185.300000
754.325378	182.200000
754.362671	190.600000
754.400024	185.500000
754.437378	196.200000
754.474670	195.500000
754.512085	183.100000
754.549438	188.300000
754.586731	184.700000
754.624084	185.600000
754.661438	184.000000
754.698730	194.700000
754.736084	184.800000
754.773376	185.000000
754.810730	189.300000
754.848083	185.600000
754.885315	191.400000
754.922668	179.700000
754.960022	179.600000
754.997314	190.900000
755.034668	186.200000
755.072021	186.000000
755.109253	182.900000
755.146606	192.900000
755.183960	183.500000
755.221252	194.800000
755.258545	191.600000
755.295898	192.100000
755.333191	193.100000
755.370544	189.800000
755.407776	185.400000
755.445129	188.100000
755.482422	190.700000
755.519714	183.200000
755.557068	178.700000
755.594360	177.900000
755.631653	188.500000
755.668945	194.700000
755.706299	189.100000
755.743530	197.600000
755.780884	194.300000
755.818176	192.600000
755.855408	190.800000
755.892761	188.200000
755.930054	187.800000
755.967346	188.500000
756.004639	190.400000
756.041870	187.800000
756.079224	192.400000
756.116516	183.300000
756.153748	190.700000
756.191040	194.900000
756.228394	189.900000
756.265625	183.400000
756.302917	188.200000
756.340210	184.300000
756.377441	192.700000
756.414795	195.200000
756.452087	187.000000
756.489319	180.600000
756.526611	191.900000
756.563843	190.700000
756.601135	198.000000
756.638428	196.300000
756.675659	188.000000
756.712952	192.300000
756.750244	192.100000
756.787476	189.600000
756.824768	195.500000
756.862061	186.700000
756.899292	234.900000
756.936584	192.400000
756.973816	198.900000
757.011047	199.700000
757.048340	189.700000
757.085632	188.800000
757.122864	206.400000
757.160156	186.000000
757.197327	192.700000
757.234619	194.400000
757.271912	188.700000
757.309082	194.300000
757.346375	187.500000
757.383667	196.000000
757.420837	190.600000
757.458130	191.700000
757.495422	190.900000
757.532593	192.000000
757.569885	184.700000
757.607117	187.100000
757.644348	192.800000
757.681580	203.000000
757.718811	179.100000
757.756042	190.700000
757.793335	188.600000
757.830505	194.600000
757.867798	187.800000
757.905029	186.000000
757.942200	192.900000
757.979492	187.100000
758.016724	189.500000
758.053894	189.500000
758.091187	209.400000
758.128418	191.500000
758.165588	192.300000
758.202820	203.100000
758.240112	188.500000
758.277283	202.300000
758.314514	192.900000
758.351685	190.300000
758.388916	200.000000
758.426147	199.600000
758.463379	200.500000
758.500610	195.600000
758.537842	193.400000
758.575012	199.400000
758.612244	187.600000
758.649475	206.000000
758.686646	186.600000
758.723877	198.800000
758.761108	201.100000
758.798279	192.400000
758.835510	196.200000
758.872742	201.700000
758.909851	197.100000
758.947083	197.000000
758.984253	195.000000
759.021484	199.900000
759.058716	198.300000
759.095886	200.000000
759.133057	194.200000
759.170288	199.700000
759.207458	190.900000
759.244690	204.900000
759.281860	203.900000
759.319031	194.700000
759.356262	193.000000
759.393433	195.400000
759.430603	194.400000
759.467773	196.200000
759.505005	202.400000
759.542175	203.200000
759.579346	195.600000
759.616516	198.000000
759.653687	199.300000
759.690918	195.000000
759.728027	200.600000
759.765259	200.200000
759.802429	201.600000
759.839539	200.500000
759.876770	203.600000
759.913940	209.900000
759.951111	200.700000
759.988281	200.200000
760.025452	197.700000
760.062561	195.500000
760.099792	209.100000
760.136963	202.600000
760.174072	199.600000
760.211243	194.900000
760.248413	195.700000
760.285583	197.600000
760.322754	210.600000
760.359863	207.100000
760.397034	208.500000
760.434204	199.800000
760.471375	199.800000
760.508545	198.700000
760.545715	200.300000
760.582825	195.400000
760.619995	206.700000
760.657166	194.900000
760.694275	208.700000
760.731445	203.700000
760.768555	204.200000
760.805664	204.700000
760.842834	205.300000
760.879944	204.700000
760.917114	205.400000
760.954285	201.400000
760.991394	197.200000
761.028564	207.400000
761.065674	206.500000
761.102783	198.900000
761.139954	207.200000
761.177124	207.200000
761.214172	209.700000
761.251343	201.300000
761.288452	204.700000
761.325562	206.800000
761.362732	201.200000
761.399841	203.300000
761.436951	206.100000
761.474121	200.900000
761.511169	206.600000
761.548340	208.500000
761.585449	207.500000
761.622559	210.300000
761.659668	207.000000
761.696838	211.600000
761.733887	208.900000
761.771057	204.500000
761.808167	204.800000
761.845276	210.300000
761.882385	218.700000
761.919434	206.300000
761.956604	225.500000
761.993713	202.400000
762.030762	212.400000
762.067871	207.200000
762.105042	207.000000
762.142090	215.200000
762.179199	209.100000
762.216309	213.900000
762.253418	225.100000
762.290527	219.600000
762.327637	214.600000
762.364685	205.800000
762.401794	216.000000
762.438904	213.700000
762.475952	207.800000
762.513062	205.700000
762.550110	206.000000
762.587219	220.800000
762.624329	220.000000
762.661377	214.600000
762.698486	212.400000
762.735596	212.800000
762.772644	206.900000
762.809753	205.300000
762.846863	210.800000
762.883911	217.000000
762.921021	216.200000
762.958069	212.800000
762.995117	219.800000
763.032227	222.200000
763.069336	211.300000
763.106323	210.100000
763.143433	208.800000
763.180481	217.900000
763.217590	217.000000
763.254639	213.900000
763.291687	213.300000
763.328735	223.900000
763.365845	215.300000
763.402893	214.500000
763.439941	216.800000
763.477051	220.600000
763.514038	219.800000
763.551147	214.400000
763.588196	219.000000
763.625244	216.700000
763.662292	224.600000
763.699402	225.900000
763.736389	222.700000
763.773499	230.700000
763.810486	222.200000
763.847534	221.000000
763.884644	223.400000
763.921631	218.800000
763.958679	232.100000
763.995728	220.700000
764.032776	229.400000
764.069824	217.400000
764.106873	225.900000
764.143860	230.400000
764.180969	223.900000
764.218018	229.500000
764.255005	221.800000
764.292053	223.600000
764.329102	232.500000
764.366089	233.400000
764.403137	232.300000
764.440125	224.700000
764.477173	228.500000
764.514221	230.100000
764.551208	227.400000
764.588257	222.700000
764.625305	232.900000
764.662292	235.800000
764.699341	240.700000
764.736389	234.000000
764.773376	248.300000
764.810425	233.900000
764.847473	243.600000
764.884399	238.800000
764.921448	247.000000
764.958435	246.200000
764.995483	235.900000
765.032532	250.200000
765.069458	237.500000
765.106506	238.300000
765.143555	236.200000
765.180481	238.600000
765.217529	248.400000
765.254578	232.500000
765.291504	243.200000
765.328552	238.400000
765.365540	236.500000
765.402527	252.600000
765.439575	237.100000
765.476501	234.000000
765.513550	237.600000
765.550537	242.100000
765.587463	249.200000
765.624512	240.500000
765.661499	233.100000
765.698486	249.900000
765.735474	240.500000
765.772461	242.500000
765.809448	250.800000
765.846436	248.700000
765.883423	252.100000
765.920410	248.000000
765.957397	241.600000
765.994385	249.400000
766.031311	256.600000
766.068359	250.600000
766.105286	250.700000
766.142273	256.400000
766.179260	251.600000
766.216187	245.000000
766.253174	242.400000
766.290161	251.200000
766.327148	254.200000
766.364136	255.600000
766.401123	269.600000
766.438049	248.500000
766.475037	259.700000
766.512024	256.700000
766.548950	271.100000
766.585937	264.500000
766.622864	259.600000
766.659790	259.600000
766.696777	248.700000
766.733704	263.200000
766.770691	255.100000
766.807678	267.600000
766.844604	260.600000
766.881531	261.700000
766.918518	264.800000
766.955444	268.600000
766.992432	260.200000
767.029358	265.500000
767.066284	268.300000
767.103271	264.200000
767.140198	293.100000
767.177124	280.200000
767.214050	268.300000
767.251038	272.900000
767.287964	266.100000
767.324890	262.300000
767.361816	268.300000
767.398743	271.700000
767.435730	267.400000
767.472595	271.200000
767.509583	276.000000
767.546509	265.800000
767.583374	269.300000
767.620361	263.400000
767.657288	269.600000
767.694214	270.500000
767.731140	269.300000
767.768066	270.000000
767.804993	275.800000
767.841919	265.400000
767.878845	271.400000
767.915710	280.200000
767.952698	274.700000
767.989563	276.300000
768.026489	277.900000
