Model Number: SPM-001-M   
Serial Number: 10090201
Firmware Version: 004.17.6
Exposure Time: 500000.000000us
Data Taken on: 03-03-2021 10:42:24.151
Wavelength	Amplitude
733.770752	0.000000
733.808716	0.000000
733.846619	0.000000
733.884583	0.000000
733.922546	0.000000
733.960449	0.000000
733.998413	0.000000
734.036377	0.000000
734.074219	0.000000
734.112183	0.000000
734.150085	0.000000
734.188049	0.000000
734.226013	0.000000
734.263916	0.000000
734.301819	0.000000
734.339783	0.000000
734.377686	0.000000
734.415588	0.000000
734.453552	0.000000
734.491455	0.000000
734.529419	0.000000
734.567322	0.000000
734.605225	0.000000
734.643127	0.000000
734.681091	0.000000
734.718994	0.000000
734.756897	0.000000
734.794800	0.000000
734.832703	0.000000
734.870667	0.000000
734.908508	0.000000
734.946472	0.000000
734.984375	0.000000
735.022278	0.000000
735.060181	0.000000
735.098083	0.000000
735.135986	0.000000
735.173889	0.000000
735.211792	0.000000
735.249695	0.000000
735.287598	0.000000
735.325439	0.000000
735.363403	0.000000
735.401306	0.000000
735.439148	0.000000
735.477051	0.000000
735.515015	0.000000
735.552856	0.000000
735.590759	0.000000
735.628662	0.000000
735.666504	0.000000
735.704407	0.000000
735.742310	0.000000
735.780212	0.000000
735.818115	0.000000
735.856018	0.000000
735.893860	0.000000
735.931763	0.000000
735.969604	0.000000
736.007507	0.000000
736.045410	0.000000
736.083252	0.000000
736.121094	0.000000
736.158997	0.000000
736.196838	0.000000
736.234741	0.000000
736.272644	0.000000
736.310486	0.000000
736.348389	0.000000
736.386230	0.000000
736.424072	0.000000
736.461975	0.000000
736.499878	0.000000
736.537720	0.000000
736.575562	0.000000
736.613403	0.000000
736.651306	0.000000
736.689148	0.000000
736.726990	0.000000
736.764893	0.000000
736.802734	0.000000
736.840576	0.000000
736.878418	0.000000
736.916321	0.000000
736.954102	0.000000
736.992004	0.000000
737.029846	0.000000
737.067688	0.000000
737.105530	0.000000
737.143372	0.000000
737.181213	0.000000
737.219116	0.000000
737.256897	0.000000
737.294739	0.000000
737.332642	0.000000
737.370422	0.000000
737.408325	0.000000
737.446167	0.000000
737.483948	0.000000
737.521790	0.000000
737.559692	0.000000
737.597473	0.000000
737.635315	0.000000
737.673157	0.000000
737.710999	0.000000
737.748840	0.000000
737.786621	0.000000
737.824463	0.000000
737.862305	0.000000
737.900085	0.000000
737.937927	0.000000
737.975769	0.000000
738.013550	0.000000
738.051392	0.000000
738.089233	0.000000
738.127014	0.000000
738.164856	0.000000
738.202698	0.000000
738.240479	0.000000
738.278320	0.000000
738.316162	0.000000
738.353943	0.000000
738.391785	0.000000
738.429565	0.000000
738.467407	0.000000
738.505188	0.000000
738.542969	0.000000
738.580811	0.000000
738.618652	0.000000
738.656372	0.000000
738.694214	0.000000
738.732056	0.000000
738.769836	0.000000
738.807617	0.000000
738.845459	0.000000
738.883240	0.000000
738.921021	0.000000
738.958862	0.000000
738.996582	0.000000
739.034424	0.000000
739.072205	0.000000
739.109985	0.000000
739.147827	0.000000
739.185547	0.000000
739.223389	0.000000
739.261169	0.000000
739.298889	0.000000
739.336731	0.000000
739.374512	0.000000
739.412292	0.000000
739.450073	0.000000
739.487854	0.000000
739.525635	0.000000
739.563416	0.000000
739.601135	0.000000
739.638977	0.000000
739.676758	0.000000
739.714478	0.000000
739.752258	0.000000
739.790100	0.000000
739.827820	0.000000
739.865601	0.000000
739.903381	0.000000
739.941101	0.000000
739.978882	190.900000
740.016724	186.100000
740.054443	189.700000
740.092224	185.000000
740.130005	182.800000
740.167725	183.700000
740.205505	184.300000
740.243225	193.300000
740.281006	188.700000
740.318787	180.500000
740.356506	192.800000
740.394287	192.000000
740.432068	183.400000
740.469727	179.400000
740.507507	189.800000
740.545288	185.800000
740.583008	189.600000
740.620789	186.900000
740.658569	178.000000
740.696228	185.100000
740.734009	193.000000
740.771790	176.400000
740.809509	190.800000
740.847229	181.600000
740.884949	184.800000
740.922729	180.600000
740.960449	186.500000
740.998169	182.300000
741.035950	183.900000
741.073669	188.300000
741.111389	187.000000
741.149170	195.400000
741.186890	196.200000
741.224609	189.800000
741.262329	188.400000
741.300110	197.400000
741.337769	182.100000
741.375549	181.200000
741.413208	188.700000
741.450989	183.100000
741.488708	184.100000
741.526367	185.800000
741.564148	191.000000
741.601868	191.200000
741.639526	186.400000
741.677307	187.600000
741.715027	190.300000
741.752686	183.300000
741.790466	194.500000
741.828186	190.400000
741.865845	181.500000
741.903564	179.800000
741.941345	187.500000
741.979004	182.700000
742.016724	190.800000
742.054382	187.200000
742.092102	191.900000
742.129822	180.400000
742.167480	185.400000
742.205200	185.200000
742.242920	188.600000
742.280640	191.000000
742.318359	183.300000
742.356079	184.900000
742.393738	190.400000
742.431396	185.900000
742.469116	190.900000
742.506775	175.600000
742.544495	189.300000
742.582214	191.400000
742.619873	185.700000
742.657593	194.500000
742.695251	190.900000
742.732971	186.200000
742.770630	188.100000
742.808289	187.000000
742.846008	186.300000
742.883728	188.900000
742.921326	186.700000
742.959045	184.100000
742.996765	187.000000
743.034424	185.000000
743.072083	185.400000
743.109802	186.800000
743.147400	181.100000
743.185120	188.000000
743.222839	188.900000
743.260437	192.600000
743.298157	188.100000
743.335754	179.200000
743.373474	185.100000
743.411133	180.400000
743.448792	188.200000
743.486450	187.500000
743.524170	179.600000
743.561768	187.200000
743.599487	192.600000
743.637146	198.700000
743.674744	184.400000
743.712463	185.000000
743.750122	187.700000
743.787720	188.500000
743.825439	184.100000
743.863037	184.800000
743.900696	187.300000
743.938416	213.300000
743.976013	186.200000
744.013672	195.600000
744.051331	190.500000
744.088928	195.400000
744.126587	191.700000
744.164307	187.800000
744.201904	184.100000
744.239563	189.400000
744.277222	190.200000
744.314819	186.200000
744.352478	192.700000
744.390137	189.700000
744.427734	188.100000
744.465393	183.700000
744.502991	182.000000
744.540649	190.600000
744.578308	188.100000
744.615906	181.200000
744.653564	176.400000
744.691223	191.700000
744.728821	180.200000
744.766418	186.400000
744.804077	189.800000
744.841675	184.600000
744.879333	181.200000
744.916992	186.700000
744.954529	184.200000
744.992187	191.900000
745.029785	184.900000
745.067444	184.600000
745.105042	188.700000
745.142639	189.900000
745.180298	196.700000
745.217896	186.700000
745.255493	187.000000
745.293152	189.900000
745.330750	192.000000
745.368347	195.500000
745.405945	191.300000
745.443604	187.900000
745.481140	191.000000
745.518799	186.400000
745.556396	191.400000
745.593994	192.800000
745.631592	186.900000
745.669189	182.300000
745.706787	189.400000
745.744385	184.100000
745.781982	191.300000
745.819580	185.000000
745.857178	185.300000
745.894775	188.100000
745.932373	188.600000
745.969971	187.900000
746.007568	178.500000
746.045166	196.000000
746.082764	194.100000
746.120300	189.900000
746.157898	190.100000
746.195557	186.700000
746.233093	180.800000
746.270691	190.300000
746.308228	189.400000
746.345825	190.600000
746.383423	190.600000
746.420959	182.900000
746.458557	182.200000
746.496155	184.600000
746.533691	185.200000
746.571289	181.600000
746.608887	187.200000
746.646423	188.000000
746.684021	187.900000
746.721619	185.500000
746.759155	187.400000
746.796753	180.000000
746.834351	181.600000
746.871826	183.600000
746.909424	193.500000
746.946960	190.000000
746.984558	185.700000
747.022156	185.600000
747.059631	195.500000
747.097229	190.400000
747.134827	184.800000
747.172363	193.500000
747.209900	189.300000
747.247498	183.800000
747.285034	194.500000
747.322571	195.500000
747.360168	186.000000
747.397644	180.700000
747.435242	190.900000
747.472778	194.200000
747.510315	184.900000
747.547913	185.500000
747.585388	193.600000
747.622925	186.600000
747.660522	180.300000
747.697998	184.500000
747.735596	187.400000
747.773132	185.700000
747.810669	186.600000
747.848206	189.900000
747.885742	182.100000
747.923279	181.900000
747.960815	188.700000
747.998352	189.400000
748.035889	191.600000
748.073425	191.100000
748.110901	184.500000
748.148437	182.700000
748.185974	186.200000
748.223511	196.400000
748.261047	188.700000
748.298584	188.700000
748.336060	184.800000
748.373596	188.400000
748.411133	206.500000
748.448608	182.400000
748.486145	191.400000
748.523682	195.200000
748.561218	193.700000
748.598755	187.600000
748.636292	190.200000
748.673706	184.900000
748.711243	193.500000
748.748718	190.300000
748.786255	187.300000
748.823792	187.600000
748.861267	182.800000
748.898804	188.600000
748.936340	189.900000
748.973816	186.700000
749.011292	193.400000
749.048828	190.000000
749.086304	190.900000
749.123840	199.200000
749.161316	183.100000
749.198792	197.100000
749.236328	193.900000
749.273743	187.700000
749.311279	187.400000
749.348816	190.700000
749.386230	188.700000
749.423767	176.000000
749.461304	190.600000
749.498718	188.800000
749.536255	194.400000
749.573730	199.800000
749.611206	194.100000
749.648682	186.700000
749.686218	188.000000
749.723633	192.100000
749.761169	186.000000
749.798645	185.200000
749.836060	186.500000
749.873596	184.700000
749.911011	187.900000
749.948547	193.900000
749.986023	187.400000
750.023437	186.400000
750.060913	180.000000
750.098450	180.600000
750.135864	186.200000
750.173340	187.900000
750.210815	192.100000
750.248291	180.900000
750.285767	187.600000
750.323242	193.000000
750.360657	189.100000
750.398132	183.500000
750.435608	191.100000
750.473022	183.200000
750.510498	182.700000
750.547974	183.800000
750.585449	185.200000
750.622925	177.500000
750.660339	197.000000
750.697815	189.200000
750.735291	187.100000
750.772644	187.800000
750.810120	189.600000
750.847595	190.400000
750.885010	183.100000
750.922485	195.700000
750.959961	185.800000
750.997375	195.200000
751.034851	192.200000
751.072266	193.000000
751.109680	181.500000
751.147156	193.500000
751.184570	189.800000
751.221985	188.500000
751.259460	179.400000
751.296875	187.800000
751.334290	188.300000
751.371765	192.800000
751.409180	190.300000
751.446594	193.500000
751.484070	189.600000
751.521423	191.300000
751.558899	189.200000
751.596375	194.700000
751.633728	195.000000
751.671204	200.100000
751.708618	183.500000
751.746033	188.100000
751.783447	181.100000
751.820801	184.000000
751.858276	190.700000
751.895691	187.100000
751.933105	184.600000
751.970520	184.800000
752.007935	184.800000
752.045349	190.900000
752.082764	187.700000
752.120178	185.200000
752.157532	183.900000
752.195007	183.900000
752.232422	190.000000
752.269775	192.000000
752.307190	190.500000
752.344543	182.400000
752.382019	186.800000
752.419434	185.900000
752.456787	190.800000
752.494202	191.900000
752.531616	189.100000
752.568970	191.600000
752.606384	190.000000
752.643799	189.300000
752.681152	196.100000
752.718567	191.600000
752.755981	181.700000
752.793335	190.800000
752.830750	180.500000
752.868164	193.900000
752.905518	184.400000
752.942932	192.000000
752.980225	183.700000
753.017639	192.300000
753.055054	186.100000
753.092407	191.800000
753.129822	193.400000
753.167175	197.700000
753.204529	186.700000
753.241943	185.200000
753.279358	182.400000
753.316650	190.700000
753.354065	190.000000
753.391479	192.400000
753.428772	198.000000
753.466187	192.000000
753.503479	182.100000
753.540894	185.000000
753.578308	180.900000
753.615601	184.100000
753.653015	186.600000
753.690369	185.400000
753.727722	183.300000
753.765076	179.900000
753.802490	181.800000
753.839783	179.500000
753.877136	185.400000
753.914551	201.600000
753.951843	183.000000
753.989258	189.100000
754.026611	188.600000
754.063904	187.800000
754.101257	182.600000
754.138611	180.100000
754.175964	187.100000
754.213318	199.600000
754.250610	181.100000
754.288025	184.100000
754.325378	181.100000
754.362671	191.100000
754.400024	186.100000
754.437378	196.200000
754.474670	197.000000
754.512085	184.600000
754.549438	187.700000
754.586731	185.800000
754.624084	185.900000
754.661438	183.500000
754.698730	195.900000
754.736084	185.600000
754.773376	187.000000
754.810730	191.200000
754.848083	184.900000
754.885315	192.800000
754.922668	180.300000
754.960022	181.900000
754.997314	191.800000
755.034668	187.300000
755.072021	187.200000
755.109253	185.400000
755.146606	193.700000
755.183960	185.000000
755.221252	194.700000
755.258545	190.600000
755.295898	191.900000
755.333191	192.200000
755.370544	190.000000
755.407776	186.200000
755.445129	186.900000
755.482422	191.500000
755.519714	183.500000
755.557068	177.900000
755.594360	177.200000
755.631653	189.800000
755.668945	194.900000
755.706299	187.800000
755.743530	197.400000
755.780884	193.700000
755.818176	191.300000
755.855408	190.700000
755.892761	188.900000
755.930054	187.100000
755.967346	187.900000
756.004639	188.900000
756.041870	187.700000
756.079224	191.300000
756.116516	182.300000
756.153748	190.600000
756.191040	195.000000
756.228394	189.400000
756.265625	182.800000
756.302917	188.500000
756.340210	184.300000
756.377441	192.300000
756.414795	193.500000
756.452087	186.000000
756.489319	181.300000
756.526611	190.300000
756.563843	189.800000
756.601135	197.100000
756.638428	196.600000
756.675659	187.600000
756.712952	192.900000
756.750244	191.400000
756.787476	189.700000
756.824768	195.400000
756.862061	187.000000
756.899292	235.400000
756.936584	192.600000
756.973816	200.200000
757.011047	200.000000
757.048340	188.900000
757.085632	189.200000
757.122864	204.800000
757.160156	187.600000
757.197327	192.600000
757.234619	194.400000
757.271912	189.400000
757.309082	193.600000
757.346375	185.900000
757.383667	193.600000
757.420837	191.100000
757.458130	190.600000
757.495422	187.700000
757.532593	190.200000
757.569885	181.900000
757.607117	185.000000
757.644348	190.800000
757.681580	201.900000
757.718811	176.800000
757.756042	188.600000
757.793335	186.600000
757.830505	192.100000
757.867798	186.600000
757.905029	185.700000
757.942200	190.900000
757.979492	185.800000
758.016724	187.000000
758.053894	187.000000
758.091187	206.900000
758.128418	189.400000
758.165588	190.300000
758.202820	201.200000
758.240112	188.700000
758.277283	201.500000
758.314514	191.800000
758.351685	188.100000
758.388916	201.200000
758.426147	198.500000
758.463379	200.900000
758.500610	194.300000
758.537842	193.100000
758.575012	197.900000
758.612244	187.400000
758.649475	203.800000
758.686646	185.600000
758.723877	199.000000
758.761108	200.400000
758.798279	192.700000
758.835510	195.500000
758.872742	198.600000
758.909851	194.400000
758.947083	197.500000
758.984253	195.400000
759.021484	197.500000
759.058716	196.700000
759.095886	197.600000
759.133057	192.700000
759.170288	196.900000
759.207458	189.100000
759.244690	204.900000
759.281860	202.100000
759.319031	193.500000
759.356262	191.500000
759.393433	192.600000
759.430603	192.300000
759.467773	192.700000
759.505005	200.700000
759.542175	200.200000
759.579346	192.800000
759.616516	194.100000
759.653687	196.400000
759.690918	192.600000
759.728027	196.400000
759.765259	196.700000
759.802429	199.400000
759.839539	198.100000
759.876770	201.400000
759.913940	206.800000
759.951111	197.900000
759.988281	195.800000
760.025452	193.800000
760.062561	194.900000
760.099792	205.600000
760.136963	200.900000
760.174072	197.100000
760.211243	191.700000
760.248413	193.800000
760.285583	194.800000
760.322754	207.800000
760.359863	204.900000
760.397034	204.800000
760.434204	198.400000
760.471375	199.800000
760.508545	198.800000
760.545715	197.500000
760.582825	193.600000
760.619995	204.500000
760.657166	193.000000
760.694275	206.200000
760.731445	200.800000
760.768555	202.100000
760.805664	203.000000
760.842834	200.600000
760.879944	203.600000
760.917114	201.000000
760.954285	199.100000
760.991394	193.800000
761.028564	206.300000
761.065674	203.300000
761.102783	196.400000
761.139954	204.800000
761.177124	204.500000
761.214172	206.700000
761.251343	199.200000
761.288452	200.500000
761.325562	203.300000
761.362732	197.300000
761.399841	200.600000
761.436951	202.300000
761.474121	196.600000
761.511169	201.200000
761.548340	205.100000
761.585449	203.800000
761.622559	205.300000
761.659668	201.700000
761.696838	207.600000
761.733887	203.700000
761.771057	200.200000
761.808167	201.300000
761.845276	206.200000
761.882385	215.100000
761.919434	204.900000
761.956604	222.100000
761.993713	199.700000
762.030762	210.600000
762.067871	203.400000
762.105042	201.900000
762.142090	210.200000
762.179199	206.600000
762.216309	209.800000
762.253418	221.500000
762.290527	216.000000
762.327637	211.000000
762.364685	202.400000
762.401794	211.200000
762.438904	208.500000
762.475952	204.400000
762.513062	202.200000
762.550110	202.100000
762.587219	217.000000
762.624329	216.100000
762.661377	211.300000
762.698486	210.600000
762.735596	208.500000
762.772644	203.400000
762.809753	201.200000
762.846863	207.400000
762.883911	212.400000
762.921021	212.600000
762.958069	208.600000
762.995117	217.800000
763.032227	216.100000
763.069336	207.600000
763.106323	203.500000
763.143433	202.600000
763.180481	211.100000
763.217590	213.600000
763.254639	207.200000
763.291687	207.800000
763.328735	216.600000
763.365845	209.800000
763.402893	208.500000
763.439941	209.800000
763.477051	213.900000
763.514038	214.300000
763.551147	208.200000
763.588196	213.000000
763.625244	212.100000
763.662292	219.400000
763.699402	220.100000
763.736389	215.300000
763.773499	224.300000
763.810486	215.300000
763.847534	213.700000
763.884644	214.000000
763.921631	210.900000
763.958679	224.300000
763.995728	214.800000
764.032776	223.600000
764.069824	212.200000
764.106873	218.200000
764.143860	225.000000
764.180969	214.600000
764.218018	223.600000
764.255005	214.100000
764.292053	216.500000
764.329102	226.700000
764.366089	226.100000
764.403137	223.200000
764.440125	215.700000
764.477173	219.400000
764.514221	222.300000
764.551208	220.200000
764.588257	215.000000
764.625305	225.000000
764.662292	228.000000
764.699341	231.200000
764.736389	221.300000
764.773376	237.800000
764.810425	225.000000
764.847473	232.100000
764.884399	228.400000
764.921448	237.300000
764.958435	234.100000
764.995483	226.600000
765.032532	241.100000
765.069458	226.400000
765.106506	229.700000
765.143555	224.800000
765.180481	228.100000
765.217529	238.900000
765.254578	221.900000
765.291504	231.700000
765.328552	229.800000
765.365540	227.000000
765.402527	244.800000
765.439575	228.700000
765.476501	225.500000
765.513550	227.600000
765.550537	230.600000
765.587463	238.800000
765.624512	231.100000
765.661499	221.900000
765.698486	238.000000
765.735474	227.300000
765.772461	230.800000
765.809448	239.600000
765.846436	234.900000
765.883423	241.500000
765.920410	236.200000
765.957397	232.100000
765.994385	238.200000
766.031311	247.700000
766.068359	243.000000
766.105286	240.800000
766.142273	247.300000
766.179260	243.100000
766.216187	234.100000
766.253174	233.300000
766.290161	240.400000
766.327148	244.000000
766.364136	243.400000
766.401123	257.100000
766.438049	236.000000
766.475037	249.100000
766.512024	243.500000
766.548950	258.500000
766.585937	252.600000
766.622864	245.900000
766.659790	244.600000
766.696777	235.300000
766.733704	251.100000
766.770691	241.100000
766.807678	253.700000
766.844604	246.700000
766.881531	247.800000
766.918518	252.100000
766.955444	254.900000
766.992432	246.200000
767.029358	249.900000
767.066284	252.700000
767.103271	249.500000
767.140198	280.600000
767.177124	266.200000
767.214050	255.000000
767.251038	256.100000
767.287964	251.700000
767.324890	247.500000
767.361816	254.000000
767.398743	259.100000
767.435730	252.300000
767.472595	255.600000
767.509583	261.300000
767.546509	248.300000
767.583374	253.700000
767.620361	247.900000
767.657288	251.800000
767.694214	255.500000
767.731140	253.000000
767.768066	255.800000
767.804993	260.700000
767.841919	251.100000
767.878845	256.700000
767.915710	264.600000
767.952698	257.800000
767.989563	259.800000
768.026489	259.900000
