Model Number: SPM-001-M   
Serial Number: 10090201
Firmware Version: 004.17.6
Exposure Time: 500000.000000us
Data Taken on: 03-03-2021 10:44:44.148
Wavelength	Amplitude
733.770752	0.000000
733.808716	0.000000
733.846619	0.000000
733.884583	0.000000
733.922546	0.000000
733.960449	0.000000
733.998413	0.000000
734.036377	0.000000
734.074219	0.000000
734.112183	0.000000
734.150085	0.000000
734.188049	0.000000
734.226013	0.000000
734.263916	0.000000
734.301819	0.000000
734.339783	0.000000
734.377686	0.000000
734.415588	0.000000
734.453552	0.000000
734.491455	0.000000
734.529419	0.000000
734.567322	0.000000
734.605225	0.000000
734.643127	0.000000
734.681091	0.000000
734.718994	0.000000
734.756897	0.000000
734.794800	0.000000
734.832703	0.000000
734.870667	0.000000
734.908508	0.000000
734.946472	0.000000
734.984375	0.000000
735.022278	0.000000
735.060181	0.000000
735.098083	0.000000
735.135986	0.000000
735.173889	0.000000
735.211792	0.000000
735.249695	0.000000
735.287598	0.000000
735.325439	0.000000
735.363403	0.000000
735.401306	0.000000
735.439148	0.000000
735.477051	0.000000
735.515015	0.000000
735.552856	0.000000
735.590759	0.000000
735.628662	0.000000
735.666504	0.000000
735.704407	0.000000
735.742310	0.000000
735.780212	0.000000
735.818115	0.000000
735.856018	0.000000
735.893860	0.000000
735.931763	0.000000
735.969604	0.000000
736.007507	0.000000
736.045410	0.000000
736.083252	0.000000
736.121094	0.000000
736.158997	0.000000
736.196838	0.000000
736.234741	0.000000
736.272644	0.000000
736.310486	0.000000
736.348389	0.000000
736.386230	0.000000
736.424072	0.000000
736.461975	0.000000
736.499878	0.000000
736.537720	0.000000
736.575562	0.000000
736.613403	0.000000
736.651306	0.000000
736.689148	0.000000
736.726990	0.000000
736.764893	0.000000
736.802734	0.000000
736.840576	0.000000
736.878418	0.000000
736.916321	0.000000
736.954102	0.000000
736.992004	0.000000
737.029846	0.000000
737.067688	0.000000
737.105530	0.000000
737.143372	0.000000
737.181213	0.000000
737.219116	0.000000
737.256897	0.000000
737.294739	0.000000
737.332642	0.000000
737.370422	0.000000
737.408325	0.000000
737.446167	0.000000
737.483948	0.000000
737.521790	0.000000
737.559692	0.000000
737.597473	0.000000
737.635315	0.000000
737.673157	0.000000
737.710999	0.000000
737.748840	0.000000
737.786621	0.000000
737.824463	0.000000
737.862305	0.000000
737.900085	0.000000
737.937927	0.000000
737.975769	0.000000
738.013550	0.000000
738.051392	0.000000
738.089233	0.000000
738.127014	0.000000
738.164856	0.000000
738.202698	0.000000
738.240479	0.000000
738.278320	0.000000
738.316162	0.000000
738.353943	0.000000
738.391785	0.000000
738.429565	0.000000
738.467407	0.000000
738.505188	0.000000
738.542969	0.000000
738.580811	0.000000
738.618652	0.000000
738.656372	0.000000
738.694214	0.000000
738.732056	0.000000
738.769836	0.000000
738.807617	0.000000
738.845459	0.000000
738.883240	0.000000
738.921021	0.000000
738.958862	0.000000
738.996582	0.000000
739.034424	0.000000
739.072205	0.000000
739.109985	0.000000
739.147827	0.000000
739.185547	0.000000
739.223389	0.000000
739.261169	0.000000
739.298889	0.000000
739.336731	0.000000
739.374512	0.000000
739.412292	0.000000
739.450073	0.000000
739.487854	0.000000
739.525635	0.000000
739.563416	0.000000
739.601135	0.000000
739.638977	0.000000
739.676758	0.000000
739.714478	0.000000
739.752258	0.000000
739.790100	0.000000
739.827820	0.000000
739.865601	0.000000
739.903381	0.000000
739.941101	0.000000
739.978882	191.000000
740.016724	185.300000
740.054443	191.400000
740.092224	184.400000
740.130005	184.200000
740.167725	185.800000
740.205505	183.600000
740.243225	193.700000
740.281006	188.400000
740.318787	181.000000
740.356506	194.900000
740.394287	192.600000
740.432068	183.400000
740.469727	181.000000
740.507507	191.600000
740.545288	187.500000
740.583008	190.500000
740.620789	187.300000
740.658569	180.800000
740.696228	188.500000
740.734009	192.500000
740.771790	177.100000
740.809509	191.100000
740.847229	183.200000
740.884949	185.300000
740.922729	180.700000
740.960449	185.200000
740.998169	182.000000
741.035950	183.700000
741.073669	188.800000
741.111389	188.300000
741.149170	197.000000
741.186890	196.900000
741.224609	192.400000
741.262329	188.000000
741.300110	197.200000
741.337769	182.300000
741.375549	180.600000
741.413208	187.800000
741.450989	183.500000
741.488708	185.000000
741.526367	185.600000
741.564148	190.500000
741.601868	191.200000
741.639526	186.700000
741.677307	188.900000
741.715027	189.100000
741.752686	182.700000
741.790466	194.800000
741.828186	190.500000
741.865845	183.700000
741.903564	178.400000
741.941345	187.900000
741.979004	184.800000
742.016724	190.600000
742.054382	187.700000
742.092102	193.400000
742.129822	180.100000
742.167480	186.700000
742.205200	186.700000
742.242920	188.900000
742.280640	191.700000
742.318359	183.600000
742.356079	185.800000
742.393738	192.300000
742.431396	187.000000
742.469116	191.200000
742.506775	178.100000
742.544495	191.900000
742.582214	191.600000
742.619873	187.900000
742.657593	196.200000
742.695251	192.000000
742.732971	186.300000
742.770630	189.100000
742.808289	187.100000
742.846008	188.600000
742.883728	189.500000
742.921326	188.100000
742.959045	184.400000
742.996765	187.400000
743.034424	186.500000
743.072083	184.300000
743.109802	187.100000
743.147400	182.200000
743.185120	186.400000
743.222839	187.500000
743.260437	192.200000
743.298157	189.200000
743.335754	179.100000
743.373474	185.500000
743.411133	179.700000
743.448792	187.700000
743.486450	187.700000
743.524170	179.400000
743.561768	187.500000
743.599487	193.500000
743.637146	197.500000
743.674744	186.400000
743.712463	184.400000
743.750122	188.100000
743.787720	188.200000
743.825439	184.100000
743.863037	185.600000
743.900696	188.300000
743.938416	212.100000
743.976013	186.600000
744.013672	195.300000
744.051331	190.900000
744.088928	195.600000
744.126587	194.500000
744.164307	187.800000
744.201904	184.800000
744.239563	191.400000
744.277222	190.300000
744.314819	187.100000
744.352478	194.500000
744.390137	189.500000
744.427734	191.000000
744.465393	186.200000
744.502991	183.400000
744.540649	191.400000
744.578308	189.500000
744.615906	181.600000
744.653564	178.500000
744.691223	191.600000
744.728821	181.700000
744.766418	188.200000
744.804077	189.700000
744.841675	185.400000
744.879333	181.500000
744.916992	186.300000
744.954529	184.700000
744.992187	192.800000
745.029785	186.600000
745.067444	184.100000
745.105042	188.700000
745.142639	188.700000
745.180298	196.300000
745.217896	186.000000
745.255493	185.700000
745.293152	191.400000
745.330750	191.600000
745.368347	196.200000
745.405945	190.000000
745.443604	187.700000
745.481140	192.200000
745.518799	186.000000
745.556396	191.000000
745.593994	192.500000
745.631592	188.100000
745.669189	181.800000
745.706787	188.400000
745.744385	183.900000
745.781982	191.000000
745.819580	186.000000
745.857178	185.700000
745.894775	188.200000
745.932373	189.400000
745.969971	188.900000
746.007568	179.900000
746.045166	195.100000
746.082764	193.400000
746.120300	190.500000
746.157898	191.800000
746.195557	187.100000
746.233093	182.100000
746.270691	190.300000
746.308228	189.200000
746.345825	193.700000
746.383423	191.900000
746.420959	183.900000
746.458557	183.900000
746.496155	185.400000
746.533691	187.200000
746.571289	183.200000
746.608887	188.800000
746.646423	188.700000
746.684021	188.800000
746.721619	185.500000
746.759155	188.900000
746.796753	180.900000
746.834351	181.900000
746.871826	184.100000
746.909424	194.000000
746.946960	190.400000
746.984558	187.100000
747.022156	184.900000
747.059631	194.400000
747.097229	189.200000
747.134827	185.700000
747.172363	194.200000
747.209900	190.200000
747.247498	181.800000
747.285034	193.300000
747.322571	192.700000
747.360168	185.500000
747.397644	180.000000
747.435242	190.800000
747.472778	194.900000
747.510315	185.000000
747.547913	185.300000
747.585388	194.300000
747.622925	187.400000
747.660522	178.400000
747.697998	184.400000
747.735596	185.800000
747.773132	185.000000
747.810669	187.600000
747.848206	190.700000
747.885742	182.600000
747.923279	182.400000
747.960815	190.200000
747.998352	188.700000
748.035889	192.700000
748.073425	193.400000
748.110901	185.800000
748.148437	182.900000
748.185974	188.100000
748.223511	197.500000
748.261047	190.300000
748.298584	189.800000
748.336060	187.700000
748.373596	190.900000
748.411133	206.600000
748.448608	183.400000
748.486145	193.400000
748.523682	195.700000
748.561218	194.500000
748.598755	187.700000
748.636292	191.000000
748.673706	186.700000
748.711243	194.900000
748.748718	190.400000
748.786255	187.800000
748.823792	188.000000
748.861267	183.400000
748.898804	190.700000
748.936340	189.300000
748.973816	186.300000
749.011292	193.400000
749.048828	190.000000
749.086304	191.100000
749.123840	199.500000
749.161316	182.100000
749.198792	197.800000
749.236328	193.400000
749.273743	187.500000
749.311279	187.000000
749.348816	190.100000
749.386230	188.900000
749.423767	177.400000
749.461304	190.900000
749.498718	188.600000
749.536255	195.500000
749.573730	199.600000
749.611206	193.600000
749.648682	188.300000
749.686218	187.200000
749.723633	192.000000
749.761169	185.400000
749.798645	183.800000
749.836060	187.100000
749.873596	185.000000
749.911011	188.900000
749.948547	195.200000
749.986023	188.500000
750.023437	187.700000
750.060913	183.600000
750.098450	183.000000
750.135864	188.000000
750.173340	188.200000
750.210815	193.500000
750.248291	184.200000
750.285767	187.600000
750.323242	195.100000
750.360657	190.800000
750.398132	184.000000
750.435608	191.500000
750.473022	184.000000
750.510498	184.400000
750.547974	184.200000
750.585449	186.600000
750.622925	177.100000
750.660339	196.900000
750.697815	188.300000
750.735291	186.100000
750.772644	188.100000
750.810120	190.400000
750.847595	190.300000
750.885010	182.900000
750.922485	196.000000
750.959961	187.400000
750.997375	194.300000
751.034851	192.200000
751.072266	193.100000
751.109680	179.100000
751.147156	194.000000
751.184570	190.400000
751.221985	189.100000
751.259460	178.500000
751.296875	187.300000
751.334290	188.400000
751.371765	192.100000
751.409180	191.600000
751.446594	193.900000
751.484070	190.200000
751.521423	189.400000
751.558899	189.900000
751.596375	194.800000
751.633728	194.900000
751.671204	201.600000
751.708618	184.800000
751.746033	189.600000
751.783447	183.100000
751.820801	185.000000
751.858276	191.500000
751.895691	189.400000
751.933105	186.800000
751.970520	183.500000
752.007935	186.700000
752.045349	193.000000
752.082764	188.200000
752.120178	188.300000
752.157532	184.800000
752.195007	185.800000
752.232422	190.500000
752.269775	192.400000
752.307190	191.300000
752.344543	183.500000
752.382019	187.200000
752.419434	186.400000
752.456787	191.300000
752.494202	192.500000
752.531616	190.400000
752.568970	193.100000
752.606384	190.100000
752.643799	190.300000
752.681152	196.600000
752.718567	191.000000
752.755981	179.800000
752.793335	190.700000
752.830750	180.100000
752.868164	193.200000
752.905518	183.500000
752.942932	193.600000
752.980225	182.800000
753.017639	191.000000
753.055054	186.300000
753.092407	189.300000
753.129822	192.800000
753.167175	198.200000
753.204529	187.200000
753.241943	185.200000
753.279358	182.400000
753.316650	191.400000
753.354065	190.100000
753.391479	192.100000
753.428772	196.500000
753.466187	190.800000
753.503479	182.000000
753.540894	188.100000
753.578308	182.900000
753.615601	182.600000
753.653015	187.900000
753.690369	186.200000
753.727722	182.900000
753.765076	182.600000
753.802490	182.600000
753.839783	180.300000
753.877136	187.600000
753.914551	202.500000
753.951843	182.900000
753.989258	193.500000
754.026611	190.000000
754.063904	188.900000
754.101257	183.200000
754.138611	180.300000
754.175964	189.500000
754.213318	199.800000
754.250610	182.400000
754.288025	185.900000
754.325378	182.600000
754.362671	193.600000
754.400024	187.300000
754.437378	197.300000
754.474670	198.800000
754.512085	184.700000
754.549438	187.800000
754.586731	185.200000
754.624084	188.300000
754.661438	183.700000
754.698730	196.400000
754.736084	186.200000
754.773376	185.900000
754.810730	189.700000
754.848083	187.200000
754.885315	193.500000
754.922668	181.000000
754.960022	181.800000
754.997314	192.900000
755.034668	188.900000
755.072021	188.600000
755.109253	185.100000
755.146606	196.200000
755.183960	185.900000
755.221252	195.900000
755.258545	193.500000
755.295898	193.700000
755.333191	195.800000
755.370544	192.200000
755.407776	188.500000
755.445129	190.100000
755.482422	195.200000
755.519714	185.900000
755.557068	182.200000
755.594360	181.300000
755.631653	193.300000
755.668945	197.600000
755.706299	192.600000
755.743530	202.200000
755.780884	198.500000
755.818176	196.400000
755.855408	195.500000
755.892761	191.300000
755.930054	192.100000
755.967346	191.700000
756.004639	196.300000
756.041870	190.600000
756.079224	196.800000
756.116516	187.200000
756.153748	195.400000
756.191040	199.300000
756.228394	194.700000
756.265625	185.600000
756.302917	192.200000
756.340210	189.500000
756.377441	196.000000
756.414795	197.800000
756.452087	190.400000
756.489319	183.600000
756.526611	194.700000
756.563843	190.700000
756.601135	203.400000
756.638428	200.400000
756.675659	190.500000
756.712952	196.300000
756.750244	195.400000
756.787476	192.800000
756.824768	198.600000
756.862061	189.900000
756.899292	238.700000
756.936584	195.300000
756.973816	203.100000
757.011047	204.000000
757.048340	194.000000
757.085632	192.600000
757.122864	209.800000
757.160156	192.100000
757.197327	197.100000
757.234619	198.400000
757.271912	192.500000
757.309082	197.600000
757.346375	192.300000
757.383667	201.500000
757.420837	195.400000
757.458130	196.200000
757.495422	194.100000
757.532593	197.200000
757.569885	188.900000
757.607117	190.300000
757.644348	196.900000
757.681580	208.300000
757.718811	184.300000
757.756042	194.300000
757.793335	193.600000
757.830505	200.200000
757.867798	193.400000
757.905029	192.500000
757.942200	197.200000
757.979492	192.900000
758.016724	195.300000
758.053894	194.700000
758.091187	213.700000
758.128418	196.100000
758.165588	195.600000
758.202820	207.800000
758.240112	194.800000
758.277283	208.300000
758.314514	199.100000
758.351685	195.400000
758.388916	205.100000
758.426147	206.800000
758.463379	206.300000
758.500610	201.200000
758.537842	198.800000
758.575012	205.500000
758.612244	194.100000
758.649475	212.200000
758.686646	192.500000
758.723877	207.500000
758.761108	207.300000
758.798279	199.000000
758.835510	202.200000
758.872742	206.200000
758.909851	201.800000
758.947083	203.600000
758.984253	201.700000
759.021484	205.800000
759.058716	205.200000
759.095886	205.500000
759.133057	200.900000
759.170288	207.200000
759.207458	199.300000
759.244690	212.800000
759.281860	212.400000
759.319031	202.500000
759.356262	200.900000
759.393433	201.900000
759.430603	202.600000
759.467773	202.500000
759.505005	209.900000
759.542175	210.700000
759.579346	204.900000
759.616516	205.900000
759.653687	209.400000
759.690918	202.300000
759.728027	206.400000
759.765259	206.900000
759.802429	210.200000
759.839539	208.400000
759.876770	213.500000
759.913940	218.300000
759.951111	208.800000
759.988281	208.200000
760.025452	205.600000
760.062561	201.900000
760.099792	217.400000
760.136963	211.500000
760.174072	209.000000
760.211243	202.300000
760.248413	204.200000
760.285583	204.700000
760.322754	220.600000
760.359863	214.000000
760.397034	216.000000
760.434204	208.400000
760.471375	209.100000
760.508545	207.000000
760.545715	209.400000
760.582825	205.800000
760.619995	214.800000
760.657166	202.700000
760.694275	214.600000
760.731445	211.800000
760.768555	212.700000
760.805664	214.300000
760.842834	212.600000
760.879944	214.300000
760.917114	212.200000
760.954285	210.000000
760.991394	205.800000
761.028564	217.700000
761.065674	217.200000
761.102783	208.000000
761.139954	217.900000
761.177124	218.900000
761.214172	219.600000
761.251343	213.000000
761.288452	214.900000
761.325562	217.700000
761.362732	210.700000
761.399841	213.500000
761.436951	218.900000
761.474121	211.100000
761.511169	216.100000
761.548340	219.600000
761.585449	220.000000
761.622559	219.200000
761.659668	217.400000
761.696838	223.200000
761.733887	219.800000
761.771057	216.700000
761.808167	217.700000
761.845276	221.800000
761.882385	230.600000
761.919434	219.600000
761.956604	238.700000
761.993713	217.200000
762.030762	227.000000
762.067871	218.700000
762.105042	220.200000
762.142090	228.100000
762.179199	221.200000
762.216309	226.800000
762.253418	236.500000
762.290527	231.100000
762.327637	227.600000
762.364685	216.600000
762.401794	227.000000
762.438904	224.700000
762.475952	220.100000
762.513062	219.000000
762.550110	218.900000
762.587219	233.200000
762.624329	234.300000
762.661377	227.300000
762.698486	228.000000
762.735596	227.000000
762.772644	220.700000
762.809753	218.300000
762.846863	225.400000
762.883911	229.200000
762.921021	230.200000
762.958069	226.000000
762.995117	234.800000
763.032227	236.800000
763.069336	227.400000
763.106323	223.000000
763.143433	223.200000
763.180481	232.100000
763.217590	230.600000
763.254639	228.900000
763.291687	228.000000
763.328735	237.800000
763.365845	230.300000
763.402893	229.300000
763.439941	232.400000
763.477051	236.600000
763.514038	236.900000
763.551147	230.500000
763.588196	233.300000
763.625244	232.700000
763.662292	238.900000
763.699402	243.800000
763.736389	239.200000
763.773499	248.200000
763.810486	243.100000
763.847534	236.900000
763.884644	242.000000
763.921631	236.400000
763.958679	248.800000
763.995728	238.100000
764.032776	246.900000
764.069824	234.400000
764.106873	245.100000
764.143860	249.900000
764.180969	239.800000
764.218018	250.100000
764.255005	242.200000
764.292053	242.700000
764.329102	253.800000
764.366089	253.200000
764.403137	250.300000
764.440125	242.700000
764.477173	246.400000
764.514221	249.800000
764.551208	247.700000
764.588257	241.900000
764.625305	253.400000
764.662292	258.000000
764.699341	261.000000
764.736389	253.900000
764.773376	269.300000
764.810425	256.600000
764.847473	265.400000
764.884399	261.300000
764.921448	267.500000
764.958435	266.400000
764.995483	256.600000
765.032532	275.100000
765.069458	259.900000
765.106506	260.800000
765.143555	259.400000
765.180481	265.200000
765.217529	272.100000
765.254578	257.300000
765.291504	268.200000
765.328552	266.500000
765.365540	263.400000
765.402527	277.400000
765.439575	264.400000
765.476501	261.200000
765.513550	262.800000
765.550537	266.100000
765.587463	274.600000
765.624512	265.500000
765.661499	259.500000
765.698486	274.200000
765.735474	265.100000
765.772461	269.800000
765.809448	277.500000
765.846436	274.100000
765.883423	279.400000
765.920410	275.300000
765.957397	270.900000
765.994385	276.400000
766.031311	285.700000
766.068359	276.800000
766.105286	277.400000
766.142273	284.100000
766.179260	279.200000
766.216187	272.300000
766.253174	270.100000
766.290161	278.400000
766.327148	281.500000
766.364136	282.800000
766.401123	297.100000
766.438049	274.800000
766.475037	291.800000
766.512024	285.600000
766.548950	299.300000
766.585937	294.500000
766.622864	290.900000
766.659790	289.300000
766.696777	279.900000
766.733704	296.100000
766.770691	285.400000
766.807678	299.000000
766.844604	293.500000
766.881531	295.400000
766.918518	301.900000
766.955444	301.300000
766.992432	296.100000
767.029358	295.600000
767.066284	301.900000
767.103271	297.200000
767.140198	328.200000
767.177124	314.400000
767.214050	304.900000
767.251038	304.700000
767.287964	300.800000
767.324890	299.100000
767.361816	306.500000
767.398743	309.700000
767.435730	303.500000
767.472595	308.100000
767.509583	313.800000
767.546509	302.300000
767.583374	311.000000
767.620361	301.100000
767.657288	308.700000
767.694214	310.500000
767.731140	308.600000
767.768066	307.200000
767.804993	312.400000
767.841919	302.100000
767.878845	312.300000
767.915710	318.500000
767.952698	309.900000
767.989563	313.400000
768.026489	316.200000
