Model Number: SPM-001-M   
Serial Number: 10090201
Firmware Version: 004.17.6
Exposure Time: 500000.000000us
Data Taken on: 03-03-2021 10:45:43.649
Wavelength	Amplitude
733.770752	0.000000
733.808716	0.000000
733.846619	0.000000
733.884583	0.000000
733.922546	0.000000
733.960449	0.000000
733.998413	0.000000
734.036377	0.000000
734.074219	0.000000
734.112183	0.000000
734.150085	0.000000
734.188049	0.000000
734.226013	0.000000
734.263916	0.000000
734.301819	0.000000
734.339783	0.000000
734.377686	0.000000
734.415588	0.000000
734.453552	0.000000
734.491455	0.000000
734.529419	0.000000
734.567322	0.000000
734.605225	0.000000
734.643127	0.000000
734.681091	0.000000
734.718994	0.000000
734.756897	0.000000
734.794800	0.000000
734.832703	0.000000
734.870667	0.000000
734.908508	0.000000
734.946472	0.000000
734.984375	0.000000
735.022278	0.000000
735.060181	0.000000
735.098083	0.000000
735.135986	0.000000
735.173889	0.000000
735.211792	0.000000
735.249695	0.000000
735.287598	0.000000
735.325439	0.000000
735.363403	0.000000
735.401306	0.000000
735.439148	0.000000
735.477051	0.000000
735.515015	0.000000
735.552856	0.000000
735.590759	0.000000
735.628662	0.000000
735.666504	0.000000
735.704407	0.000000
735.742310	0.000000
735.780212	0.000000
735.818115	0.000000
735.856018	0.000000
735.893860	0.000000
735.931763	0.000000
735.969604	0.000000
736.007507	0.000000
736.045410	0.000000
736.083252	0.000000
736.121094	0.000000
736.158997	0.000000
736.196838	0.000000
736.234741	0.000000
736.272644	0.000000
736.310486	0.000000
736.348389	0.000000
736.386230	0.000000
736.424072	0.000000
736.461975	0.000000
736.499878	0.000000
736.537720	0.000000
736.575562	0.000000
736.613403	0.000000
736.651306	0.000000
736.689148	0.000000
736.726990	0.000000
736.764893	0.000000
736.802734	0.000000
736.840576	0.000000
736.878418	0.000000
736.916321	0.000000
736.954102	0.000000
736.992004	0.000000
737.029846	0.000000
737.067688	0.000000
737.105530	0.000000
737.143372	0.000000
737.181213	0.000000
737.219116	0.000000
737.256897	0.000000
737.294739	0.000000
737.332642	0.000000
737.370422	0.000000
737.408325	0.000000
737.446167	0.000000
737.483948	0.000000
737.521790	0.000000
737.559692	0.000000
737.597473	0.000000
737.635315	0.000000
737.673157	0.000000
737.710999	0.000000
737.748840	0.000000
737.786621	0.000000
737.824463	0.000000
737.862305	0.000000
737.900085	0.000000
737.937927	0.000000
737.975769	0.000000
738.013550	0.000000
738.051392	0.000000
738.089233	0.000000
738.127014	0.000000
738.164856	0.000000
738.202698	0.000000
738.240479	0.000000
738.278320	0.000000
738.316162	0.000000
738.353943	0.000000
738.391785	0.000000
738.429565	0.000000
738.467407	0.000000
738.505188	0.000000
738.542969	0.000000
738.580811	0.000000
738.618652	0.000000
738.656372	0.000000
738.694214	0.000000
738.732056	0.000000
738.769836	0.000000
738.807617	0.000000
738.845459	0.000000
738.883240	0.000000
738.921021	0.000000
738.958862	0.000000
738.996582	0.000000
739.034424	0.000000
739.072205	0.000000
739.109985	0.000000
739.147827	0.000000
739.185547	0.000000
739.223389	0.000000
739.261169	0.000000
739.298889	0.000000
739.336731	0.000000
739.374512	0.000000
739.412292	0.000000
739.450073	0.000000
739.487854	0.000000
739.525635	0.000000
739.563416	0.000000
739.601135	0.000000
739.638977	0.000000
739.676758	0.000000
739.714478	0.000000
739.752258	0.000000
739.790100	0.000000
739.827820	0.000000
739.865601	0.000000
739.903381	0.000000
739.941101	0.000000
739.978882	191.200000
740.016724	187.500000
740.054443	190.600000
740.092224	185.300000
740.130005	184.400000
740.167725	185.500000
740.205505	182.400000
740.243225	194.000000
740.281006	188.600000
740.318787	180.700000
740.356506	193.200000
740.394287	193.400000
740.432068	183.100000
740.469727	180.700000
740.507507	190.000000
740.545288	187.400000
740.583008	189.800000
740.620789	188.700000
740.658569	179.500000
740.696228	187.500000
740.734009	193.100000
740.771790	177.100000
740.809509	191.100000
740.847229	182.400000
740.884949	184.700000
740.922729	180.800000
740.960449	184.500000
740.998169	182.800000
741.035950	182.800000
741.073669	189.400000
741.111389	186.900000
741.149170	197.300000
741.186890	196.700000
741.224609	191.600000
741.262329	188.100000
741.300110	198.400000
741.337769	182.100000
741.375549	182.800000
741.413208	188.700000
741.450989	184.100000
741.488708	185.000000
741.526367	185.500000
741.564148	190.600000
741.601868	193.100000
741.639526	187.200000
741.677307	189.700000
741.715027	189.600000
741.752686	182.500000
741.790466	193.200000
741.828186	190.800000
741.865845	183.500000
741.903564	180.300000
741.941345	187.700000
741.979004	183.900000
742.016724	191.200000
742.054382	187.100000
742.092102	193.900000
742.129822	181.000000
742.167480	185.900000
742.205200	185.200000
742.242920	190.000000
742.280640	191.300000
742.318359	183.600000
742.356079	184.800000
742.393738	191.000000
742.431396	185.400000
742.469116	192.400000
742.506775	178.100000
742.544495	190.900000
742.582214	189.900000
742.619873	187.900000
742.657593	194.300000
742.695251	191.200000
742.732971	187.200000
742.770630	189.200000
742.808289	187.000000
742.846008	187.200000
742.883728	189.900000
742.921326	187.700000
742.959045	185.300000
742.996765	187.000000
743.034424	186.000000
743.072083	185.900000
743.109802	186.700000
743.147400	181.500000
743.185120	188.200000
743.222839	187.800000
743.260437	193.500000
743.298157	190.100000
743.335754	180.100000
743.373474	187.400000
743.411133	180.700000
743.448792	188.400000
743.486450	188.300000
743.524170	180.300000
743.561768	186.500000
743.599487	193.600000
743.637146	198.900000
743.674744	186.500000
743.712463	185.100000
743.750122	188.200000
743.787720	190.200000
743.825439	183.400000
743.863037	187.000000
743.900696	187.200000
743.938416	212.800000
743.976013	185.300000
744.013672	197.000000
744.051331	193.500000
744.088928	198.000000
744.126587	192.100000
744.164307	189.800000
744.201904	184.100000
744.239563	191.100000
744.277222	190.000000
744.314819	187.400000
744.352478	193.600000
744.390137	189.200000
744.427734	189.300000
744.465393	185.900000
744.502991	184.000000
744.540649	190.100000
744.578308	187.400000
744.615906	182.300000
744.653564	177.600000
744.691223	190.900000
744.728821	180.600000
744.766418	188.800000
744.804077	190.900000
744.841675	186.300000
744.879333	182.000000
744.916992	188.000000
744.954529	184.900000
744.992187	193.500000
745.029785	185.300000
745.067444	185.000000
745.105042	188.800000
745.142639	189.400000
745.180298	197.300000
745.217896	186.500000
745.255493	186.500000
745.293152	192.200000
745.330750	191.300000
745.368347	196.700000
745.405945	191.700000
745.443604	189.200000
745.481140	192.600000
745.518799	188.200000
745.556396	192.200000
745.593994	191.800000
745.631592	187.400000
745.669189	183.100000
745.706787	189.400000
745.744385	185.200000
745.781982	192.100000
745.819580	185.100000
745.857178	187.100000
745.894775	188.100000
745.932373	189.300000
745.969971	188.300000
746.007568	179.800000
746.045166	197.200000
746.082764	192.800000
746.120300	189.800000
746.157898	190.200000
746.195557	186.900000
746.233093	181.700000
746.270691	190.700000
746.308228	189.400000
746.345825	191.300000
746.383423	191.000000
746.420959	182.400000
746.458557	183.300000
746.496155	186.100000
746.533691	188.100000
746.571289	183.000000
746.608887	188.200000
746.646423	188.000000
746.684021	188.300000
746.721619	185.300000
746.759155	190.200000
746.796753	181.000000
746.834351	182.000000
746.871826	184.400000
746.909424	195.200000
746.946960	190.800000
746.984558	186.500000
747.022156	186.100000
747.059631	195.300000
747.097229	188.700000
747.134827	187.100000
747.172363	195.500000
747.209900	192.000000
747.247498	183.400000
747.285034	194.700000
747.322571	195.600000
747.360168	187.300000
747.397644	180.500000
747.435242	191.800000
747.472778	195.200000
747.510315	185.600000
747.547913	185.000000
747.585388	194.000000
747.622925	188.200000
747.660522	179.300000
747.697998	185.900000
747.735596	185.700000
747.773132	185.800000
747.810669	187.900000
747.848206	190.600000
747.885742	183.000000
747.923279	182.800000
747.960815	188.500000
747.998352	190.000000
748.035889	191.900000
748.073425	192.100000
748.110901	184.900000
748.148437	183.500000
748.185974	186.400000
748.223511	198.500000
748.261047	188.700000
748.298584	191.200000
748.336060	185.700000
748.373596	190.500000
748.411133	205.700000
748.448608	183.600000
748.486145	190.700000
748.523682	196.900000
748.561218	194.300000
748.598755	188.900000
748.636292	190.800000
748.673706	185.900000
748.711243	194.400000
748.748718	190.300000
748.786255	187.500000
748.823792	189.400000
748.861267	183.400000
748.898804	190.700000
748.936340	191.100000
748.973816	186.600000
749.011292	194.000000
749.048828	189.500000
749.086304	191.400000
749.123840	199.000000
749.161316	183.500000
749.198792	198.100000
749.236328	194.400000
749.273743	188.400000
749.311279	186.900000
749.348816	191.800000
749.386230	189.100000
749.423767	176.700000
749.461304	192.500000
749.498718	188.700000
749.536255	196.100000
749.573730	199.900000
749.611206	195.000000
749.648682	185.900000
749.686218	188.300000
749.723633	192.000000
749.761169	186.200000
749.798645	182.800000
749.836060	186.200000
749.873596	183.800000
749.911011	189.100000
749.948547	193.900000
749.986023	187.600000
750.023437	186.700000
750.060913	182.300000
750.098450	179.700000
750.135864	187.500000
750.173340	186.600000
750.210815	193.000000
750.248291	180.100000
750.285767	188.700000
750.323242	192.700000
750.360657	191.100000
750.398132	183.200000
750.435608	192.100000
750.473022	184.000000
750.510498	183.000000
750.547974	184.700000
750.585449	184.600000
750.622925	177.000000
750.660339	198.600000
750.697815	188.100000
750.735291	187.800000
750.772644	188.700000
750.810120	189.800000
750.847595	190.200000
750.885010	184.600000
750.922485	196.200000
750.959961	187.600000
750.997375	194.400000
751.034851	192.300000
751.072266	193.700000
751.109680	181.800000
751.147156	193.500000
751.184570	191.600000
751.221985	189.500000
751.259460	179.200000
751.296875	189.100000
751.334290	188.300000
751.371765	193.800000
751.409180	191.400000
751.446594	195.900000
751.484070	191.000000
751.521423	189.600000
751.558899	190.100000
751.596375	196.400000
751.633728	194.400000
751.671204	200.900000
751.708618	184.100000
751.746033	189.700000
751.783447	182.000000
751.820801	185.200000
751.858276	191.700000
751.895691	188.500000
751.933105	184.800000
751.970520	183.100000
752.007935	184.800000
752.045349	192.800000
752.082764	188.100000
752.120178	187.300000
752.157532	183.200000
752.195007	186.200000
752.232422	191.600000
752.269775	193.300000
752.307190	190.900000
752.344543	184.200000
752.382019	185.300000
752.419434	186.900000
752.456787	190.500000
752.494202	193.000000
752.531616	189.000000
752.568970	192.200000
752.606384	189.300000
752.643799	190.500000
752.681152	195.600000
752.718567	193.100000
752.755981	180.800000
752.793335	192.700000
752.830750	179.300000
752.868164	194.700000
752.905518	183.900000
752.942932	192.100000
752.980225	183.900000
753.017639	192.700000
753.055054	187.200000
753.092407	190.500000
753.129822	192.600000
753.167175	198.100000
753.204529	189.000000
753.241943	185.700000
753.279358	182.000000
753.316650	192.500000
753.354065	191.800000
753.391479	193.400000
753.428772	196.500000
753.466187	191.400000
753.503479	182.600000
753.540894	186.400000
753.578308	183.000000
753.615601	183.600000
753.653015	189.000000
753.690369	185.900000
753.727722	183.100000
753.765076	179.900000
753.802490	182.900000
753.839783	179.700000
753.877136	186.300000
753.914551	202.600000
753.951843	184.000000
753.989258	190.100000
754.026611	188.800000
754.063904	187.700000
754.101257	182.900000
754.138611	179.900000
754.175964	187.300000
754.213318	197.900000
754.250610	181.500000
754.288025	185.300000
754.325378	182.200000
754.362671	193.900000
754.400024	186.800000
754.437378	196.900000
754.474670	199.800000
754.512085	185.300000
754.549438	189.600000
754.586731	186.300000
754.624084	188.800000
754.661438	183.900000
754.698730	197.200000
754.736084	185.900000
754.773376	187.500000
754.810730	191.300000
754.848083	186.000000
754.885315	191.000000
754.922668	180.800000
754.960022	182.500000
754.997314	192.400000
755.034668	188.200000
755.072021	188.100000
755.109253	185.500000
755.146606	194.800000
755.183960	184.600000
755.221252	195.500000
755.258545	193.100000
755.295898	194.200000
755.333191	194.600000
755.370544	190.400000
755.407776	187.400000
755.445129	187.700000
755.482422	193.200000
755.519714	185.000000
755.557068	181.200000
755.594360	180.500000
755.631653	191.300000
755.668945	196.100000
755.706299	189.800000
755.743530	199.200000
755.780884	195.200000
755.818176	192.700000
755.855408	192.900000
755.892761	190.100000
755.930054	189.600000
755.967346	188.200000
756.004639	192.000000
756.041870	188.200000
756.079224	193.000000
756.116516	183.600000
756.153748	192.400000
756.191040	195.900000
756.228394	191.700000
756.265625	185.400000
756.302917	190.500000
756.340210	186.100000
756.377441	194.700000
756.414795	195.900000
756.452087	188.800000
756.489319	183.200000
756.526611	192.500000
756.563843	190.200000
756.601135	199.100000
756.638428	197.100000
756.675659	188.600000
756.712952	193.400000
756.750244	193.400000
756.787476	191.500000
756.824768	196.000000
756.862061	187.600000
756.899292	236.600000
756.936584	193.800000
756.973816	200.300000
757.011047	202.500000
757.048340	191.500000
757.085632	190.300000
757.122864	205.300000
757.160156	187.400000
757.197327	193.400000
757.234619	195.600000
757.271912	189.000000
757.309082	195.700000
757.346375	187.400000
757.383667	197.900000
757.420837	192.200000
757.458130	193.100000
757.495422	189.800000
757.532593	192.400000
757.569885	184.500000
757.607117	187.200000
757.644348	191.900000
757.681580	204.500000
757.718811	180.200000
757.756042	191.300000
757.793335	187.500000
757.830505	195.100000
757.867798	187.500000
757.905029	188.700000
757.942200	194.100000
757.979492	188.200000
758.016724	191.800000
758.053894	190.300000
758.091187	209.700000
758.128418	194.800000
758.165588	192.600000
758.202820	204.600000
758.240112	190.900000
758.277283	204.100000
758.314514	193.400000
758.351685	190.700000
758.388916	202.400000
758.426147	200.600000
758.463379	203.400000
758.500610	197.200000
758.537842	194.900000
758.575012	201.100000
758.612244	190.500000
758.649475	209.100000
758.686646	187.700000
758.723877	201.000000
758.761108	203.100000
758.798279	194.800000
758.835510	197.900000
758.872742	201.800000
758.909851	197.600000
758.947083	198.800000
758.984253	197.100000
759.021484	201.000000
759.058716	199.600000
759.095886	200.200000
759.133057	196.000000
759.170288	200.200000
759.207458	193.800000
759.244690	207.700000
759.281860	206.300000
759.319031	195.500000
759.356262	195.000000
759.393433	194.000000
759.430603	196.400000
759.467773	195.700000
759.505005	204.100000
759.542175	202.700000
759.579346	196.300000
759.616516	198.500000
759.653687	202.900000
759.690918	195.200000
759.728027	200.700000
759.765259	199.900000
759.802429	202.900000
759.839539	201.700000
759.876770	206.100000
759.913940	209.700000
759.951111	203.200000
759.988281	199.900000
760.025452	199.300000
760.062561	196.400000
760.099792	210.400000
760.136963	205.100000
760.174072	201.000000
760.211243	196.200000
760.248413	198.400000
760.285583	197.700000
760.322754	212.600000
760.359863	207.600000
760.397034	209.300000
760.434204	200.500000
760.471375	203.100000
760.508545	201.600000
760.545715	200.700000
760.582825	198.200000
760.619995	207.100000
760.657166	195.800000
760.694275	209.000000
760.731445	204.500000
760.768555	206.000000
760.805664	208.400000
760.842834	204.500000
760.879944	206.700000
760.917114	204.400000
760.954285	202.200000
760.991394	198.700000
761.028564	209.100000
761.065674	205.900000
761.102783	199.300000
761.139954	207.500000
761.177124	208.600000
761.214172	209.700000
761.251343	203.900000
761.288452	203.400000
761.325562	209.500000
761.362732	200.300000
761.399841	204.700000
761.436951	205.300000
761.474121	201.200000
761.511169	204.300000
761.548340	210.300000
761.585449	209.600000
761.622559	210.300000
761.659668	206.500000
761.696838	212.400000
761.733887	207.600000
761.771057	203.800000
761.808167	206.200000
761.845276	212.600000
761.882385	217.700000
761.919434	208.800000
761.956604	227.800000
761.993713	204.900000
762.030762	215.200000
762.067871	209.300000
762.105042	208.100000
762.142090	216.000000
762.179199	210.700000
762.216309	214.900000
762.253418	225.200000
762.290527	220.600000
762.327637	215.100000
762.364685	206.400000
762.401794	214.100000
762.438904	215.800000
762.475952	209.400000
762.513062	206.400000
762.550110	209.000000
762.587219	223.600000
762.624329	220.500000
762.661377	215.900000
762.698486	214.000000
762.735596	213.800000
762.772644	208.900000
762.809753	206.000000
762.846863	213.800000
762.883911	217.800000
762.921021	217.900000
762.958069	213.200000
762.995117	222.400000
763.032227	222.500000
763.069336	214.200000
763.106323	210.200000
763.143433	209.700000
763.180481	216.300000
763.217590	218.900000
763.254639	213.400000
763.291687	217.100000
763.328735	223.600000
763.365845	216.200000
763.402893	215.400000
763.439941	217.700000
763.477051	220.200000
763.514038	220.700000
763.551147	215.000000
763.588196	221.100000
763.625244	219.500000
763.662292	225.200000
763.699402	228.200000
763.736389	224.000000
763.773499	229.800000
763.810486	224.900000
763.847534	221.700000
763.884644	223.300000
763.921631	219.900000
763.958679	231.000000
763.995728	221.500000
764.032776	231.600000
764.069824	219.000000
764.106873	228.800000
764.143860	232.400000
764.180969	222.500000
764.218018	230.200000
764.255005	222.200000
764.292053	224.500000
764.329102	234.500000
764.366089	234.500000
764.403137	232.100000
764.440125	224.200000
764.477173	226.500000
764.514221	230.400000
764.551208	228.000000
764.588257	224.300000
764.625305	232.000000
764.662292	238.100000
764.699341	241.300000
764.736389	232.300000
764.773376	246.700000
764.810425	233.700000
764.847473	241.300000
764.884399	236.400000
764.921448	245.300000
764.958435	243.800000
764.995483	233.700000
765.032532	251.600000
765.069458	235.400000
765.106506	235.300000
765.143555	234.000000
765.180481	240.100000
765.217529	247.500000
765.254578	233.600000
765.291504	240.800000
765.328552	239.500000
765.365540	235.800000
765.402527	251.200000
765.439575	237.900000
765.476501	234.700000
765.513550	236.600000
765.550537	242.200000
765.587463	248.800000
765.624512	240.800000
765.661499	232.900000
765.698486	249.100000
765.735474	238.200000
765.772461	242.900000
765.809448	249.400000
765.846436	247.900000
765.883423	250.500000
765.920410	248.100000
765.957397	241.600000
765.994385	247.800000
766.031311	256.000000
766.068359	249.900000
766.105286	249.700000
766.142273	254.900000
766.179260	252.000000
766.216187	245.700000
766.253174	242.400000
766.290161	249.900000
766.327148	253.200000
766.364136	253.400000
766.401123	269.200000
766.438049	247.500000
766.475037	261.400000
766.512024	255.200000
766.548950	269.600000
766.585937	263.400000
766.622864	258.400000
766.659790	256.300000
766.696777	247.200000
766.733704	260.600000
766.770691	253.500000
766.807678	266.000000
766.844604	262.200000
766.881531	259.300000
766.918518	265.700000
766.955444	266.300000
766.992432	259.900000
767.029358	262.100000
767.066284	268.400000
767.103271	261.400000
767.140198	294.200000
767.177124	278.800000
767.214050	267.000000
767.251038	268.800000
767.287964	265.600000
767.324890	263.200000
767.361816	268.900000
767.398743	272.300000
767.435730	266.300000
767.472595	270.900000
767.509583	278.000000
767.546509	262.100000
767.583374	271.200000
767.620361	262.500000
767.657288	269.700000
767.694214	268.900000
767.731140	269.000000
767.768066	270.200000
767.804993	276.400000
767.841919	267.000000
767.878845	272.400000
767.915710	280.800000
767.952698	273.000000
767.989563	276.700000
768.026489	278.000000
