Model Number: SPM-001-M   
Serial Number: 10090201
Firmware Version: 004.17.6
Exposure Time: 500000.000000us
Data Taken on: 03-03-2021 10:48:35.647
Wavelength	Amplitude
733.770752	0.000000
733.808716	0.000000
733.846619	0.000000
733.884583	0.000000
733.922546	0.000000
733.960449	0.000000
733.998413	0.000000
734.036377	0.000000
734.074219	0.000000
734.112183	0.000000
734.150085	0.000000
734.188049	0.000000
734.226013	0.000000
734.263916	0.000000
734.301819	0.000000
734.339783	0.000000
734.377686	0.000000
734.415588	0.000000
734.453552	0.000000
734.491455	0.000000
734.529419	0.000000
734.567322	0.000000
734.605225	0.000000
734.643127	0.000000
734.681091	0.000000
734.718994	0.000000
734.756897	0.000000
734.794800	0.000000
734.832703	0.000000
734.870667	0.000000
734.908508	0.000000
734.946472	0.000000
734.984375	0.000000
735.022278	0.000000
735.060181	0.000000
735.098083	0.000000
735.135986	0.000000
735.173889	0.000000
735.211792	0.000000
735.249695	0.000000
735.287598	0.000000
735.325439	0.000000
735.363403	0.000000
735.401306	0.000000
735.439148	0.000000
735.477051	0.000000
735.515015	0.000000
735.552856	0.000000
735.590759	0.000000
735.628662	0.000000
735.666504	0.000000
735.704407	0.000000
735.742310	0.000000
735.780212	0.000000
735.818115	0.000000
735.856018	0.000000
735.893860	0.000000
735.931763	0.000000
735.969604	0.000000
736.007507	0.000000
736.045410	0.000000
736.083252	0.000000
736.121094	0.000000
736.158997	0.000000
736.196838	0.000000
736.234741	0.000000
736.272644	0.000000
736.310486	0.000000
736.348389	0.000000
736.386230	0.000000
736.424072	0.000000
736.461975	0.000000
736.499878	0.000000
736.537720	0.000000
736.575562	0.000000
736.613403	0.000000
736.651306	0.000000
736.689148	0.000000
736.726990	0.000000
736.764893	0.000000
736.802734	0.000000
736.840576	0.000000
736.878418	0.000000
736.916321	0.000000
736.954102	0.000000
736.992004	0.000000
737.029846	0.000000
737.067688	0.000000
737.105530	0.000000
737.143372	0.000000
737.181213	0.000000
737.219116	0.000000
737.256897	0.000000
737.294739	0.000000
737.332642	0.000000
737.370422	0.000000
737.408325	0.000000
737.446167	0.000000
737.483948	0.000000
737.521790	0.000000
737.559692	0.000000
737.597473	0.000000
737.635315	0.000000
737.673157	0.000000
737.710999	0.000000
737.748840	0.000000
737.786621	0.000000
737.824463	0.000000
737.862305	0.000000
737.900085	0.000000
737.937927	0.000000
737.975769	0.000000
738.013550	0.000000
738.051392	0.000000
738.089233	0.000000
738.127014	0.000000
738.164856	0.000000
738.202698	0.000000
738.240479	0.000000
738.278320	0.000000
738.316162	0.000000
738.353943	0.000000
738.391785	0.000000
738.429565	0.000000
738.467407	0.000000
738.505188	0.000000
738.542969	0.000000
738.580811	0.000000
738.618652	0.000000
738.656372	0.000000
738.694214	0.000000
738.732056	0.000000
738.769836	0.000000
738.807617	0.000000
738.845459	0.000000
738.883240	0.000000
738.921021	0.000000
738.958862	0.000000
738.996582	0.000000
739.034424	0.000000
739.072205	0.000000
739.109985	0.000000
739.147827	0.000000
739.185547	0.000000
739.223389	0.000000
739.261169	0.000000
739.298889	0.000000
739.336731	0.000000
739.374512	0.000000
739.412292	0.000000
739.450073	0.000000
739.487854	0.000000
739.525635	0.000000
739.563416	0.000000
739.601135	0.000000
739.638977	0.000000
739.676758	0.000000
739.714478	0.000000
739.752258	0.000000
739.790100	0.000000
739.827820	0.000000
739.865601	0.000000
739.903381	0.000000
739.941101	0.000000
739.978882	191.200000
740.016724	187.100000
740.054443	191.800000
740.092224	185.500000
740.130005	184.800000
740.167725	186.000000
740.205505	185.200000
740.243225	194.800000
740.281006	188.400000
740.318787	179.500000
740.356506	193.000000
740.394287	193.500000
740.432068	183.700000
740.469727	180.700000
740.507507	190.200000
740.545288	188.300000
740.583008	188.500000
740.620789	189.000000
740.658569	178.500000
740.696228	187.900000
740.734009	191.400000
740.771790	176.800000
740.809509	189.700000
740.847229	183.300000
740.884949	183.000000
740.922729	181.400000
740.960449	184.700000
740.998169	183.000000
741.035950	183.000000
741.073669	190.400000
741.111389	186.300000
741.149170	197.400000
741.186890	197.900000
741.224609	191.900000
741.262329	187.300000
741.300110	197.700000
741.337769	182.100000
741.375549	181.200000
741.413208	187.900000
741.450989	184.000000
741.488708	183.600000
741.526367	185.600000
741.564148	190.400000
741.601868	191.200000
741.639526	185.900000
741.677307	188.200000
741.715027	189.500000
741.752686	183.800000
741.790466	196.700000
741.828186	192.000000
741.865845	183.400000
741.903564	179.200000
741.941345	187.700000
741.979004	183.900000
742.016724	190.500000
742.054382	187.700000
742.092102	193.500000
742.129822	181.300000
742.167480	186.400000
742.205200	186.900000
742.242920	190.100000
742.280640	190.200000
742.318359	184.400000
742.356079	185.300000
742.393738	191.600000
742.431396	186.200000
742.469116	192.300000
742.506775	176.200000
742.544495	191.000000
742.582214	192.600000
742.619873	187.100000
742.657593	193.400000
742.695251	191.900000
742.732971	186.300000
742.770630	190.500000
742.808289	186.500000
742.846008	188.000000
742.883728	187.400000
742.921326	186.900000
742.959045	182.600000
742.996765	190.000000
743.034424	184.800000
743.072083	185.900000
743.109802	185.800000
743.147400	182.900000
743.185120	189.200000
743.222839	188.300000
743.260437	192.100000
743.298157	189.800000
743.335754	179.700000
743.373474	187.800000
743.411133	179.800000
743.448792	187.700000
743.486450	187.200000
743.524170	180.500000
743.561768	188.900000
743.599487	193.400000
743.637146	199.600000
743.674744	186.600000
743.712463	186.200000
743.750122	190.000000
743.787720	189.700000
743.825439	184.400000
743.863037	185.800000
743.900696	187.300000
743.938416	213.500000
743.976013	186.700000
744.013672	197.200000
744.051331	192.100000
744.088928	197.800000
744.126587	193.500000
744.164307	189.400000
744.201904	184.300000
744.239563	192.300000
744.277222	190.200000
744.314819	188.000000
744.352478	194.100000
744.390137	190.800000
744.427734	189.000000
744.465393	186.300000
744.502991	183.200000
744.540649	191.400000
744.578308	185.700000
744.615906	183.200000
744.653564	176.800000
744.691223	191.800000
744.728821	179.900000
744.766418	189.200000
744.804077	189.500000
744.841675	185.800000
744.879333	181.000000
744.916992	187.000000
744.954529	184.700000
744.992187	192.900000
745.029785	186.200000
745.067444	184.400000
745.105042	187.200000
745.142639	190.600000
745.180298	196.900000
745.217896	186.800000
745.255493	185.000000
745.293152	192.100000
745.330750	191.300000
745.368347	195.900000
745.405945	190.100000
745.443604	188.200000
745.481140	191.600000
745.518799	185.800000
745.556396	192.400000
745.593994	193.100000
745.631592	187.200000
745.669189	183.800000
745.706787	190.000000
745.744385	184.900000
745.781982	191.900000
745.819580	185.300000
745.857178	187.900000
745.894775	187.500000
745.932373	189.100000
745.969971	189.800000
746.007568	180.400000
746.045166	196.300000
746.082764	193.500000
746.120300	190.300000
746.157898	192.200000
746.195557	187.700000
746.233093	183.700000
746.270691	189.900000
746.308228	190.600000
746.345825	192.400000
746.383423	193.100000
746.420959	183.500000
746.458557	186.300000
746.496155	184.500000
746.533691	187.900000
746.571289	182.000000
746.608887	187.900000
746.646423	187.400000
746.684021	189.000000
746.721619	183.300000
746.759155	190.700000
746.796753	179.800000
746.834351	181.200000
746.871826	182.800000
746.909424	195.200000
746.946960	189.200000
746.984558	187.100000
747.022156	184.600000
747.059631	196.300000
747.097229	188.800000
747.134827	186.600000
747.172363	195.100000
747.209900	192.300000
747.247498	182.800000
747.285034	195.700000
747.322571	193.300000
747.360168	186.900000
747.397644	179.500000
747.435242	192.000000
747.472778	194.800000
747.510315	185.800000
747.547913	185.200000
747.585388	194.300000
747.622925	189.200000
747.660522	181.600000
747.697998	186.000000
747.735596	186.900000
747.773132	185.700000
747.810669	187.400000
747.848206	191.500000
747.885742	182.500000
747.923279	182.500000
747.960815	189.500000
747.998352	189.700000
748.035889	192.100000
748.073425	192.100000
748.110901	184.400000
748.148437	183.200000
748.185974	186.400000
748.223511	198.800000
748.261047	188.900000
748.298584	191.700000
748.336060	185.300000
748.373596	191.000000
748.411133	205.700000
748.448608	182.700000
748.486145	190.900000
748.523682	195.400000
748.561218	192.700000
748.598755	188.000000
748.636292	189.700000
748.673706	187.700000
748.711243	194.700000
748.748718	190.700000
748.786255	187.400000
748.823792	187.000000
748.861267	183.300000
748.898804	190.200000
748.936340	188.600000
748.973816	186.300000
749.011292	194.000000
749.048828	190.300000
749.086304	190.300000
749.123840	200.100000
749.161316	182.500000
749.198792	199.100000
749.236328	194.400000
749.273743	189.300000
749.311279	186.600000
749.348816	191.800000
749.386230	188.200000
749.423767	177.100000
749.461304	189.800000
749.498718	189.800000
749.536255	195.100000
749.573730	200.100000
749.611206	195.200000
749.648682	188.300000
749.686218	188.000000
749.723633	192.600000
749.761169	186.200000
749.798645	184.500000
749.836060	187.200000
749.873596	183.600000
749.911011	188.400000
749.948547	194.200000
749.986023	188.100000
750.023437	186.300000
750.060913	182.500000
750.098450	181.700000
750.135864	188.200000
750.173340	188.000000
750.210815	194.600000
750.248291	182.000000
750.285767	189.300000
750.323242	193.300000
750.360657	190.300000
750.398132	181.900000
750.435608	192.100000
750.473022	183.300000
750.510498	184.100000
750.547974	182.600000
750.585449	186.200000
750.622925	176.800000
750.660339	198.200000
750.697815	186.200000
750.735291	187.700000
750.772644	187.200000
750.810120	189.600000
750.847595	190.500000
750.885010	183.700000
750.922485	195.400000
750.959961	186.600000
750.997375	194.700000
751.034851	192.200000
751.072266	193.100000
751.109680	181.500000
751.147156	192.900000
751.184570	192.000000
751.221985	190.700000
751.259460	180.400000
751.296875	188.700000
751.334290	188.200000
751.371765	191.700000
751.409180	191.900000
751.446594	194.200000
751.484070	191.100000
751.521423	190.000000
751.558899	189.100000
751.596375	196.000000
751.633728	196.900000
751.671204	200.300000
751.708618	183.200000
751.746033	191.100000
751.783447	182.700000
751.820801	184.000000
751.858276	191.400000
751.895691	187.400000
751.933105	185.800000
751.970520	183.200000
752.007935	185.600000
752.045349	192.400000
752.082764	187.200000
752.120178	187.400000
752.157532	183.500000
752.195007	185.200000
752.232422	190.400000
752.269775	193.100000
752.307190	191.300000
752.344543	183.800000
752.382019	187.200000
752.419434	186.000000
752.456787	189.400000
752.494202	192.800000
752.531616	187.900000
752.568970	192.400000
752.606384	188.700000
752.643799	191.100000
752.681152	196.000000
752.718567	192.100000
752.755981	180.300000
752.793335	190.600000
752.830750	178.800000
752.868164	193.200000
752.905518	183.300000
752.942932	192.600000
752.980225	182.900000
753.017639	194.300000
753.055054	186.400000
753.092407	190.900000
753.129822	193.700000
753.167175	198.400000
753.204529	188.600000
753.241943	185.300000
753.279358	182.200000
753.316650	191.300000
753.354065	191.500000
753.391479	194.500000
753.428772	197.400000
753.466187	191.100000
753.503479	182.000000
753.540894	188.100000
753.578308	183.500000
753.615601	183.400000
753.653015	187.500000
753.690369	186.600000
753.727722	185.200000
753.765076	181.800000
753.802490	184.700000
753.839783	180.500000
753.877136	186.100000
753.914551	202.500000
753.951843	184.300000
753.989258	192.700000
754.026611	189.600000
754.063904	191.200000
754.101257	184.600000
754.138611	179.800000
754.175964	188.800000
754.213318	198.600000
754.250610	180.600000
754.288025	184.800000
754.325378	181.900000
754.362671	192.600000
754.400024	186.400000
754.437378	195.500000
754.474670	198.800000
754.512085	183.500000
754.549438	188.500000
754.586731	186.100000
754.624084	187.600000
754.661438	181.900000
754.698730	196.000000
754.736084	184.300000
754.773376	187.700000
754.810730	190.600000
754.848083	186.300000
754.885315	192.400000
754.922668	181.000000
754.960022	181.400000
754.997314	192.700000
755.034668	188.000000
755.072021	187.700000
755.109253	185.500000
755.146606	195.000000
755.183960	184.800000
755.221252	195.900000
755.258545	191.900000
755.295898	193.100000
755.333191	194.900000
755.370544	191.900000
755.407776	188.200000
755.445129	186.800000
755.482422	191.900000
755.519714	185.000000
755.557068	182.100000
755.594360	178.900000
755.631653	191.000000
755.668945	194.800000
755.706299	190.200000
755.743530	199.200000
755.780884	195.700000
755.818176	192.300000
755.855408	193.200000
755.892761	188.900000
755.930054	188.500000
755.967346	189.700000
756.004639	192.800000
756.041870	187.500000
756.079224	194.600000
756.116516	183.400000
756.153748	193.000000
756.191040	194.700000
756.228394	191.200000
756.265625	182.900000
756.302917	188.500000
756.340210	185.100000
756.377441	194.800000
756.414795	192.800000
756.452087	188.400000
756.489319	182.200000
756.526611	192.900000
756.563843	187.700000
756.601135	200.500000
756.638428	197.600000
756.675659	187.500000
756.712952	192.400000
756.750244	193.800000
756.787476	190.200000
756.824768	196.400000
756.862061	186.700000
756.899292	236.900000
756.936584	194.300000
756.973816	201.000000
757.011047	202.700000
757.048340	191.000000
757.085632	189.800000
757.122864	206.400000
757.160156	188.700000
757.197327	192.800000
757.234619	195.700000
757.271912	189.600000
757.309082	195.100000
757.346375	187.300000
757.383667	197.600000
757.420837	192.400000
757.458130	193.000000
757.495422	189.400000
757.532593	193.400000
757.569885	184.800000
757.607117	187.300000
757.644348	192.800000
757.681580	205.600000
757.718811	179.600000
757.756042	192.600000
757.793335	186.800000
757.830505	194.800000
757.867798	187.800000
757.905029	189.000000
757.942200	191.400000
757.979492	188.400000
758.016724	188.800000
758.053894	189.400000
758.091187	207.500000
758.128418	192.500000
758.165588	190.400000
758.202820	203.200000
758.240112	189.100000
758.277283	203.300000
758.314514	193.000000
758.351685	190.200000
758.388916	201.600000
758.426147	201.400000
758.463379	200.800000
758.500610	195.600000
758.537842	192.400000
758.575012	200.500000
758.612244	188.500000
758.649475	206.900000
758.686646	187.100000
758.723877	200.700000
758.761108	200.900000
758.798279	194.400000
758.835510	196.000000
758.872742	201.200000
758.909851	196.200000
758.947083	198.700000
758.984253	196.400000
759.021484	199.800000
759.058716	199.600000
759.095886	198.500000
759.133057	195.800000
759.170288	200.100000
759.207458	193.000000
759.244690	205.900000
759.281860	206.100000
759.319031	196.200000
759.356262	194.600000
759.393433	193.700000
759.430603	195.700000
759.467773	195.600000
759.505005	202.800000
759.542175	201.700000
759.579346	197.800000
759.616516	196.400000
759.653687	201.400000
759.690918	193.900000
759.728027	199.800000
759.765259	198.800000
759.802429	201.800000
759.839539	199.000000
759.876770	205.500000
759.913940	208.000000
759.951111	200.800000
759.988281	199.000000
760.025452	197.700000
760.062561	194.700000
760.099792	208.000000
760.136963	201.100000
760.174072	199.200000
760.211243	193.300000
760.248413	195.700000
760.285583	195.800000
760.322754	210.600000
760.359863	205.700000
760.397034	207.800000
760.434204	198.900000
760.471375	202.400000
760.508545	198.400000
760.545715	200.900000
760.582825	196.300000
760.619995	206.300000
760.657166	195.100000
760.694275	207.400000
760.731445	204.300000
760.768555	203.400000
760.805664	205.900000
760.842834	204.000000
760.879944	205.000000
760.917114	203.200000
760.954285	202.500000
760.991394	196.100000
761.028564	207.700000
761.065674	206.100000
761.102783	199.300000
761.139954	207.200000
761.177124	208.000000
761.214172	209.400000
761.251343	203.000000
761.288452	203.500000
761.325562	206.600000
761.362732	198.800000
761.399841	202.300000
761.436951	204.200000
761.474121	199.300000
761.511169	203.300000
761.548340	209.200000
761.585449	206.300000
761.622559	208.700000
761.659668	206.200000
761.696838	210.700000
761.733887	205.200000
761.771057	203.900000
761.808167	201.600000
761.845276	209.200000
761.882385	217.100000
761.919434	206.300000
761.956604	223.500000
761.993713	201.500000
762.030762	213.000000
762.067871	206.200000
762.105042	205.600000
762.142090	215.100000
762.179199	206.900000
762.216309	213.100000
762.253418	221.600000
762.290527	218.300000
762.327637	212.500000
762.364685	205.400000
762.401794	213.900000
762.438904	212.400000
762.475952	204.500000
762.513062	205.800000
762.550110	204.400000
762.587219	221.300000
762.624329	218.600000
762.661377	212.900000
762.698486	212.800000
762.735596	212.600000
762.772644	206.000000
762.809753	203.100000
762.846863	211.700000
762.883911	215.100000
762.921021	214.500000
762.958069	212.100000
762.995117	219.800000
763.032227	220.300000
763.069336	213.600000
763.106323	208.600000
763.143433	207.800000
763.180481	216.100000
763.217590	217.400000
763.254639	213.400000
763.291687	213.800000
763.328735	221.200000
763.365845	213.100000
763.402893	210.400000
763.439941	217.300000
763.477051	217.700000
763.514038	221.300000
763.551147	213.200000
763.588196	217.300000
763.625244	213.700000
763.662292	222.900000
763.699402	225.200000
763.736389	220.500000
763.773499	228.900000
763.810486	222.400000
763.847534	218.400000
763.884644	221.100000
763.921631	214.700000
763.958679	229.600000
763.995728	218.600000
764.032776	227.600000
764.069824	213.500000
764.106873	224.000000
764.143860	230.300000
764.180969	222.100000
764.218018	227.300000
764.255005	219.200000
764.292053	222.400000
764.329102	232.600000
764.366089	231.100000
764.403137	229.300000
764.440125	220.000000
764.477173	226.500000
764.514221	227.200000
764.551208	227.000000
764.588257	220.600000
764.625305	231.100000
764.662292	233.100000
764.699341	238.500000
764.736389	229.200000
764.773376	245.000000
764.810425	231.900000
764.847473	239.200000
764.884399	234.400000
764.921448	243.200000
764.958435	240.900000
764.995483	233.500000
765.032532	247.500000
765.069458	231.900000
765.106506	234.100000
765.143555	231.200000
765.180481	237.500000
765.217529	243.500000
765.254578	230.800000
765.291504	237.700000
765.328552	236.200000
765.365540	231.200000
765.402527	249.000000
765.439575	234.400000
765.476501	232.800000
765.513550	230.800000
765.550537	237.500000
765.587463	244.800000
765.624512	236.700000
765.661499	227.000000
765.698486	244.700000
765.735474	233.900000
765.772461	237.900000
765.809448	245.700000
765.846436	242.600000
765.883423	246.400000
765.920410	242.600000
765.957397	237.100000
765.994385	244.100000
766.031311	251.000000
766.068359	246.800000
766.105286	246.100000
766.142273	252.000000
766.179260	246.000000
766.216187	241.800000
766.253174	236.500000
766.290161	246.600000
766.327148	248.100000
766.364136	249.600000
766.401123	262.500000
766.438049	242.800000
766.475037	255.900000
766.512024	252.500000
766.548950	265.500000
766.585937	261.300000
766.622864	255.100000
766.659790	254.400000
766.696777	243.700000
766.733704	258.100000
766.770691	247.100000
766.807678	261.500000
766.844604	257.800000
766.881531	255.600000
766.918518	262.300000
766.955444	260.900000
766.992432	255.500000
767.029358	259.000000
767.066284	262.000000
767.103271	258.400000
767.140198	288.600000
767.177124	272.500000
767.214050	262.000000
767.251038	262.800000
767.287964	261.300000
767.324890	257.500000
767.361816	263.700000
767.398743	266.600000
767.435730	261.500000
767.472595	264.800000
767.509583	272.200000
767.546509	256.900000
767.583374	265.000000
767.620361	256.200000
767.657288	263.200000
767.694214	262.100000
767.731140	264.600000
767.768066	262.100000
767.804993	268.900000
767.841919	258.900000
767.878845	266.900000
767.915710	272.600000
767.952698	266.700000
767.989563	268.100000
768.026489	271.700000
