Model Number: SPM-001-M   
Serial Number: 10090201
Firmware Version: 004.17.6
Exposure Time: 500000.000000us
Data Taken on: 03-03-2021 09:48:49.169
Wavelength	Amplitude
733.770752	0.000000
733.808716	0.000000
733.846619	0.000000
733.884583	0.000000
733.922546	0.000000
733.960449	0.000000
733.998413	0.000000
734.036377	0.000000
734.074219	0.000000
734.112183	0.000000
734.150085	0.000000
734.188049	0.000000
734.226013	0.000000
734.263916	0.000000
734.301819	0.000000
734.339783	0.000000
734.377686	0.000000
734.415588	0.000000
734.453552	0.000000
734.491455	0.000000
734.529419	0.000000
734.567322	0.000000
734.605225	0.000000
734.643127	0.000000
734.681091	0.000000
734.718994	0.000000
734.756897	0.000000
734.794800	0.000000
734.832703	0.000000
734.870667	0.000000
734.908508	0.000000
734.946472	0.000000
734.984375	0.000000
735.022278	0.000000
735.060181	0.000000
735.098083	0.000000
735.135986	0.000000
735.173889	0.000000
735.211792	0.000000
735.249695	0.000000
735.287598	0.000000
735.325439	0.000000
735.363403	0.000000
735.401306	0.000000
735.439148	0.000000
735.477051	0.000000
735.515015	0.000000
735.552856	0.000000
735.590759	0.000000
735.628662	0.000000
735.666504	0.000000
735.704407	0.000000
735.742310	0.000000
735.780212	0.000000
735.818115	0.000000
735.856018	0.000000
735.893860	0.000000
735.931763	0.000000
735.969604	0.000000
736.007507	0.000000
736.045410	0.000000
736.083252	0.000000
736.121094	0.000000
736.158997	0.000000
736.196838	0.000000
736.234741	0.000000
736.272644	0.000000
736.310486	0.000000
736.348389	0.000000
736.386230	0.000000
736.424072	0.000000
736.461975	0.000000
736.499878	0.000000
736.537720	0.000000
736.575562	0.000000
736.613403	0.000000
736.651306	0.000000
736.689148	0.000000
736.726990	0.000000
736.764893	0.000000
736.802734	0.000000
736.840576	0.000000
736.878418	0.000000
736.916321	0.000000
736.954102	0.000000
736.992004	0.000000
737.029846	0.000000
737.067688	0.000000
737.105530	0.000000
737.143372	0.000000
737.181213	0.000000
737.219116	0.000000
737.256897	0.000000
737.294739	0.000000
737.332642	0.000000
737.370422	0.000000
737.408325	0.000000
737.446167	0.000000
737.483948	0.000000
737.521790	0.000000
737.559692	0.000000
737.597473	0.000000
737.635315	0.000000
737.673157	0.000000
737.710999	0.000000
737.748840	0.000000
737.786621	0.000000
737.824463	0.000000
737.862305	0.000000
737.900085	0.000000
737.937927	0.000000
737.975769	0.000000
738.013550	0.000000
738.051392	0.000000
738.089233	0.000000
738.127014	0.000000
738.164856	0.000000
738.202698	0.000000
738.240479	0.000000
738.278320	0.000000
738.316162	0.000000
738.353943	0.000000
738.391785	0.000000
738.429565	0.000000
738.467407	0.000000
738.505188	0.000000
738.542969	0.000000
738.580811	0.000000
738.618652	0.000000
738.656372	0.000000
738.694214	0.000000
738.732056	0.000000
738.769836	0.000000
738.807617	0.000000
738.845459	0.000000
738.883240	0.000000
738.921021	0.000000
738.958862	0.000000
738.996582	0.000000
739.034424	0.000000
739.072205	0.000000
739.109985	0.000000
739.147827	0.000000
739.185547	0.000000
739.223389	0.000000
739.261169	0.000000
739.298889	0.000000
739.336731	0.000000
739.374512	0.000000
739.412292	0.000000
739.450073	0.000000
739.487854	0.000000
739.525635	0.000000
739.563416	0.000000
739.601135	0.000000
739.638977	0.000000
739.676758	0.000000
739.714478	0.000000
739.752258	0.000000
739.790100	0.000000
739.827820	0.000000
739.865601	0.000000
739.903381	0.000000
739.941101	0.000000
739.978882	189.400000
740.016724	186.400000
740.054443	190.000000
740.092224	183.700000
740.130005	182.800000
740.167725	183.300000
740.205505	181.600000
740.243225	193.000000
740.281006	187.100000
740.318787	180.800000
740.356506	190.800000
740.394287	192.200000
740.432068	182.100000
740.469727	181.300000
740.507507	189.100000
740.545288	185.600000
740.583008	187.700000
740.620789	188.800000
740.658569	177.300000
740.696228	185.100000
740.734009	190.500000
740.771790	174.800000
740.809509	189.000000
740.847229	180.600000
740.884949	182.400000
740.922729	177.700000
740.960449	183.800000
740.998169	181.000000
741.035950	180.600000
741.073669	186.700000
741.111389	184.800000
741.149170	194.900000
741.186890	195.700000
741.224609	190.400000
741.262329	188.000000
741.300110	195.000000
741.337769	180.700000
741.375549	180.900000
741.413208	187.900000
741.450989	182.200000
741.488708	183.700000
741.526367	183.400000
741.564148	189.500000
741.601868	188.400000
741.639526	186.200000
741.677307	187.600000
741.715027	189.800000
741.752686	181.500000
741.790466	194.500000
741.828186	188.100000
741.865845	181.400000
741.903564	176.800000
741.941345	186.500000
741.979004	181.500000
742.016724	189.500000
742.054382	184.900000
742.092102	191.600000
742.129822	178.700000
742.167480	184.700000
742.205200	183.000000
742.242920	189.100000
742.280640	189.900000
742.318359	183.400000
742.356079	184.200000
742.393738	190.400000
742.431396	183.900000
742.469116	190.200000
742.506775	175.800000
742.544495	189.400000
742.582214	188.500000
742.619873	185.800000
742.657593	193.200000
742.695251	190.600000
742.732971	184.500000
742.770630	187.800000
742.808289	185.500000
742.846008	185.800000
742.883728	187.500000
742.921326	186.400000
742.959045	182.700000
742.996765	183.800000
743.034424	184.500000
743.072083	182.100000
743.109802	186.200000
743.147400	178.800000
743.185120	187.800000
743.222839	185.300000
743.260437	191.200000
743.298157	187.600000
743.335754	179.300000
743.373474	183.900000
743.411133	179.200000
743.448792	184.500000
743.486450	186.500000
743.524170	178.300000
743.561768	187.800000
743.599487	191.400000
743.637146	196.900000
743.674744	184.100000
743.712463	183.700000
743.750122	185.300000
743.787720	189.200000
743.825439	181.600000
743.863037	184.900000
743.900696	185.100000
743.938416	212.400000
743.976013	184.400000
744.013672	195.300000
744.051331	189.900000
744.088928	195.700000
744.126587	190.400000
744.164307	189.200000
744.201904	181.100000
744.239563	190.700000
744.277222	187.300000
744.314819	185.800000
744.352478	192.500000
744.390137	189.400000
744.427734	188.500000
744.465393	184.300000
744.502991	182.200000
744.540649	189.300000
744.578308	186.200000
744.615906	181.000000
744.653564	175.300000
744.691223	188.900000
744.728821	178.300000
744.766418	184.700000
744.804077	189.100000
744.841675	183.900000
744.879333	179.800000
744.916992	184.600000
744.954529	184.400000
744.992187	190.600000
745.029785	184.300000
745.067444	182.600000
745.105042	187.500000
745.142639	188.100000
745.180298	194.800000
745.217896	183.600000
745.255493	184.700000
745.293152	190.400000
745.330750	191.100000
745.368347	194.000000
745.405945	189.600000
745.443604	185.500000
745.481140	191.300000
745.518799	185.200000
745.556396	192.300000
745.593994	189.600000
745.631592	187.400000
745.669189	181.400000
745.706787	187.700000
745.744385	180.900000
745.781982	190.200000
745.819580	183.300000
745.857178	185.700000
745.894775	185.900000
745.932373	188.100000
745.969971	187.600000
746.007568	179.600000
746.045166	194.200000
746.082764	192.400000
746.120300	188.600000
746.157898	191.100000
746.195557	185.200000
746.233093	181.000000
746.270691	188.000000
746.308228	188.400000
746.345825	191.400000
746.383423	190.400000
746.420959	180.700000
746.458557	182.600000
746.496155	183.300000
746.533691	185.800000
746.571289	181.700000
746.608887	185.800000
746.646423	185.300000
746.684021	187.100000
746.721619	182.400000
746.759155	188.000000
746.796753	179.500000
746.834351	178.700000
746.871826	182.400000
746.909424	192.400000
746.946960	187.100000
746.984558	184.600000
747.022156	183.600000
747.059631	194.200000
747.097229	188.200000
747.134827	182.600000
747.172363	194.500000
747.209900	188.200000
747.247498	182.600000
747.285034	193.200000
747.322571	193.700000
747.360168	185.100000
747.397644	179.700000
747.435242	189.200000
747.472778	193.900000
747.510315	184.300000
747.547913	184.300000
747.585388	191.600000
747.622925	186.100000
747.660522	177.000000
747.697998	183.800000
747.735596	186.700000
747.773132	182.900000
747.810669	185.100000
747.848206	191.200000
747.885742	180.700000
747.923279	181.600000
747.960815	186.500000
747.998352	188.100000
748.035889	190.800000
748.073425	190.400000
748.110901	184.000000
748.148437	182.800000
748.185974	185.600000
748.223511	195.600000
748.261047	186.900000
748.298584	188.800000
748.336060	184.400000
748.373596	188.400000
748.411133	204.800000
748.448608	183.600000
748.486145	187.700000
748.523682	194.400000
748.561218	191.700000
748.598755	186.900000
748.636292	188.900000
748.673706	183.000000
748.711243	192.800000
748.748718	189.000000
748.786255	185.500000
748.823792	186.500000
748.861267	180.700000
748.898804	187.200000
748.936340	189.100000
748.973816	185.100000
749.011292	191.000000
749.048828	186.800000
749.086304	189.900000
749.123840	196.600000
749.161316	182.200000
749.198792	195.000000
749.236328	194.600000
749.273743	186.600000
749.311279	184.600000
749.348816	189.900000
749.386230	188.300000
749.423767	174.900000
749.461304	189.100000
749.498718	187.000000
749.536255	193.800000
749.573730	197.700000
749.611206	193.900000
749.648682	185.100000
749.686218	187.400000
749.723633	189.800000
749.761169	185.900000
749.798645	181.800000
749.836060	186.000000
749.873596	182.000000
749.911011	188.200000
749.948547	191.600000
749.986023	185.700000
750.023437	185.400000
750.060913	181.700000
750.098450	179.200000
750.135864	187.300000
750.173340	185.400000
750.210815	192.300000
750.248291	181.000000
750.285767	186.700000
750.323242	192.100000
750.360657	188.300000
750.398132	180.600000
750.435608	189.700000
750.473022	182.500000
750.510498	181.900000
750.547974	181.400000
750.585449	183.500000
750.622925	176.100000
750.660339	195.200000
750.697815	187.800000
750.735291	185.300000
750.772644	188.700000
750.810120	188.600000
750.847595	188.700000
750.885010	181.900000
750.922485	194.600000
750.959961	184.900000
750.997375	193.800000
751.034851	190.800000
751.072266	191.600000
751.109680	177.900000
751.147156	193.200000
751.184570	188.200000
751.221985	188.300000
751.259460	178.600000
751.296875	187.600000
751.334290	186.900000
751.371765	190.900000
751.409180	189.700000
751.446594	193.900000
751.484070	189.000000
751.521423	188.400000
751.558899	187.700000
751.596375	194.900000
751.633728	191.900000
751.671204	200.000000
751.708618	181.600000
751.746033	188.600000
751.783447	181.200000
751.820801	184.100000
751.858276	188.900000
751.895691	188.100000
751.933105	183.900000
751.970520	182.500000
752.007935	184.000000
752.045349	191.800000
752.082764	184.600000
752.120178	185.400000
752.157532	182.200000
752.195007	183.900000
752.232422	188.500000
752.269775	190.700000
752.307190	187.900000
752.344543	182.000000
752.382019	182.900000
752.419434	184.000000
752.456787	187.900000
752.494202	190.300000
752.531616	187.700000
752.568970	190.900000
752.606384	187.100000
752.643799	187.400000
752.681152	195.600000
752.718567	189.800000
752.755981	179.100000
752.793335	190.000000
752.830750	177.500000
752.868164	191.900000
752.905518	182.800000
752.942932	190.300000
752.980225	180.800000
753.017639	191.000000
753.055054	185.200000
753.092407	188.600000
753.129822	192.600000
753.167175	196.700000
753.204529	187.000000
753.241943	183.900000
753.279358	181.100000
753.316650	190.300000
753.354065	190.700000
753.391479	190.300000
753.428772	196.000000
753.466187	188.600000
753.503479	182.300000
753.540894	184.100000
753.578308	180.800000
753.615601	180.300000
753.653015	187.200000
753.690369	185.500000
753.727722	184.100000
753.765076	178.600000
753.802490	181.900000
753.839783	177.500000
753.877136	184.700000
753.914551	199.900000
753.951843	182.700000
753.989258	188.800000
754.026611	187.900000
754.063904	186.800000
754.101257	183.000000
754.138611	179.700000
754.175964	187.800000
754.213318	196.200000
754.250610	180.400000
754.288025	183.100000
754.325378	181.200000
754.362671	190.800000
754.400024	184.600000
754.437378	196.500000
754.474670	196.300000
754.512085	182.300000
754.549438	187.600000
754.586731	184.600000
754.624084	184.400000
754.661438	181.800000
754.698730	194.400000
754.736084	183.700000
754.773376	183.500000
754.810730	190.300000
754.848083	184.000000
754.885315	191.800000
754.922668	178.300000
754.960022	180.300000
754.997314	189.900000
755.034668	187.500000
755.072021	186.200000
755.109253	184.000000
755.146606	193.300000
755.183960	185.200000
755.221252	193.600000
755.258545	191.500000
755.295898	190.700000
755.333191	193.800000
755.370544	188.900000
755.407776	186.300000
755.445129	185.200000
755.482422	191.500000
755.519714	182.200000
755.557068	181.200000
755.594360	177.700000
755.631653	192.400000
755.668945	193.000000
755.706299	189.100000
755.743530	197.200000
755.780884	195.000000
755.818176	192.400000
755.855408	193.700000
755.892761	188.000000
755.930054	188.000000
755.967346	188.100000
756.004639	190.500000
756.041870	187.200000
756.079224	192.200000
756.116516	181.800000
756.153748	189.600000
756.191040	193.900000
756.228394	189.300000
756.265625	183.200000
756.302917	188.700000
756.340210	182.000000
756.377441	191.400000
756.414795	194.400000
756.452087	186.800000
756.489319	181.100000
756.526611	190.400000
756.563843	188.800000
756.601135	197.100000
756.638428	195.100000
756.675659	186.100000
756.712952	190.700000
756.750244	191.600000
756.787476	188.800000
756.824768	194.900000
756.862061	186.400000
756.899292	235.200000
756.936584	193.500000
756.973816	199.600000
757.011047	199.900000
757.048340	189.700000
757.085632	188.800000
757.122864	203.600000
757.160156	187.000000
757.197327	190.600000
757.234619	194.600000
757.271912	186.500000
757.309082	194.100000
757.346375	185.700000
757.383667	195.300000
757.420837	191.000000
757.458130	191.100000
757.495422	188.700000
757.532593	192.200000
757.569885	182.100000
757.607117	187.600000
757.644348	192.000000
757.681580	204.400000
757.718811	179.200000
757.756042	191.100000
757.793335	186.000000
757.830505	193.500000
757.867798	185.900000
757.905029	187.100000
757.942200	192.400000
757.979492	188.400000
758.016724	189.500000
758.053894	188.500000
758.091187	208.100000
758.128418	190.000000
758.165588	188.700000
758.202820	201.600000
758.240112	187.700000
758.277283	200.800000
758.314514	191.000000
758.351685	189.000000
758.388916	200.900000
758.426147	198.600000
758.463379	201.400000
758.500610	194.300000
758.537842	191.600000
758.575012	197.200000
758.612244	187.900000
758.649475	206.000000
758.686646	185.900000
758.723877	199.000000
758.761108	200.900000
758.798279	193.600000
758.835510	195.900000
758.872742	200.200000
758.909851	196.100000
758.947083	197.400000
758.984253	195.600000
759.021484	198.600000
759.058716	199.900000
759.095886	197.500000
759.133057	194.200000
759.170288	197.500000
759.207458	192.500000
759.244690	203.800000
759.281860	205.300000
759.319031	193.300000
759.356262	195.300000
759.393433	194.300000
759.430603	194.900000
759.467773	193.500000
759.505005	203.200000
759.542175	200.500000
759.579346	196.700000
759.616516	196.400000
759.653687	200.300000
759.690918	193.000000
759.728027	198.500000
759.765259	198.200000
759.802429	200.600000
759.839539	197.500000
759.876770	204.100000
759.913940	207.600000
759.951111	198.900000
759.988281	198.300000
760.025452	196.400000
760.062561	193.700000
760.099792	208.200000
760.136963	202.000000
760.174072	198.600000
760.211243	193.000000
760.248413	196.000000
760.285583	194.900000
760.322754	211.000000
760.359863	206.200000
760.397034	205.700000
760.434204	198.700000
760.471375	200.300000
760.508545	197.800000
760.545715	199.100000
760.582825	195.200000
760.619995	204.200000
760.657166	192.800000
760.694275	206.500000
760.731445	204.400000
760.768555	203.900000
760.805664	204.700000
760.842834	203.100000
760.879944	205.100000
760.917114	204.100000
760.954285	201.700000
760.991394	195.000000
761.028564	208.400000
761.065674	205.400000
761.102783	198.000000
761.139954	205.900000
761.177124	207.400000
761.214172	206.400000
761.251343	200.900000
761.288452	201.800000
761.325562	207.700000
761.362732	199.300000
761.399841	202.900000
761.436951	203.700000
761.474121	200.100000
761.511169	203.300000
761.548340	209.500000
761.585449	205.400000
761.622559	208.000000
761.659668	204.800000
761.696838	211.600000
761.733887	205.800000
761.771057	202.400000
761.808167	202.600000
761.845276	208.500000
761.882385	217.100000
761.919434	205.300000
761.956604	223.900000
761.993713	203.500000
762.030762	211.900000
762.067871	205.500000
762.105042	205.500000
762.142090	214.500000
762.179199	208.400000
762.216309	211.700000
762.253418	223.400000
762.290527	217.600000
762.327637	214.100000
762.364685	203.600000
762.401794	214.200000
762.438904	211.800000
762.475952	206.700000
762.513062	205.500000
762.550110	204.100000
762.587219	219.900000
762.624329	218.500000
762.661377	211.600000
762.698486	212.900000
762.735596	211.500000
762.772644	206.100000
762.809753	203.000000
762.846863	211.600000
762.883911	214.900000
762.921021	216.400000
762.958069	210.600000
762.995117	219.400000
763.032227	217.800000
763.069336	212.500000
763.106323	206.500000
763.143433	207.200000
763.180481	213.800000
763.217590	216.100000
763.254639	210.600000
763.291687	213.400000
763.328735	221.000000
763.365845	215.000000
763.402893	210.900000
763.439941	215.800000
763.477051	218.200000
763.514038	220.600000
763.551147	212.100000
763.588196	216.700000
763.625244	214.600000
763.662292	224.000000
763.699402	224.500000
763.736389	218.800000
763.773499	227.400000
763.810486	219.800000
763.847534	216.900000
763.884644	220.700000
763.921631	216.200000
763.958679	228.600000
763.995728	218.400000
764.032776	227.000000
764.069824	214.400000
764.106873	223.800000
764.143860	229.700000
764.180969	220.300000
764.218018	227.500000
764.255005	218.800000
764.292053	221.600000
764.329102	231.400000
764.366089	231.500000
764.403137	227.800000
764.440125	220.500000
764.477173	225.000000
764.514221	227.500000
764.551208	225.000000
764.588257	222.200000
764.625305	230.400000
764.662292	234.500000
764.699341	237.700000
764.736389	229.700000
764.773376	244.600000
764.810425	233.000000
764.847473	239.100000
764.884399	236.400000
764.921448	242.300000
764.958435	242.100000
764.995483	232.300000
765.032532	248.200000
765.069458	232.900000
765.106506	237.000000
765.143555	231.000000
765.180481	237.700000
765.217529	244.600000
765.254578	229.600000
765.291504	239.300000
765.328552	238.900000
765.365540	233.900000
765.402527	248.500000
765.439575	234.200000
765.476501	231.700000
765.513550	232.600000
765.550537	240.800000
765.587463	246.600000
765.624512	238.200000
765.661499	228.700000
765.698486	245.500000
765.735474	236.700000
765.772461	238.600000
765.809448	246.900000
765.846436	246.000000
765.883423	246.000000
765.920410	243.500000
765.957397	238.900000
765.994385	244.500000
766.031311	252.600000
766.068359	247.100000
766.105286	245.900000
766.142273	252.000000
766.179260	247.400000
766.216187	242.600000
766.253174	237.700000
766.290161	247.500000
766.327148	249.300000
766.364136	250.500000
766.401123	265.100000
766.438049	245.300000
766.475037	257.500000
766.512024	253.900000
766.548950	267.300000
766.585937	259.800000
766.622864	255.100000
766.659790	254.700000
766.696777	244.400000
766.733704	258.100000
766.770691	249.000000
766.807678	263.500000
766.844604	259.400000
766.881531	257.500000
766.918518	262.700000
766.955444	262.500000
766.992432	256.500000
767.029358	259.400000
767.066284	264.600000
767.103271	260.500000
767.140198	290.900000
767.177124	273.800000
767.214050	266.800000
767.251038	266.400000
767.287964	261.700000
767.324890	259.500000
767.361816	266.000000
767.398743	270.800000
767.435730	263.700000
767.472595	267.100000
767.509583	272.800000
767.546509	258.700000
767.583374	268.100000
767.620361	258.500000
767.657288	266.700000
767.694214	267.200000
767.731140	267.500000
767.768066	266.600000
767.804993	272.000000
767.841919	262.500000
767.878845	269.300000
767.915710	275.200000
767.952698	268.200000
767.989563	269.700000
768.026489	272.500000
