Model Number: SPM-001-M   
Serial Number: 10090201
Firmware Version: 004.17.6
Exposure Time: 500000.000000us
Data Taken on: 03-03-2021 10:50:01.146
Wavelength	Amplitude
733.770752	0.000000
733.808716	0.000000
733.846619	0.000000
733.884583	0.000000
733.922546	0.000000
733.960449	0.000000
733.998413	0.000000
734.036377	0.000000
734.074219	0.000000
734.112183	0.000000
734.150085	0.000000
734.188049	0.000000
734.226013	0.000000
734.263916	0.000000
734.301819	0.000000
734.339783	0.000000
734.377686	0.000000
734.415588	0.000000
734.453552	0.000000
734.491455	0.000000
734.529419	0.000000
734.567322	0.000000
734.605225	0.000000
734.643127	0.000000
734.681091	0.000000
734.718994	0.000000
734.756897	0.000000
734.794800	0.000000
734.832703	0.000000
734.870667	0.000000
734.908508	0.000000
734.946472	0.000000
734.984375	0.000000
735.022278	0.000000
735.060181	0.000000
735.098083	0.000000
735.135986	0.000000
735.173889	0.000000
735.211792	0.000000
735.249695	0.000000
735.287598	0.000000
735.325439	0.000000
735.363403	0.000000
735.401306	0.000000
735.439148	0.000000
735.477051	0.000000
735.515015	0.000000
735.552856	0.000000
735.590759	0.000000
735.628662	0.000000
735.666504	0.000000
735.704407	0.000000
735.742310	0.000000
735.780212	0.000000
735.818115	0.000000
735.856018	0.000000
735.893860	0.000000
735.931763	0.000000
735.969604	0.000000
736.007507	0.000000
736.045410	0.000000
736.083252	0.000000
736.121094	0.000000
736.158997	0.000000
736.196838	0.000000
736.234741	0.000000
736.272644	0.000000
736.310486	0.000000
736.348389	0.000000
736.386230	0.000000
736.424072	0.000000
736.461975	0.000000
736.499878	0.000000
736.537720	0.000000
736.575562	0.000000
736.613403	0.000000
736.651306	0.000000
736.689148	0.000000
736.726990	0.000000
736.764893	0.000000
736.802734	0.000000
736.840576	0.000000
736.878418	0.000000
736.916321	0.000000
736.954102	0.000000
736.992004	0.000000
737.029846	0.000000
737.067688	0.000000
737.105530	0.000000
737.143372	0.000000
737.181213	0.000000
737.219116	0.000000
737.256897	0.000000
737.294739	0.000000
737.332642	0.000000
737.370422	0.000000
737.408325	0.000000
737.446167	0.000000
737.483948	0.000000
737.521790	0.000000
737.559692	0.000000
737.597473	0.000000
737.635315	0.000000
737.673157	0.000000
737.710999	0.000000
737.748840	0.000000
737.786621	0.000000
737.824463	0.000000
737.862305	0.000000
737.900085	0.000000
737.937927	0.000000
737.975769	0.000000
738.013550	0.000000
738.051392	0.000000
738.089233	0.000000
738.127014	0.000000
738.164856	0.000000
738.202698	0.000000
738.240479	0.000000
738.278320	0.000000
738.316162	0.000000
738.353943	0.000000
738.391785	0.000000
738.429565	0.000000
738.467407	0.000000
738.505188	0.000000
738.542969	0.000000
738.580811	0.000000
738.618652	0.000000
738.656372	0.000000
738.694214	0.000000
738.732056	0.000000
738.769836	0.000000
738.807617	0.000000
738.845459	0.000000
738.883240	0.000000
738.921021	0.000000
738.958862	0.000000
738.996582	0.000000
739.034424	0.000000
739.072205	0.000000
739.109985	0.000000
739.147827	0.000000
739.185547	0.000000
739.223389	0.000000
739.261169	0.000000
739.298889	0.000000
739.336731	0.000000
739.374512	0.000000
739.412292	0.000000
739.450073	0.000000
739.487854	0.000000
739.525635	0.000000
739.563416	0.000000
739.601135	0.000000
739.638977	0.000000
739.676758	0.000000
739.714478	0.000000
739.752258	0.000000
739.790100	0.000000
739.827820	0.000000
739.865601	0.000000
739.903381	0.000000
739.941101	0.000000
739.978882	190.100000
740.016724	187.300000
740.054443	191.000000
740.092224	184.400000
740.130005	183.100000
740.167725	184.800000
740.205505	183.600000
740.243225	192.400000
740.281006	187.900000
740.318787	180.200000
740.356506	193.900000
740.394287	193.200000
740.432068	183.200000
740.469727	180.400000
740.507507	191.400000
740.545288	186.800000
740.583008	189.800000
740.620789	188.400000
740.658569	179.300000
740.696228	187.600000
740.734009	193.000000
740.771790	176.200000
740.809509	190.100000
740.847229	182.100000
740.884949	184.300000
740.922729	178.700000
740.960449	185.300000
740.998169	181.300000
741.035950	183.600000
741.073669	188.000000
741.111389	188.600000
741.149170	197.100000
741.186890	197.700000
741.224609	191.200000
741.262329	187.800000
741.300110	196.100000
741.337769	182.800000
741.375549	181.100000
741.413208	188.800000
741.450989	182.600000
741.488708	185.200000
741.526367	184.600000
741.564148	190.700000
741.601868	192.300000
741.639526	188.000000
741.677307	188.300000
741.715027	189.600000
741.752686	182.600000
741.790466	195.100000
741.828186	190.700000
741.865845	183.900000
741.903564	178.000000
741.941345	187.700000
741.979004	183.500000
742.016724	191.200000
742.054382	187.300000
742.092102	193.400000
742.129822	180.400000
742.167480	186.800000
742.205200	186.100000
742.242920	188.800000
742.280640	191.400000
742.318359	183.500000
742.356079	184.000000
742.393738	191.700000
742.431396	187.100000
742.469116	190.400000
742.506775	177.500000
742.544495	189.200000
742.582214	191.800000
742.619873	186.700000
742.657593	195.300000
742.695251	191.800000
742.732971	185.200000
742.770630	189.500000
742.808289	186.800000
742.846008	186.600000
742.883728	190.200000
742.921326	186.800000
742.959045	185.400000
742.996765	187.000000
743.034424	186.200000
743.072083	184.100000
743.109802	186.500000
743.147400	181.100000
743.185120	189.000000
743.222839	186.800000
743.260437	192.400000
743.298157	187.900000
743.335754	180.100000
743.373474	185.300000
743.411133	179.900000
743.448792	187.600000
743.486450	187.100000
743.524170	179.500000
743.561768	186.500000
743.599487	192.500000
743.637146	197.500000
743.674744	187.600000
743.712463	185.200000
743.750122	187.500000
743.787720	189.900000
743.825439	182.700000
743.863037	186.500000
743.900696	187.000000
743.938416	212.600000
743.976013	186.800000
744.013672	196.600000
744.051331	191.900000
744.088928	196.100000
744.126587	193.300000
744.164307	189.000000
744.201904	184.000000
744.239563	190.100000
744.277222	188.500000
744.314819	186.300000
744.352478	194.100000
744.390137	189.600000
744.427734	188.500000
744.465393	185.800000
744.502991	183.500000
744.540649	191.100000
744.578308	187.900000
744.615906	182.000000
744.653564	177.700000
744.691223	191.000000
744.728821	179.700000
744.766418	186.800000
744.804077	190.200000
744.841675	184.100000
744.879333	180.900000
744.916992	187.100000
744.954529	184.500000
744.992187	192.200000
745.029785	184.900000
745.067444	182.800000
745.105042	189.600000
745.142639	189.700000
745.180298	196.500000
745.217896	184.300000
745.255493	187.000000
745.293152	190.200000
745.330750	191.600000
745.368347	194.600000
745.405945	191.300000
745.443604	187.000000
745.481140	191.700000
745.518799	185.500000
745.556396	192.300000
745.593994	191.200000
745.631592	188.000000
745.669189	181.800000
745.706787	189.400000
745.744385	183.000000
745.781982	190.100000
745.819580	185.600000
745.857178	186.800000
745.894775	187.500000
745.932373	189.000000
745.969971	188.400000
746.007568	179.700000
746.045166	196.500000
746.082764	192.900000
746.120300	191.500000
746.157898	189.800000
746.195557	186.700000
746.233093	181.700000
746.270691	190.400000
746.308228	189.700000
746.345825	192.300000
746.383423	190.800000
746.420959	182.900000
746.458557	184.500000
746.496155	185.000000
746.533691	187.000000
746.571289	182.800000
746.608887	188.500000
746.646423	188.900000
746.684021	188.400000
746.721619	185.300000
746.759155	190.000000
746.796753	180.900000
746.834351	180.300000
746.871826	182.900000
746.909424	194.900000
746.946960	188.700000
746.984558	187.500000
747.022156	185.100000
747.059631	193.400000
747.097229	189.400000
747.134827	185.300000
747.172363	193.800000
747.209900	190.200000
747.247498	182.800000
747.285034	194.800000
747.322571	194.000000
747.360168	184.900000
747.397644	180.000000
747.435242	190.400000
747.472778	195.100000
747.510315	185.100000
747.547913	185.500000
747.585388	193.900000
747.622925	187.000000
747.660522	178.100000
747.697998	184.800000
747.735596	187.000000
747.773132	184.900000
747.810669	187.100000
747.848206	190.300000
747.885742	182.200000
747.923279	183.200000
747.960815	188.700000
747.998352	188.200000
748.035889	193.600000
748.073425	192.400000
748.110901	184.800000
748.148437	183.500000
748.185974	189.800000
748.223511	197.900000
748.261047	189.200000
748.298584	189.500000
748.336060	187.100000
748.373596	191.400000
748.411133	208.200000
748.448608	184.200000
748.486145	191.900000
748.523682	193.500000
748.561218	192.900000
748.598755	188.100000
748.636292	191.000000
748.673706	186.300000
748.711243	194.100000
748.748718	189.300000
748.786255	187.400000
748.823792	186.700000
748.861267	182.600000
748.898804	189.700000
748.936340	190.000000
748.973816	185.200000
749.011292	193.700000
749.048828	189.700000
749.086304	191.400000
749.123840	198.100000
749.161316	183.200000
749.198792	197.100000
749.236328	194.000000
749.273743	188.100000
749.311279	186.200000
749.348816	189.800000
749.386230	188.800000
749.423767	175.600000
749.461304	189.800000
749.498718	186.800000
749.536255	194.800000
749.573730	200.100000
749.611206	193.900000
749.648682	187.500000
749.686218	188.600000
749.723633	190.800000
749.761169	186.500000
749.798645	184.400000
749.836060	186.100000
749.873596	185.200000
749.911011	189.200000
749.948547	193.400000
749.986023	189.700000
750.023437	187.500000
750.060913	181.600000
750.098450	180.900000
750.135864	187.500000
750.173340	187.600000
750.210815	192.400000
750.248291	182.600000
750.285767	187.800000
750.323242	195.300000
750.360657	190.000000
750.398132	183.200000
750.435608	191.100000
750.473022	185.100000
750.510498	182.700000
750.547974	184.000000
750.585449	186.200000
750.622925	177.800000
750.660339	197.100000
750.697815	188.700000
750.735291	186.600000
750.772644	188.400000
750.810120	189.400000
750.847595	191.700000
750.885010	182.400000
750.922485	196.100000
750.959961	186.000000
750.997375	195.200000
751.034851	190.200000
751.072266	192.200000
751.109680	180.400000
751.147156	192.800000
751.184570	189.800000
751.221985	189.200000
751.259460	179.100000
751.296875	188.300000
751.334290	187.400000
751.371765	192.300000
751.409180	190.400000
751.446594	194.400000
751.484070	189.600000
751.521423	190.300000
751.558899	190.600000
751.596375	196.400000
751.633728	193.200000
751.671204	199.300000
751.708618	183.100000
751.746033	189.200000
751.783447	182.200000
751.820801	185.000000
751.858276	190.700000
751.895691	187.900000
751.933105	185.900000
751.970520	183.300000
752.007935	185.500000
752.045349	191.800000
752.082764	187.300000
752.120178	186.400000
752.157532	184.500000
752.195007	185.300000
752.232422	190.000000
752.269775	193.000000
752.307190	190.900000
752.344543	182.600000
752.382019	186.500000
752.419434	186.100000
752.456787	190.400000
752.494202	191.500000
752.531616	189.200000
752.568970	192.200000
752.606384	189.100000
752.643799	189.500000
752.681152	196.000000
752.718567	191.600000
752.755981	181.800000
752.793335	190.300000
752.830750	178.600000
752.868164	194.400000
752.905518	184.600000
752.942932	191.400000
752.980225	182.700000
753.017639	192.900000
753.055054	187.300000
753.092407	189.800000
753.129822	194.300000
753.167175	196.500000
753.204529	187.400000
753.241943	185.100000
753.279358	182.000000
753.316650	191.700000
753.354065	190.400000
753.391479	192.200000
753.428772	196.800000
753.466187	190.800000
753.503479	182.800000
753.540894	187.500000
753.578308	182.700000
753.615601	182.200000
753.653015	187.400000
753.690369	186.000000
753.727722	184.200000
753.765076	181.200000
753.802490	183.900000
753.839783	180.000000
753.877136	186.300000
753.914551	201.700000
753.951843	183.900000
753.989258	193.000000
754.026611	189.100000
754.063904	190.900000
754.101257	184.200000
754.138611	180.800000
754.175964	188.600000
754.213318	198.900000
754.250610	179.900000
754.288025	185.800000
754.325378	181.800000
754.362671	193.800000
754.400024	185.600000
754.437378	198.300000
754.474670	197.500000
754.512085	184.400000
754.549438	187.700000
754.586731	185.600000
754.624084	186.000000
754.661438	184.100000
754.698730	196.200000
754.736084	185.600000
754.773376	186.500000
754.810730	190.600000
754.848083	185.500000
754.885315	191.500000
754.922668	180.600000
754.960022	179.900000
754.997314	191.300000
755.034668	187.600000
755.072021	186.100000
755.109253	185.400000
755.146606	193.900000
755.183960	186.000000
755.221252	193.700000
755.258545	192.000000
755.295898	193.400000
755.333191	194.600000
755.370544	190.500000
755.407776	186.900000
755.445129	187.100000
755.482422	192.600000
755.519714	185.000000
755.557068	181.700000
755.594360	179.100000
755.631653	191.000000
755.668945	196.100000
755.706299	189.800000
755.743530	198.800000
755.780884	194.900000
755.818176	194.000000
755.855408	193.900000
755.892761	190.700000
755.930054	189.200000
755.967346	191.300000
756.004639	190.900000
756.041870	188.300000
756.079224	193.700000
756.116516	184.900000
756.153748	193.000000
756.191040	196.800000
756.228394	189.900000
756.265625	184.700000
756.302917	189.700000
756.340210	185.700000
756.377441	192.900000
756.414795	194.900000
756.452087	189.500000
756.489319	182.800000
756.526611	192.700000
756.563843	189.600000
756.601135	198.600000
756.638428	197.400000
756.675659	187.500000
756.712952	193.500000
756.750244	191.900000
756.787476	191.900000
756.824768	195.900000
756.862061	187.600000
756.899292	236.600000
756.936584	194.500000
756.973816	200.900000
757.011047	203.100000
757.048340	190.900000
757.085632	190.900000
757.122864	204.700000
757.160156	188.700000
757.197327	193.300000
757.234619	195.100000
757.271912	188.000000
757.309082	196.000000
757.346375	187.800000
757.383667	197.500000
757.420837	192.800000
757.458130	193.900000
757.495422	190.100000
757.532593	192.300000
757.569885	183.900000
757.607117	186.400000
757.644348	192.800000
757.681580	204.800000
757.718811	181.200000
757.756042	191.700000
757.793335	189.500000
757.830505	194.900000
757.867798	188.700000
757.905029	187.500000
757.942200	193.800000
757.979492	187.800000
758.016724	190.800000
758.053894	188.300000
758.091187	210.900000
758.128418	190.900000
758.165588	190.800000
758.202820	203.200000
758.240112	190.600000
758.277283	203.500000
758.314514	194.100000
758.351685	189.400000
758.388916	202.000000
758.426147	200.900000
758.463379	203.000000
758.500610	196.600000
758.537842	193.700000
758.575012	200.900000
758.612244	191.300000
758.649475	206.000000
758.686646	188.100000
758.723877	201.600000
758.761108	201.800000
758.798279	194.400000
758.835510	196.700000
758.872742	201.400000
758.909851	197.100000
758.947083	199.400000
758.984253	197.300000
759.021484	200.500000
759.058716	200.100000
759.095886	199.900000
759.133057	195.200000
759.170288	198.500000
759.207458	192.800000
759.244690	206.700000
759.281860	206.500000
759.319031	195.700000
759.356262	196.900000
759.393433	195.800000
759.430603	196.100000
759.467773	196.000000
759.505005	203.200000
759.542175	202.600000
759.579346	198.700000
759.616516	197.800000
759.653687	201.400000
759.690918	195.000000
759.728027	198.900000
759.765259	200.400000
759.802429	202.100000
759.839539	201.800000
759.876770	206.500000
759.913940	209.000000
759.951111	200.400000
759.988281	200.000000
760.025452	197.800000
760.062561	197.300000
760.099792	208.100000
760.136963	204.700000
760.174072	200.400000
760.211243	194.200000
760.248413	197.100000
760.285583	196.600000
760.322754	212.400000
760.359863	207.500000
760.397034	207.900000
760.434204	201.400000
760.471375	201.900000
760.508545	200.300000
760.545715	201.000000
760.582825	198.700000
760.619995	205.700000
760.657166	196.100000
760.694275	209.100000
760.731445	203.000000
760.768555	204.800000
760.805664	208.600000
760.842834	203.800000
760.879944	207.200000
760.917114	203.800000
760.954285	203.000000
760.991394	197.300000
761.028564	210.300000
761.065674	208.100000
761.102783	200.500000
761.139954	209.400000
761.177124	210.000000
761.214172	209.800000
761.251343	203.500000
761.288452	204.600000
761.325562	210.000000
761.362732	202.700000
761.399841	205.600000
761.436951	207.400000
761.474121	201.600000
761.511169	206.300000
761.548340	212.000000
761.585449	209.400000
761.622559	210.500000
761.659668	208.400000
761.696838	212.300000
761.733887	208.900000
761.771057	204.800000
761.808167	205.800000
761.845276	210.100000
761.882385	219.400000
761.919434	207.600000
761.956604	226.800000
761.993713	205.600000
762.030762	214.500000
762.067871	208.100000
762.105042	208.200000
762.142090	215.500000
762.179199	210.900000
762.216309	215.400000
762.253418	225.300000
762.290527	219.200000
762.327637	216.400000
762.364685	206.300000
762.401794	215.800000
762.438904	213.400000
762.475952	209.100000
762.513062	207.100000
762.550110	208.600000
762.587219	221.600000
762.624329	221.900000
762.661377	214.600000
762.698486	215.500000
762.735596	213.500000
762.772644	208.800000
762.809753	204.800000
762.846863	213.900000
762.883911	218.800000
762.921021	218.700000
762.958069	215.100000
762.995117	223.300000
763.032227	221.800000
763.069336	214.900000
763.106323	210.200000
763.143433	210.600000
763.180481	218.400000
763.217590	218.300000
763.254639	213.200000
763.291687	215.600000
763.328735	223.400000
763.365845	216.000000
763.402893	216.300000
763.439941	218.500000
763.477051	220.200000
763.514038	222.700000
763.551147	217.300000
763.588196	220.300000
763.625244	219.600000
763.662292	225.400000
763.699402	227.700000
763.736389	221.800000
763.773499	230.200000
763.810486	222.800000
763.847534	219.400000
763.884644	222.900000
763.921631	219.400000
763.958679	232.000000
763.995728	220.900000
764.032776	230.300000
764.069824	219.700000
764.106873	226.800000
764.143860	232.700000
764.180969	222.400000
764.218018	229.900000
764.255005	222.000000
764.292053	224.600000
764.329102	234.300000
764.366089	234.500000
764.403137	234.200000
764.440125	223.600000
764.477173	227.300000
764.514221	230.200000
764.551208	228.900000
764.588257	224.500000
764.625305	233.700000
764.662292	238.500000
764.699341	240.900000
764.736389	234.600000
764.773376	247.300000
764.810425	234.800000
764.847473	243.700000
764.884399	237.500000
764.921448	246.000000
764.958435	245.500000
764.995483	234.400000
765.032532	250.200000
765.069458	238.100000
765.106506	238.100000
765.143555	236.900000
765.180481	239.900000
765.217529	247.300000
765.254578	232.900000
765.291504	241.800000
765.328552	240.300000
765.365540	237.800000
765.402527	252.400000
765.439575	239.100000
765.476501	233.900000
765.513550	236.700000
765.550537	241.800000
765.587463	250.900000
765.624512	241.400000
765.661499	232.500000
765.698486	248.100000
765.735474	238.700000
765.772461	241.800000
765.809448	251.600000
765.846436	247.600000
765.883423	252.700000
765.920410	247.200000
765.957397	243.500000
765.994385	248.300000
766.031311	258.200000
766.068359	250.800000
766.105286	249.300000
766.142273	253.400000
766.179260	250.500000
766.216187	242.800000
766.253174	242.600000
766.290161	249.000000
766.327148	252.600000
766.364136	253.900000
766.401123	268.900000
766.438049	245.600000
766.475037	259.900000
766.512024	256.600000
766.548950	270.800000
766.585937	263.800000
766.622864	260.900000
766.659790	256.300000
766.696777	248.000000
766.733704	263.800000
766.770691	255.000000
766.807678	269.000000
766.844604	263.000000
766.881531	261.500000
766.918518	266.100000
766.955444	269.700000
766.992432	261.200000
767.029358	263.200000
767.066284	269.000000
767.103271	263.400000
767.140198	293.000000
767.177124	279.900000
767.214050	268.700000
767.251038	271.500000
767.287964	268.400000
767.324890	264.700000
767.361816	268.600000
767.398743	274.200000
767.435730	265.900000
767.472595	271.700000
767.509583	277.000000
767.546509	264.300000
767.583374	269.100000
767.620361	264.200000
767.657288	270.900000
767.694214	271.000000
767.731140	267.900000
767.768066	271.200000
767.804993	275.600000
767.841919	266.000000
767.878845	273.200000
767.915710	282.000000
767.952698	274.100000
767.989563	277.000000
768.026489	274.500000
