Model Number: SPM-001-M   
Serial Number: 10090201
Firmware Version: 004.17.6
Exposure Time: 500000.000000us
Data Taken on: 03-03-2021 09:53:00.169
Wavelength	Amplitude
733.770752	0.000000
733.808716	0.000000
733.846619	0.000000
733.884583	0.000000
733.922546	0.000000
733.960449	0.000000
733.998413	0.000000
734.036377	0.000000
734.074219	0.000000
734.112183	0.000000
734.150085	0.000000
734.188049	0.000000
734.226013	0.000000
734.263916	0.000000
734.301819	0.000000
734.339783	0.000000
734.377686	0.000000
734.415588	0.000000
734.453552	0.000000
734.491455	0.000000
734.529419	0.000000
734.567322	0.000000
734.605225	0.000000
734.643127	0.000000
734.681091	0.000000
734.718994	0.000000
734.756897	0.000000
734.794800	0.000000
734.832703	0.000000
734.870667	0.000000
734.908508	0.000000
734.946472	0.000000
734.984375	0.000000
735.022278	0.000000
735.060181	0.000000
735.098083	0.000000
735.135986	0.000000
735.173889	0.000000
735.211792	0.000000
735.249695	0.000000
735.287598	0.000000
735.325439	0.000000
735.363403	0.000000
735.401306	0.000000
735.439148	0.000000
735.477051	0.000000
735.515015	0.000000
735.552856	0.000000
735.590759	0.000000
735.628662	0.000000
735.666504	0.000000
735.704407	0.000000
735.742310	0.000000
735.780212	0.000000
735.818115	0.000000
735.856018	0.000000
735.893860	0.000000
735.931763	0.000000
735.969604	0.000000
736.007507	0.000000
736.045410	0.000000
736.083252	0.000000
736.121094	0.000000
736.158997	0.000000
736.196838	0.000000
736.234741	0.000000
736.272644	0.000000
736.310486	0.000000
736.348389	0.000000
736.386230	0.000000
736.424072	0.000000
736.461975	0.000000
736.499878	0.000000
736.537720	0.000000
736.575562	0.000000
736.613403	0.000000
736.651306	0.000000
736.689148	0.000000
736.726990	0.000000
736.764893	0.000000
736.802734	0.000000
736.840576	0.000000
736.878418	0.000000
736.916321	0.000000
736.954102	0.000000
736.992004	0.000000
737.029846	0.000000
737.067688	0.000000
737.105530	0.000000
737.143372	0.000000
737.181213	0.000000
737.219116	0.000000
737.256897	0.000000
737.294739	0.000000
737.332642	0.000000
737.370422	0.000000
737.408325	0.000000
737.446167	0.000000
737.483948	0.000000
737.521790	0.000000
737.559692	0.000000
737.597473	0.000000
737.635315	0.000000
737.673157	0.000000
737.710999	0.000000
737.748840	0.000000
737.786621	0.000000
737.824463	0.000000
737.862305	0.000000
737.900085	0.000000
737.937927	0.000000
737.975769	0.000000
738.013550	0.000000
738.051392	0.000000
738.089233	0.000000
738.127014	0.000000
738.164856	0.000000
738.202698	0.000000
738.240479	0.000000
738.278320	0.000000
738.316162	0.000000
738.353943	0.000000
738.391785	0.000000
738.429565	0.000000
738.467407	0.000000
738.505188	0.000000
738.542969	0.000000
738.580811	0.000000
738.618652	0.000000
738.656372	0.000000
738.694214	0.000000
738.732056	0.000000
738.769836	0.000000
738.807617	0.000000
738.845459	0.000000
738.883240	0.000000
738.921021	0.000000
738.958862	0.000000
738.996582	0.000000
739.034424	0.000000
739.072205	0.000000
739.109985	0.000000
739.147827	0.000000
739.185547	0.000000
739.223389	0.000000
739.261169	0.000000
739.298889	0.000000
739.336731	0.000000
739.374512	0.000000
739.412292	0.000000
739.450073	0.000000
739.487854	0.000000
739.525635	0.000000
739.563416	0.000000
739.601135	0.000000
739.638977	0.000000
739.676758	0.000000
739.714478	0.000000
739.752258	0.000000
739.790100	0.000000
739.827820	0.000000
739.865601	0.000000
739.903381	0.000000
739.941101	0.000000
739.978882	189.100000
740.016724	183.900000
740.054443	190.800000
740.092224	182.900000
740.130005	183.300000
740.167725	183.900000
740.205505	183.100000
740.243225	191.900000
740.281006	187.700000
740.318787	179.100000
740.356506	192.300000
740.394287	190.600000
740.432068	182.500000
740.469727	178.200000
740.507507	190.300000
740.545288	185.000000
740.583008	189.400000
740.620789	185.800000
740.658569	179.000000
740.696228	185.200000
740.734009	192.100000
740.771790	174.900000
740.809509	190.000000
740.847229	181.600000
740.884949	183.300000
740.922729	177.100000
740.960449	184.700000
740.998169	181.500000
741.035950	182.400000
741.073669	187.100000
741.111389	186.500000
741.149170	195.600000
741.186890	196.400000
741.224609	190.400000
741.262329	188.200000
741.300110	196.000000
741.337769	181.700000
741.375549	179.600000
741.413208	186.800000
741.450989	182.400000
741.488708	183.600000
741.526367	184.200000
741.564148	190.700000
741.601868	189.900000
741.639526	184.300000
741.677307	188.300000
741.715027	187.600000
741.752686	182.100000
741.790466	190.900000
741.828186	189.200000
741.865845	179.800000
741.903564	177.900000
741.941345	184.600000
741.979004	183.000000
742.016724	186.500000
742.054382	186.400000
742.092102	190.700000
742.129822	179.700000
742.167480	182.700000
742.205200	184.400000
742.242920	186.500000
742.280640	190.500000
742.318359	181.300000
742.356079	183.600000
742.393738	188.700000
742.431396	186.200000
742.469116	188.800000
742.506775	178.300000
742.544495	187.500000
742.582214	190.100000
742.619873	184.800000
742.657593	193.700000
742.695251	189.700000
742.732971	186.200000
742.770630	188.000000
742.808289	187.400000
742.846008	186.800000
742.883728	189.600000
742.921326	186.100000
742.959045	182.800000
742.996765	185.300000
743.034424	185.700000
743.072083	183.100000
743.109802	185.600000
743.147400	179.800000
743.185120	187.500000
743.222839	184.800000
743.260437	192.400000
743.298157	187.500000
743.335754	178.800000
743.373474	184.300000
743.411133	179.600000
743.448792	185.700000
743.486450	185.900000
743.524170	178.100000
743.561768	186.200000
743.599487	191.700000
743.637146	196.400000
743.674744	183.800000
743.712463	184.500000
743.750122	186.900000
743.787720	187.400000
743.825439	182.700000
743.863037	183.700000
743.900696	185.900000
743.938416	210.700000
743.976013	186.000000
744.013672	194.400000
744.051331	191.300000
744.088928	194.100000
744.126587	191.400000
744.164307	186.100000
744.201904	183.700000
744.239563	188.700000
744.277222	188.900000
744.314819	183.600000
744.352478	193.700000
744.390137	186.700000
744.427734	189.800000
744.465393	184.000000
744.502991	183.200000
744.540649	189.100000
744.578308	187.700000
744.615906	179.900000
744.653564	177.100000
744.691223	190.100000
744.728821	180.400000
744.766418	185.800000
744.804077	189.400000
744.841675	184.700000
744.879333	180.000000
744.916992	185.300000
744.954529	184.300000
744.992187	192.800000
745.029785	185.400000
745.067444	182.400000
745.105042	188.500000
745.142639	188.700000
745.180298	197.000000
745.217896	183.400000
745.255493	184.800000
745.293152	189.600000
745.330750	190.800000
745.368347	195.900000
745.405945	190.500000
745.443604	186.800000
745.481140	190.300000
745.518799	186.000000
745.556396	190.700000
745.593994	191.300000
745.631592	186.800000
745.669189	182.000000
745.706787	187.100000
745.744385	182.600000
745.781982	188.100000
745.819580	184.800000
745.857178	183.600000
745.894775	186.100000
745.932373	185.600000
745.969971	187.900000
746.007568	176.300000
746.045166	194.800000
746.082764	190.600000
746.120300	190.600000
746.157898	188.000000
746.195557	186.000000
746.233093	179.600000
746.270691	190.500000
746.308228	187.800000
746.345825	192.300000
746.383423	189.200000
746.420959	181.500000
746.458557	182.400000
746.496155	184.900000
746.533691	185.700000
746.571289	181.400000
746.608887	185.900000
746.646423	189.500000
746.684021	185.900000
746.721619	184.600000
746.759155	187.500000
746.796753	180.800000
746.834351	180.000000
746.871826	183.900000
746.909424	192.600000
746.946960	188.200000
746.984558	184.800000
747.022156	184.800000
747.059631	194.200000
747.097229	190.200000
747.134827	184.500000
747.172363	193.000000
747.209900	189.600000
747.247498	183.300000
747.285034	192.500000
747.322571	193.200000
747.360168	184.500000
747.397644	179.100000
747.435242	189.100000
747.472778	193.300000
747.510315	185.100000
747.547913	184.500000
747.585388	193.500000
747.622925	185.400000
747.660522	179.300000
747.697998	182.100000
747.735596	186.000000
747.773132	182.900000
747.810669	186.300000
747.848206	188.400000
747.885742	181.300000
747.923279	181.000000
747.960815	188.000000
747.998352	186.600000
748.035889	191.600000
748.073425	188.400000
748.110901	184.100000
748.148437	181.900000
748.185974	186.600000
748.223511	195.600000
748.261047	187.600000
748.298584	186.900000
748.336060	185.000000
748.373596	187.700000
748.411133	207.000000
748.448608	182.400000
748.486145	191.400000
748.523682	194.100000
748.561218	193.600000
748.598755	186.900000
748.636292	189.100000
748.673706	183.900000
748.711243	195.000000
748.748718	188.100000
748.786255	187.400000
748.823792	185.900000
748.861267	182.600000
748.898804	188.600000
748.936340	188.800000
748.973816	185.000000
749.011292	193.100000
749.048828	187.300000
749.086304	188.800000
749.123840	197.100000
749.161316	182.700000
749.198792	196.600000
749.236328	193.400000
749.273743	186.900000
749.311279	184.700000
749.348816	189.100000
749.386230	185.800000
749.423767	176.200000
749.461304	188.800000
749.498718	187.300000
749.536255	192.100000
749.573730	197.600000
749.611206	191.600000
749.648682	186.200000
749.686218	185.700000
749.723633	190.100000
749.761169	183.200000
749.798645	181.900000
749.836060	183.800000
749.873596	183.400000
749.911011	185.000000
749.948547	193.400000
749.986023	186.100000
750.023437	185.900000
750.060913	179.400000
750.098450	181.600000
750.135864	185.600000
750.173340	187.700000
750.210815	192.100000
750.248291	182.400000
750.285767	184.800000
750.323242	194.200000
750.360657	188.900000
750.398132	182.200000
750.435608	190.300000
750.473022	182.900000
750.510498	181.800000
750.547974	184.500000
750.585449	184.700000
750.622925	177.400000
750.660339	196.100000
750.697815	186.900000
750.735291	185.100000
750.772644	188.300000
750.810120	188.000000
750.847595	190.300000
750.885010	182.400000
750.922485	194.800000
750.959961	184.900000
750.997375	194.300000
751.034851	192.400000
751.072266	191.900000
751.109680	180.100000
751.147156	193.900000
751.184570	188.700000
751.221985	187.800000
751.259460	178.600000
751.296875	185.800000
751.334290	188.900000
751.371765	190.400000
751.409180	191.400000
751.446594	192.500000
751.484070	189.300000
751.521423	187.900000
751.558899	188.600000
751.596375	195.100000
751.633728	193.700000
751.671204	198.400000
751.708618	183.200000
751.746033	186.800000
751.783447	181.600000
751.820801	182.900000
751.858276	190.600000
751.895691	186.300000
751.933105	184.300000
751.970520	183.000000
752.007935	184.000000
752.045349	189.400000
752.082764	187.100000
752.120178	183.500000
752.157532	183.600000
752.195007	182.700000
752.232422	189.600000
752.269775	190.400000
752.307190	191.300000
752.344543	181.400000
752.382019	187.500000
752.419434	185.100000
752.456787	190.600000
752.494202	191.700000
752.531616	188.700000
752.568970	191.500000
752.606384	189.500000
752.643799	189.500000
752.681152	196.000000
752.718567	189.300000
752.755981	180.400000
752.793335	191.600000
752.830750	180.600000
752.868164	193.000000
752.905518	183.800000
752.942932	190.000000
752.980225	182.000000
753.017639	191.300000
753.055054	185.300000
753.092407	190.000000
753.129822	191.700000
753.167175	196.100000
753.204529	186.800000
753.241943	184.400000
753.279358	180.500000
753.316650	190.900000
753.354065	188.000000
753.391479	192.400000
753.428772	194.800000
753.466187	190.400000
753.503479	180.600000
753.540894	184.900000
753.578308	180.600000
753.615601	181.900000
753.653015	186.500000
753.690369	185.800000
753.727722	181.600000
753.765076	181.100000
753.802490	181.200000
753.839783	179.000000
753.877136	183.100000
753.914551	200.700000
753.951843	181.400000
753.989258	191.400000
754.026611	187.800000
754.063904	188.300000
754.101257	183.400000
754.138611	181.200000
754.175964	187.300000
754.213318	199.300000
754.250610	179.800000
754.288025	185.700000
754.325378	181.300000
754.362671	193.900000
754.400024	185.100000
754.437378	196.700000
754.474670	196.100000
754.512085	184.300000
754.549438	187.700000
754.586731	185.800000
754.624084	184.600000
754.661438	183.700000
754.698730	194.500000
754.736084	185.600000
754.773376	185.900000
754.810730	188.400000
754.848083	185.600000
754.885315	190.100000
754.922668	178.600000
754.960022	182.000000
754.997314	190.200000
755.034668	185.000000
755.072021	186.000000
755.109253	182.900000
755.146606	193.000000
755.183960	184.300000
755.221252	195.100000
755.258545	191.000000
755.295898	192.600000
755.333191	192.100000
755.370544	188.500000
755.407776	185.300000
755.445129	185.800000
755.482422	189.700000
755.519714	183.700000
755.557068	178.400000
755.594360	177.900000
755.631653	190.800000
755.668945	195.300000
755.706299	187.600000
755.743530	197.800000
755.780884	191.600000
755.818176	192.700000
755.855408	190.500000
755.892761	188.000000
755.930054	186.800000
755.967346	189.200000
756.004639	189.300000
756.041870	187.700000
756.079224	191.300000
756.116516	184.400000
756.153748	192.300000
756.191040	196.200000
756.228394	189.000000
756.265625	183.000000
756.302917	188.100000
756.340210	185.600000
756.377441	194.100000
756.414795	194.100000
756.452087	186.800000
756.489319	181.200000
756.526611	189.800000
756.563843	189.900000
756.601135	197.700000
756.638428	199.200000
756.675659	187.300000
756.712952	193.100000
756.750244	191.300000
756.787476	190.400000
756.824768	195.600000
756.862061	187.000000
756.899292	236.900000
756.936584	192.700000
756.973816	198.700000
757.011047	200.700000
757.048340	189.300000
757.085632	189.400000
757.122864	204.800000
757.160156	185.600000
757.197327	191.000000
757.234619	193.500000
757.271912	188.700000
757.309082	193.100000
757.346375	185.800000
757.383667	194.700000
757.420837	191.000000
757.458130	191.900000
757.495422	188.400000
757.532593	190.900000
757.569885	183.000000
757.607117	184.900000
757.644348	190.800000
757.681580	200.200000
757.718811	178.800000
757.756042	188.400000
757.793335	188.900000
757.830505	193.300000
757.867798	188.500000
757.905029	186.200000
757.942200	193.900000
757.979492	186.400000
758.016724	189.800000
758.053894	189.500000
758.091187	208.700000
758.128418	190.300000
758.165588	191.500000
758.202820	201.400000
758.240112	189.000000
758.277283	201.700000
758.314514	194.000000
758.351685	189.100000
758.388916	202.600000
758.426147	197.300000
758.463379	201.100000
758.500610	194.600000
758.537842	193.300000
758.575012	199.400000
758.612244	186.900000
758.649475	206.000000
758.686646	187.800000
758.723877	200.800000
758.761108	201.400000
758.798279	193.800000
758.835510	195.200000
758.872742	199.600000
758.909851	195.500000
758.947083	197.200000
758.984253	195.400000
759.021484	198.500000
759.058716	198.000000
759.095886	198.400000
759.133057	194.700000
759.170288	197.500000
759.207458	189.900000
759.244690	205.100000
759.281860	202.700000
759.319031	195.100000
759.356262	192.400000
759.393433	195.200000
759.430603	193.800000
759.467773	195.300000
759.505005	200.400000
759.542175	201.900000
759.579346	194.100000
759.616516	196.300000
759.653687	198.100000
759.690918	194.900000
759.728027	196.900000
759.765259	199.200000
759.802429	199.900000
759.839539	200.300000
759.876770	204.100000
759.913940	209.100000
759.951111	200.300000
759.988281	199.800000
760.025452	196.100000
760.062561	194.400000
760.099792	206.000000
760.136963	201.700000
760.174072	198.500000
760.211243	193.800000
760.248413	194.000000
760.285583	195.900000
760.322754	211.200000
760.359863	208.400000
760.397034	206.900000
760.434204	200.800000
760.471375	200.600000
760.508545	198.500000
760.545715	198.700000
760.582825	197.000000
760.619995	206.200000
760.657166	195.000000
760.694275	207.500000
760.731445	202.700000
760.768555	203.000000
760.805664	204.700000
760.842834	202.700000
760.879944	204.200000
760.917114	202.600000
760.954285	200.400000
760.991394	196.200000
761.028564	208.000000
761.065674	205.500000
761.102783	196.600000
761.139954	208.000000
761.177124	205.900000
761.214172	208.000000
761.251343	200.200000
761.288452	203.900000
761.325562	204.200000
761.362732	198.800000
761.399841	201.700000
761.436951	205.600000
761.474121	198.400000
761.511169	205.500000
761.548340	206.400000
761.585449	206.800000
761.622559	206.600000
761.659668	206.200000
761.696838	210.500000
761.733887	207.900000
761.771057	202.300000
761.808167	205.500000
761.845276	208.900000
761.882385	217.300000
761.919434	206.300000
761.956604	225.600000
761.993713	202.900000
762.030762	214.500000
762.067871	207.300000
762.105042	207.400000
762.142090	215.900000
762.179199	209.700000
762.216309	212.900000
762.253418	223.900000
762.290527	216.900000
762.327637	215.400000
762.364685	204.500000
762.401794	213.600000
762.438904	212.700000
762.475952	208.500000
762.513062	205.800000
762.550110	209.200000
762.587219	221.000000
762.624329	218.000000
762.661377	213.300000
762.698486	213.200000
762.735596	212.400000
762.772644	207.500000
762.809753	203.700000
762.846863	212.000000
762.883911	215.800000
762.921021	215.700000
762.958069	213.200000
762.995117	220.100000
763.032227	220.400000
763.069336	210.900000
763.106323	208.700000
763.143433	206.200000
763.180481	216.300000
763.217590	214.800000
763.254639	213.400000
763.291687	211.700000
763.328735	222.500000
763.365845	212.700000
763.402893	213.100000
763.439941	214.900000
763.477051	219.200000
763.514038	217.800000
763.551147	213.800000
763.588196	217.100000
763.625244	217.500000
763.662292	223.000000
763.699402	226.400000
763.736389	220.600000
763.773499	230.300000
763.810486	222.200000
763.847534	220.100000
763.884644	221.500000
763.921631	218.300000
763.958679	230.100000
763.995728	221.400000
764.032776	228.000000
764.069824	216.500000
764.106873	224.400000
764.143860	230.000000
764.180969	220.700000
764.218018	231.200000
764.255005	220.100000
764.292053	221.800000
764.329102	232.500000
764.366089	232.200000
764.403137	231.300000
764.440125	222.900000
764.477173	225.000000
764.514221	230.200000
764.551208	228.300000
764.588257	221.000000
764.625305	232.000000
764.662292	236.600000
764.699341	240.500000
764.736389	228.400000
764.773376	244.200000
764.810425	232.600000
764.847473	239.400000
764.884399	233.300000
764.921448	242.000000
764.958435	239.600000
764.995483	231.800000
765.032532	246.600000
765.069458	235.100000
765.106506	234.800000
765.143555	232.200000
765.180481	236.100000
765.217529	244.500000
765.254578	227.400000
765.291504	240.800000
765.328552	236.700000
765.365540	236.600000
765.402527	247.800000
765.439575	235.700000
765.476501	231.000000
765.513550	235.100000
765.550537	238.000000
765.587463	247.400000
765.624512	236.800000
765.661499	229.800000
765.698486	245.200000
765.735474	236.700000
765.772461	239.700000
765.809448	249.300000
765.846436	245.800000
765.883423	251.800000
765.920410	243.500000
765.957397	239.800000
765.994385	244.000000
766.031311	254.700000
766.068359	247.800000
766.105286	247.300000
766.142273	254.000000
766.179260	248.000000
766.216187	240.600000
766.253174	238.200000
766.290161	248.600000
766.327148	249.700000
766.364136	250.000000
766.401123	264.400000
766.438049	244.000000
766.475037	257.400000
766.512024	254.700000
766.548950	266.500000
766.585937	260.800000
766.622864	256.100000
766.659790	256.400000
766.696777	243.100000
766.733704	261.200000
766.770691	249.300000
766.807678	263.300000
766.844604	257.700000
766.881531	256.500000
766.918518	261.200000
766.955444	266.100000
766.992432	256.800000
767.029358	261.200000
767.066284	262.200000
767.103271	261.800000
767.140198	289.600000
767.177124	279.300000
767.214050	264.400000
767.251038	268.300000
767.287964	263.200000
767.324890	259.300000
767.361816	264.800000
767.398743	272.400000
767.435730	262.900000
767.472595	268.700000
767.509583	272.800000
767.546509	264.000000
767.583374	268.200000
767.620361	262.200000
767.657288	267.700000
767.694214	267.900000
767.731140	266.100000
767.768066	267.200000
767.804993	272.800000
767.841919	263.900000
767.878845	271.200000
767.915710	278.000000
767.952698	269.900000
767.989563	275.100000
768.026489	275.400000
