Model Number: SPM-001-M   
Serial Number: 10090201
Firmware Version: 004.17.6
Exposure Time: 500000.000000us
Data Taken on: 03-03-2021 09:54:39.168
Wavelength	Amplitude
733.770752	0.000000
733.808716	0.000000
733.846619	0.000000
733.884583	0.000000
733.922546	0.000000
733.960449	0.000000
733.998413	0.000000
734.036377	0.000000
734.074219	0.000000
734.112183	0.000000
734.150085	0.000000
734.188049	0.000000
734.226013	0.000000
734.263916	0.000000
734.301819	0.000000
734.339783	0.000000
734.377686	0.000000
734.415588	0.000000
734.453552	0.000000
734.491455	0.000000
734.529419	0.000000
734.567322	0.000000
734.605225	0.000000
734.643127	0.000000
734.681091	0.000000
734.718994	0.000000
734.756897	0.000000
734.794800	0.000000
734.832703	0.000000
734.870667	0.000000
734.908508	0.000000
734.946472	0.000000
734.984375	0.000000
735.022278	0.000000
735.060181	0.000000
735.098083	0.000000
735.135986	0.000000
735.173889	0.000000
735.211792	0.000000
735.249695	0.000000
735.287598	0.000000
735.325439	0.000000
735.363403	0.000000
735.401306	0.000000
735.439148	0.000000
735.477051	0.000000
735.515015	0.000000
735.552856	0.000000
735.590759	0.000000
735.628662	0.000000
735.666504	0.000000
735.704407	0.000000
735.742310	0.000000
735.780212	0.000000
735.818115	0.000000
735.856018	0.000000
735.893860	0.000000
735.931763	0.000000
735.969604	0.000000
736.007507	0.000000
736.045410	0.000000
736.083252	0.000000
736.121094	0.000000
736.158997	0.000000
736.196838	0.000000
736.234741	0.000000
736.272644	0.000000
736.310486	0.000000
736.348389	0.000000
736.386230	0.000000
736.424072	0.000000
736.461975	0.000000
736.499878	0.000000
736.537720	0.000000
736.575562	0.000000
736.613403	0.000000
736.651306	0.000000
736.689148	0.000000
736.726990	0.000000
736.764893	0.000000
736.802734	0.000000
736.840576	0.000000
736.878418	0.000000
736.916321	0.000000
736.954102	0.000000
736.992004	0.000000
737.029846	0.000000
737.067688	0.000000
737.105530	0.000000
737.143372	0.000000
737.181213	0.000000
737.219116	0.000000
737.256897	0.000000
737.294739	0.000000
737.332642	0.000000
737.370422	0.000000
737.408325	0.000000
737.446167	0.000000
737.483948	0.000000
737.521790	0.000000
737.559692	0.000000
737.597473	0.000000
737.635315	0.000000
737.673157	0.000000
737.710999	0.000000
737.748840	0.000000
737.786621	0.000000
737.824463	0.000000
737.862305	0.000000
737.900085	0.000000
737.937927	0.000000
737.975769	0.000000
738.013550	0.000000
738.051392	0.000000
738.089233	0.000000
738.127014	0.000000
738.164856	0.000000
738.202698	0.000000
738.240479	0.000000
738.278320	0.000000
738.316162	0.000000
738.353943	0.000000
738.391785	0.000000
738.429565	0.000000
738.467407	0.000000
738.505188	0.000000
738.542969	0.000000
738.580811	0.000000
738.618652	0.000000
738.656372	0.000000
738.694214	0.000000
738.732056	0.000000
738.769836	0.000000
738.807617	0.000000
738.845459	0.000000
738.883240	0.000000
738.921021	0.000000
738.958862	0.000000
738.996582	0.000000
739.034424	0.000000
739.072205	0.000000
739.109985	0.000000
739.147827	0.000000
739.185547	0.000000
739.223389	0.000000
739.261169	0.000000
739.298889	0.000000
739.336731	0.000000
739.374512	0.000000
739.412292	0.000000
739.450073	0.000000
739.487854	0.000000
739.525635	0.000000
739.563416	0.000000
739.601135	0.000000
739.638977	0.000000
739.676758	0.000000
739.714478	0.000000
739.752258	0.000000
739.790100	0.000000
739.827820	0.000000
739.865601	0.000000
739.903381	0.000000
739.941101	0.000000
739.978882	189.700000
740.016724	185.900000
740.054443	190.100000
740.092224	184.000000
740.130005	182.400000
740.167725	184.100000
740.205505	182.100000
740.243225	193.700000
740.281006	187.500000
740.318787	180.400000
740.356506	191.400000
740.394287	192.500000
740.432068	181.700000
740.469727	180.700000
740.507507	189.400000
740.545288	186.400000
740.583008	188.400000
740.620789	187.300000
740.658569	178.400000
740.696228	186.400000
740.734009	192.600000
740.771790	176.600000
740.809509	190.200000
740.847229	182.700000
740.884949	182.700000
740.922729	180.100000
740.960449	183.200000
740.998169	181.500000
741.035950	182.300000
741.073669	190.300000
741.111389	186.100000
741.149170	197.600000
741.186890	195.500000
741.224609	190.900000
741.262329	187.600000
741.300110	197.600000
741.337769	181.600000
741.375549	181.600000
741.413208	188.600000
741.450989	182.900000
741.488708	184.200000
741.526367	184.500000
741.564148	189.300000
741.601868	190.100000
741.639526	186.000000
741.677307	187.000000
741.715027	186.600000
741.752686	182.000000
741.790466	193.300000
741.828186	188.400000
741.865845	182.600000
741.903564	177.900000
741.941345	187.000000
741.979004	181.200000
742.016724	189.400000
742.054382	187.200000
742.092102	192.000000
742.129822	179.200000
742.167480	185.300000
742.205200	184.300000
742.242920	187.800000
742.280640	189.500000
742.318359	183.500000
742.356079	184.200000
742.393738	190.400000
742.431396	185.000000
742.469116	192.700000
742.506775	175.700000
742.544495	189.100000
742.582214	189.500000
742.619873	188.000000
742.657593	191.800000
742.695251	192.200000
742.732971	186.300000
742.770630	189.500000
742.808289	185.600000
742.846008	187.500000
742.883728	188.400000
742.921326	186.900000
742.959045	183.500000
742.996765	186.200000
743.034424	186.200000
743.072083	185.100000
743.109802	187.400000
743.147400	180.100000
743.185120	185.800000
743.222839	185.600000
743.260437	191.200000
743.298157	187.200000
743.335754	177.500000
743.373474	184.900000
743.411133	178.400000
743.448792	187.500000
743.486450	186.100000
743.524170	178.900000
743.561768	185.600000
743.599487	192.900000
743.637146	196.400000
743.674744	184.900000
743.712463	184.200000
743.750122	187.000000
743.787720	189.900000
743.825439	182.100000
743.863037	185.500000
743.900696	185.500000
743.938416	211.300000
743.976013	184.500000
744.013672	194.600000
744.051331	192.100000
744.088928	195.700000
744.126587	191.100000
744.164307	188.500000
744.201904	183.400000
744.239563	190.000000
744.277222	187.900000
744.314819	187.400000
744.352478	192.900000
744.390137	189.700000
744.427734	188.800000
744.465393	186.600000
744.502991	181.600000
744.540649	190.200000
744.578308	187.000000
744.615906	182.600000
744.653564	176.100000
744.691223	190.600000
744.728821	178.800000
744.766418	188.000000
744.804077	188.800000
744.841675	184.100000
744.879333	179.600000
744.916992	185.100000
744.954529	182.700000
744.992187	191.400000
745.029785	185.500000
745.067444	183.600000
745.105042	186.600000
745.142639	189.100000
745.180298	195.500000
745.217896	184.000000
745.255493	186.000000
745.293152	191.300000
745.330750	189.600000
745.368347	194.300000
745.405945	188.800000
745.443604	185.700000
745.481140	189.800000
745.518799	185.700000
745.556396	190.900000
745.593994	191.000000
745.631592	186.000000
745.669189	180.300000
745.706787	187.500000
745.744385	183.100000
745.781982	188.600000
745.819580	184.800000
745.857178	184.400000
745.894775	185.700000
745.932373	186.800000
745.969971	187.500000
746.007568	179.700000
746.045166	196.500000
746.082764	191.900000
746.120300	190.400000
746.157898	191.600000
746.195557	186.200000
746.233093	180.300000
746.270691	189.500000
746.308228	188.700000
746.345825	190.400000
746.383423	190.500000
746.420959	181.500000
746.458557	185.200000
746.496155	185.100000
746.533691	187.900000
746.571289	181.800000
746.608887	188.000000
746.646423	186.300000
746.684021	187.400000
746.721619	184.300000
746.759155	189.500000
746.796753	178.900000
746.834351	181.000000
746.871826	183.600000
746.909424	193.300000
746.946960	187.500000
746.984558	186.000000
747.022156	184.400000
747.059631	194.500000
747.097229	188.700000
747.134827	185.100000
747.172363	194.100000
747.209900	189.100000
747.247498	181.300000
747.285034	194.000000
747.322571	193.200000
747.360168	186.100000
747.397644	180.000000
747.435242	191.600000
747.472778	193.800000
747.510315	184.900000
747.547913	184.300000
747.585388	193.600000
747.622925	185.400000
747.660522	178.900000
747.697998	182.500000
747.735596	184.000000
747.773132	184.100000
747.810669	186.300000
747.848206	191.300000
747.885742	181.700000
747.923279	181.100000
747.960815	188.200000
747.998352	187.700000
748.035889	191.800000
748.073425	192.500000
748.110901	183.000000
748.148437	183.600000
748.185974	186.900000
748.223511	196.700000
748.261047	188.100000
748.298584	188.700000
748.336060	185.200000
748.373596	190.900000
748.411133	206.300000
748.448608	184.300000
748.486145	189.900000
748.523682	194.200000
748.561218	193.100000
748.598755	189.100000
748.636292	190.900000
748.673706	185.100000
748.711243	192.300000
748.748718	189.800000
748.786255	186.400000
748.823792	187.100000
748.861267	182.200000
748.898804	190.000000
748.936340	188.400000
748.973816	185.700000
749.011292	192.700000
749.048828	188.500000
749.086304	188.400000
749.123840	198.300000
749.161316	182.200000
749.198792	196.600000
749.236328	192.100000
749.273743	187.100000
749.311279	185.400000
749.348816	189.000000
749.386230	186.500000
749.423767	175.200000
749.461304	189.600000
749.498718	186.300000
749.536255	193.300000
749.573730	198.500000
749.611206	193.000000
749.648682	185.200000
749.686218	186.100000
749.723633	189.700000
749.761169	185.900000
749.798645	183.000000
749.836060	185.700000
749.873596	183.200000
749.911011	188.800000
749.948547	193.400000
749.986023	187.500000
750.023437	185.700000
750.060913	181.100000
750.098450	180.400000
750.135864	186.000000
750.173340	185.900000
750.210815	192.700000
750.248291	181.500000
750.285767	187.800000
750.323242	193.000000
750.360657	189.900000
750.398132	181.400000
750.435608	191.000000
750.473022	182.300000
750.510498	183.000000
750.547974	181.400000
750.585449	186.700000
750.622925	176.600000
750.660339	197.200000
750.697815	186.600000
750.735291	186.500000
750.772644	187.500000
750.810120	188.900000
750.847595	189.000000
750.885010	182.300000
750.922485	196.200000
750.959961	185.200000
750.997375	194.300000
751.034851	190.500000
751.072266	191.300000
751.109680	179.900000
751.147156	192.400000
751.184570	188.400000
751.221985	187.200000
751.259460	178.000000
751.296875	187.700000
751.334290	186.900000
751.371765	190.100000
751.409180	189.500000
751.446594	193.900000
751.484070	188.000000
751.521423	187.700000
751.558899	187.900000
751.596375	194.000000
751.633728	194.400000
751.671204	199.700000
751.708618	182.000000
751.746033	188.000000
751.783447	180.200000
751.820801	183.300000
751.858276	188.600000
751.895691	188.400000
751.933105	184.600000
751.970520	183.600000
752.007935	184.400000
752.045349	191.000000
752.082764	186.800000
752.120178	186.200000
752.157532	182.000000
752.195007	184.300000
752.232422	189.000000
752.269775	191.600000
752.307190	188.900000
752.344543	183.000000
752.382019	185.700000
752.419434	185.200000
752.456787	187.600000
752.494202	191.600000
752.531616	186.900000
752.568970	192.500000
752.606384	187.700000
752.643799	189.100000
752.681152	194.400000
752.718567	190.500000
752.755981	178.900000
752.793335	190.700000
752.830750	178.400000
752.868164	192.700000
752.905518	183.800000
752.942932	191.500000
752.980225	181.800000
753.017639	191.600000
753.055054	186.000000
753.092407	188.900000
753.129822	192.300000
753.167175	197.600000
753.204529	186.900000
753.241943	185.000000
753.279358	180.600000
753.316650	189.200000
753.354065	188.600000
753.391479	191.900000
753.428772	196.100000
753.466187	189.300000
753.503479	182.900000
753.540894	185.200000
753.578308	182.200000
753.615601	181.300000
753.653015	188.800000
753.690369	183.600000
753.727722	182.900000
753.765076	179.500000
753.802490	182.500000
753.839783	178.400000
753.877136	186.600000
753.914551	200.800000
753.951843	183.000000
753.989258	190.800000
754.026611	188.800000
754.063904	187.800000
754.101257	184.000000
754.138611	177.700000
754.175964	188.700000
754.213318	197.600000
754.250610	180.000000
754.288025	183.400000
754.325378	182.500000
754.362671	193.400000
754.400024	186.400000
754.437378	197.000000
754.474670	196.800000
754.512085	182.300000
754.549438	188.700000
754.586731	184.700000
754.624084	186.100000
754.661438	181.100000
754.698730	196.300000
754.736084	183.800000
754.773376	185.700000
754.810730	188.900000
754.848083	185.300000
754.885315	191.500000
754.922668	178.900000
754.960022	181.500000
754.997314	190.700000
755.034668	185.800000
755.072021	187.500000
755.109253	184.500000
755.146606	192.300000
755.183960	183.200000
755.221252	193.700000
755.258545	190.600000
755.295898	191.600000
755.333191	193.700000
755.370544	189.400000
755.407776	184.800000
755.445129	185.700000
755.482422	191.400000
755.519714	181.600000
755.557068	180.900000
755.594360	177.300000
755.631653	189.900000
755.668945	194.000000
755.706299	188.800000
755.743530	196.500000
755.780884	194.300000
755.818176	191.200000
755.855408	191.700000
755.892761	188.000000
755.930054	188.600000
755.967346	187.200000
756.004639	190.200000
756.041870	186.800000
756.079224	192.000000
756.116516	182.100000
756.153748	190.000000
756.191040	194.600000
756.228394	189.900000
756.265625	181.500000
756.302917	188.900000
756.340210	182.100000
756.377441	192.200000
756.414795	193.800000
756.452087	187.300000
756.489319	180.400000
756.526611	191.700000
756.563843	188.100000
756.601135	197.000000
756.638428	196.200000
756.675659	187.000000
756.712952	191.000000
756.750244	191.700000
756.787476	188.700000
756.824768	194.100000
756.862061	185.800000
756.899292	235.300000
756.936584	191.700000
756.973816	199.000000
757.011047	199.700000
757.048340	188.900000
757.085632	188.600000
757.122864	203.800000
757.160156	186.300000
757.197327	190.700000
757.234619	193.000000
757.271912	188.300000
757.309082	193.800000
757.346375	185.400000
757.383667	194.300000
757.420837	190.100000
757.458130	191.800000
757.495422	188.700000
757.532593	191.300000
757.569885	182.800000
757.607117	185.600000
757.644348	191.000000
757.681580	202.700000
757.718811	178.300000
757.756042	190.500000
757.793335	186.700000
757.830505	194.300000
757.867798	187.400000
757.905029	187.700000
757.942200	191.900000
757.979492	188.100000
758.016724	188.700000
758.053894	188.500000
758.091187	207.900000
758.128418	191.600000
758.165588	189.000000
758.202820	202.900000
758.240112	188.400000
758.277283	202.100000
758.314514	191.800000
758.351685	189.300000
758.388916	200.600000
758.426147	199.300000
758.463379	200.900000
758.500610	195.200000
758.537842	191.600000
758.575012	199.000000
758.612244	187.900000
758.649475	204.300000
758.686646	185.800000
758.723877	199.300000
758.761108	199.100000
758.798279	191.200000
758.835510	194.700000
758.872742	199.200000
758.909851	194.700000
758.947083	196.100000
758.984253	193.500000
759.021484	197.700000
759.058716	197.500000
759.095886	197.000000
759.133057	192.500000
759.170288	197.200000
759.207458	190.600000
759.244690	205.900000
759.281860	204.300000
759.319031	195.000000
759.356262	192.600000
759.393433	193.500000
759.430603	193.700000
759.467773	192.700000
759.505005	201.600000
759.542175	200.000000
759.579346	195.600000
759.616516	194.100000
759.653687	198.700000
759.690918	193.100000
759.728027	198.500000
759.765259	196.800000
759.802429	201.100000
759.839539	198.000000
759.876770	203.700000
759.913940	205.700000
759.951111	199.600000
759.988281	198.200000
760.025452	196.000000
760.062561	193.700000
760.099792	207.400000
760.136963	201.400000
760.174072	196.700000
760.211243	193.400000
760.248413	195.600000
760.285583	192.800000
760.322754	210.000000
760.359863	203.600000
760.397034	206.300000
760.434204	198.700000
760.471375	198.100000
760.508545	196.600000
760.545715	198.800000
760.582825	193.700000
760.619995	203.600000
760.657166	193.200000
760.694275	206.600000
760.731445	201.800000
760.768555	201.700000
760.805664	204.300000
760.842834	202.100000
760.879944	203.400000
760.917114	201.600000
760.954285	199.600000
760.991394	194.600000
761.028564	205.900000
761.065674	203.500000
761.102783	197.500000
761.139954	205.100000
761.177124	205.100000
761.214172	206.800000
761.251343	201.200000
761.288452	201.500000
761.325562	206.300000
761.362732	196.800000
761.399841	202.400000
761.436951	202.200000
761.474121	198.500000
761.511169	201.700000
761.548340	206.500000
761.585449	204.800000
761.622559	207.800000
761.659668	203.100000
761.696838	209.800000
761.733887	202.900000
761.771057	203.300000
761.808167	202.500000
761.845276	208.300000
761.882385	214.900000
761.919434	204.500000
761.956604	222.400000
761.993713	200.900000
762.030762	210.600000
762.067871	204.700000
762.105042	203.300000
762.142090	213.800000
762.179199	207.100000
762.216309	212.200000
762.253418	220.300000
762.290527	215.600000
762.327637	212.000000
762.364685	202.100000
762.401794	211.500000
762.438904	211.000000
762.475952	205.000000
762.513062	204.600000
762.550110	203.600000
762.587219	218.700000
762.624329	216.300000
762.661377	210.200000
762.698486	210.500000
762.735596	210.000000
762.772644	204.300000
762.809753	202.000000
762.846863	208.700000
762.883911	213.600000
762.921021	212.700000
762.958069	210.900000
762.995117	216.800000
763.032227	217.300000
763.069336	209.600000
763.106323	204.600000
763.143433	205.200000
763.180481	212.200000
763.217590	213.400000
763.254639	209.800000
763.291687	210.500000
763.328735	217.200000
763.365845	211.900000
763.402893	210.100000
763.439941	213.400000
763.477051	215.200000
763.514038	217.800000
763.551147	209.700000
763.588196	215.100000
763.625244	213.500000
763.662292	221.300000
763.699402	222.900000
763.736389	218.900000
763.773499	224.800000
763.810486	220.100000
763.847534	215.800000
763.884644	218.900000
763.921631	213.200000
763.958679	227.200000
763.995728	215.000000
764.032776	226.600000
764.069824	212.700000
764.106873	223.400000
764.143860	226.200000
764.180969	217.200000
764.218018	223.400000
764.255005	216.900000
764.292053	218.100000
764.329102	230.900000
764.366089	227.400000
764.403137	226.800000
764.440125	218.600000
764.477173	221.300000
764.514221	223.100000
764.551208	222.400000
764.588257	217.700000
764.625305	226.300000
764.662292	230.500000
764.699341	233.200000
764.736389	225.600000
764.773376	240.100000
764.810425	227.100000
764.847473	235.700000
764.884399	230.400000
764.921448	239.000000
764.958435	237.900000
764.995483	227.200000
765.032532	243.800000
765.069458	229.800000
765.106506	231.500000
765.143555	228.600000
765.180481	231.800000
765.217529	241.600000
765.254578	226.000000
765.291504	235.200000
765.328552	233.600000
765.365540	230.000000
765.402527	244.100000
765.439575	230.000000
765.476501	229.300000
765.513550	227.900000
765.550537	235.900000
765.587463	241.300000
765.624512	235.400000
765.661499	223.700000
765.698486	241.400000
765.735474	230.600000
765.772461	234.000000
765.809448	240.900000
765.846436	240.500000
765.883423	242.900000
765.920410	239.300000
765.957397	233.200000
765.994385	241.800000
766.031311	248.000000
766.068359	242.700000
766.105286	240.300000
766.142273	248.100000
766.179260	241.800000
766.216187	235.500000
766.253174	233.200000
766.290161	243.700000
766.327148	244.600000
766.364136	245.800000
766.401123	259.400000
766.438049	237.200000
766.475037	251.100000
766.512024	248.400000
766.548950	262.600000
766.585937	255.300000
766.622864	251.700000
766.659790	250.800000
766.696777	240.200000
766.733704	252.500000
766.770691	243.000000
766.807678	257.900000
766.844604	252.600000
766.881531	251.500000
766.918518	257.400000
766.955444	258.000000
766.992432	249.200000
767.029358	254.200000
767.066284	257.200000
767.103271	252.500000
767.140198	283.800000
767.177124	268.300000
767.214050	258.100000
767.251038	258.200000
767.287964	256.100000
767.324890	252.100000
767.361816	257.600000
767.398743	260.900000
767.435730	255.500000
767.472595	259.800000
767.509583	266.400000
767.546509	253.300000
767.583374	260.800000
767.620361	251.400000
767.657288	259.200000
767.694214	258.000000
767.731140	257.700000
767.768066	257.900000
767.804993	263.900000
767.841919	253.300000
767.878845	261.600000
767.915710	268.400000
767.952698	263.100000
767.989563	264.600000
768.026489	265.700000
