Model Number: SPM-001-M   
Serial Number: 10090201
Firmware Version: 004.17.6
Exposure Time: 500000.000000us
Data Taken on: 03-03-2021 09:59:46.664
Wavelength	Amplitude
733.770752	0.000000
733.808716	0.000000
733.846619	0.000000
733.884583	0.000000
733.922546	0.000000
733.960449	0.000000
733.998413	0.000000
734.036377	0.000000
734.074219	0.000000
734.112183	0.000000
734.150085	0.000000
734.188049	0.000000
734.226013	0.000000
734.263916	0.000000
734.301819	0.000000
734.339783	0.000000
734.377686	0.000000
734.415588	0.000000
734.453552	0.000000
734.491455	0.000000
734.529419	0.000000
734.567322	0.000000
734.605225	0.000000
734.643127	0.000000
734.681091	0.000000
734.718994	0.000000
734.756897	0.000000
734.794800	0.000000
734.832703	0.000000
734.870667	0.000000
734.908508	0.000000
734.946472	0.000000
734.984375	0.000000
735.022278	0.000000
735.060181	0.000000
735.098083	0.000000
735.135986	0.000000
735.173889	0.000000
735.211792	0.000000
735.249695	0.000000
735.287598	0.000000
735.325439	0.000000
735.363403	0.000000
735.401306	0.000000
735.439148	0.000000
735.477051	0.000000
735.515015	0.000000
735.552856	0.000000
735.590759	0.000000
735.628662	0.000000
735.666504	0.000000
735.704407	0.000000
735.742310	0.000000
735.780212	0.000000
735.818115	0.000000
735.856018	0.000000
735.893860	0.000000
735.931763	0.000000
735.969604	0.000000
736.007507	0.000000
736.045410	0.000000
736.083252	0.000000
736.121094	0.000000
736.158997	0.000000
736.196838	0.000000
736.234741	0.000000
736.272644	0.000000
736.310486	0.000000
736.348389	0.000000
736.386230	0.000000
736.424072	0.000000
736.461975	0.000000
736.499878	0.000000
736.537720	0.000000
736.575562	0.000000
736.613403	0.000000
736.651306	0.000000
736.689148	0.000000
736.726990	0.000000
736.764893	0.000000
736.802734	0.000000
736.840576	0.000000
736.878418	0.000000
736.916321	0.000000
736.954102	0.000000
736.992004	0.000000
737.029846	0.000000
737.067688	0.000000
737.105530	0.000000
737.143372	0.000000
737.181213	0.000000
737.219116	0.000000
737.256897	0.000000
737.294739	0.000000
737.332642	0.000000
737.370422	0.000000
737.408325	0.000000
737.446167	0.000000
737.483948	0.000000
737.521790	0.000000
737.559692	0.000000
737.597473	0.000000
737.635315	0.000000
737.673157	0.000000
737.710999	0.000000
737.748840	0.000000
737.786621	0.000000
737.824463	0.000000
737.862305	0.000000
737.900085	0.000000
737.937927	0.000000
737.975769	0.000000
738.013550	0.000000
738.051392	0.000000
738.089233	0.000000
738.127014	0.000000
738.164856	0.000000
738.202698	0.000000
738.240479	0.000000
738.278320	0.000000
738.316162	0.000000
738.353943	0.000000
738.391785	0.000000
738.429565	0.000000
738.467407	0.000000
738.505188	0.000000
738.542969	0.000000
738.580811	0.000000
738.618652	0.000000
738.656372	0.000000
738.694214	0.000000
738.732056	0.000000
738.769836	0.000000
738.807617	0.000000
738.845459	0.000000
738.883240	0.000000
738.921021	0.000000
738.958862	0.000000
738.996582	0.000000
739.034424	0.000000
739.072205	0.000000
739.109985	0.000000
739.147827	0.000000
739.185547	0.000000
739.223389	0.000000
739.261169	0.000000
739.298889	0.000000
739.336731	0.000000
739.374512	0.000000
739.412292	0.000000
739.450073	0.000000
739.487854	0.000000
739.525635	0.000000
739.563416	0.000000
739.601135	0.000000
739.638977	0.000000
739.676758	0.000000
739.714478	0.000000
739.752258	0.000000
739.790100	0.000000
739.827820	0.000000
739.865601	0.000000
739.903381	0.000000
739.941101	0.000000
739.978882	189.800000
740.016724	184.800000
740.054443	190.500000
740.092224	182.900000
740.130005	182.000000
740.167725	183.900000
740.205505	183.900000
740.243225	193.300000
740.281006	187.800000
740.318787	180.100000
740.356506	192.600000
740.394287	191.800000
740.432068	181.900000
740.469727	180.600000
740.507507	189.000000
740.545288	186.400000
740.583008	189.700000
740.620789	187.900000
740.658569	180.200000
740.696228	185.500000
740.734009	191.900000
740.771790	176.000000
740.809509	190.400000
740.847229	182.700000
740.884949	183.300000
740.922729	179.500000
740.960449	184.800000
740.998169	183.200000
741.035950	182.400000
741.073669	189.000000
741.111389	186.500000
741.149170	195.700000
741.186890	195.100000
741.224609	190.000000
741.262329	186.700000
741.300110	196.600000
741.337769	181.100000
741.375549	181.100000
741.413208	187.000000
741.450989	182.800000
741.488708	183.500000
741.526367	184.600000
741.564148	189.500000
741.601868	192.300000
741.639526	185.400000
741.677307	188.400000
741.715027	187.800000
741.752686	183.500000
741.790466	193.600000
741.828186	189.500000
741.865845	181.400000
741.903564	179.200000
741.941345	186.100000
741.979004	183.300000
742.016724	189.400000
742.054382	188.300000
742.092102	191.400000
742.129822	180.200000
742.167480	185.100000
742.205200	184.800000
742.242920	187.500000
742.280640	191.300000
742.318359	181.500000
742.356079	184.900000
742.393738	189.700000
742.431396	185.600000
742.469116	189.500000
742.506775	176.300000
742.544495	189.800000
742.582214	190.800000
742.619873	185.900000
742.657593	193.500000
742.695251	190.400000
742.732971	185.100000
742.770630	187.400000
742.808289	184.900000
742.846008	185.200000
742.883728	188.600000
742.921326	184.700000
742.959045	182.800000
742.996765	186.400000
743.034424	185.800000
743.072083	184.200000
743.109802	184.800000
743.147400	179.700000
743.185120	186.100000
743.222839	185.800000
743.260437	190.500000
743.298157	187.300000
743.335754	178.100000
743.373474	184.100000
743.411133	178.800000
743.448792	185.800000
743.486450	186.000000
743.524170	179.200000
743.561768	186.200000
743.599487	193.800000
743.637146	196.300000
743.674744	184.300000
743.712463	182.900000
743.750122	187.700000
743.787720	188.300000
743.825439	181.800000
743.863037	184.700000
743.900696	185.900000
743.938416	211.300000
743.976013	185.900000
744.013672	193.200000
744.051331	190.800000
744.088928	195.900000
744.126587	192.600000
744.164307	187.700000
744.201904	183.700000
744.239563	189.200000
744.277222	188.500000
744.314819	186.700000
744.352478	192.100000
744.390137	188.400000
744.427734	189.100000
744.465393	184.900000
744.502991	181.900000
744.540649	190.200000
744.578308	186.400000
744.615906	180.100000
744.653564	175.600000
744.691223	189.300000
744.728821	179.700000
744.766418	186.100000
744.804077	187.600000
744.841675	184.500000
744.879333	179.700000
744.916992	185.500000
744.954529	184.200000
744.992187	191.800000
745.029785	184.600000
745.067444	182.500000
745.105042	187.700000
745.142639	187.700000
745.180298	196.100000
745.217896	183.700000
745.255493	184.400000
745.293152	190.000000
745.330750	190.700000
745.368347	193.800000
745.405945	189.200000
745.443604	186.200000
745.481140	190.500000
745.518799	186.800000
745.556396	190.000000
745.593994	191.300000
745.631592	185.600000
745.669189	181.600000
745.706787	186.700000
745.744385	183.800000
745.781982	188.800000
745.819580	184.800000
745.857178	185.500000
745.894775	186.100000
745.932373	187.100000
745.969971	188.200000
746.007568	178.600000
746.045166	195.200000
746.082764	191.900000
746.120300	190.200000
746.157898	191.400000
746.195557	186.500000
746.233093	181.000000
746.270691	190.500000
746.308228	188.100000
746.345825	190.900000
746.383423	190.200000
746.420959	182.600000
746.458557	184.200000
746.496155	185.700000
746.533691	186.600000
746.571289	182.200000
746.608887	186.500000
746.646423	187.900000
746.684021	187.400000
746.721619	183.900000
746.759155	190.200000
746.796753	179.200000
746.834351	180.000000
746.871826	181.500000
746.909424	192.700000
746.946960	187.100000
746.984558	185.500000
747.022156	183.900000
747.059631	194.100000
747.097229	188.600000
747.134827	185.300000
747.172363	193.200000
747.209900	189.200000
747.247498	181.600000
747.285034	194.100000
747.322571	191.400000
747.360168	184.500000
747.397644	179.900000
747.435242	191.500000
747.472778	192.500000
747.510315	185.300000
747.547913	183.700000
747.585388	192.500000
747.622925	184.300000
747.660522	178.900000
747.697998	182.300000
747.735596	187.000000
747.773132	183.700000
747.810669	187.000000
747.848206	190.800000
747.885742	181.900000
747.923279	181.000000
747.960815	188.800000
747.998352	187.400000
748.035889	191.300000
748.073425	190.200000
748.110901	184.500000
748.148437	182.800000
748.185974	188.100000
748.223511	196.600000
748.261047	188.700000
748.298584	188.600000
748.336060	185.200000
748.373596	189.900000
748.411133	206.400000
748.448608	182.400000
748.486145	189.400000
748.523682	193.900000
748.561218	193.600000
748.598755	188.100000
748.636292	189.600000
748.673706	185.100000
748.711243	191.300000
748.748718	188.500000
748.786255	185.900000
748.823792	187.600000
748.861267	182.200000
748.898804	189.700000
748.936340	188.900000
748.973816	185.300000
749.011292	191.800000
749.048828	188.900000
749.086304	188.600000
749.123840	198.400000
749.161316	181.600000
749.198792	197.400000
749.236328	192.300000
749.273743	187.600000
749.311279	185.700000
749.348816	189.900000
749.386230	187.100000
749.423767	175.200000
749.461304	189.400000
749.498718	187.800000
749.536255	192.800000
749.573730	198.600000
749.611206	192.900000
749.648682	187.100000
749.686218	186.300000
749.723633	191.400000
749.761169	183.800000
749.798645	183.800000
749.836060	184.900000
749.873596	183.700000
749.911011	186.700000
749.948547	193.500000
749.986023	187.100000
750.023437	186.800000
750.060913	179.700000
750.098450	181.200000
750.135864	185.400000
750.173340	186.400000
750.210815	192.200000
750.248291	183.300000
750.285767	187.900000
750.323242	192.800000
750.360657	189.500000
750.398132	182.900000
750.435608	190.900000
750.473022	182.600000
750.510498	182.700000
750.547974	183.600000
750.585449	184.700000
750.622925	177.100000
750.660339	196.900000
750.697815	186.600000
750.735291	185.100000
750.772644	187.100000
750.810120	189.100000
750.847595	189.700000
750.885010	182.500000
750.922485	194.600000
750.959961	186.200000
750.997375	192.300000
751.034851	189.900000
751.072266	191.600000
751.109680	180.000000
751.147156	191.700000
751.184570	189.800000
751.221985	187.900000
751.259460	178.700000
751.296875	186.200000
751.334290	187.900000
751.371765	190.500000
751.409180	190.600000
751.446594	192.800000
751.484070	190.400000
751.521423	188.500000
751.558899	189.500000
751.596375	194.800000
751.633728	193.500000
751.671204	199.500000
751.708618	183.300000
751.746033	188.200000
751.783447	181.500000
751.820801	183.100000
751.858276	190.400000
751.895691	186.800000
751.933105	184.800000
751.970520	181.700000
752.007935	185.500000
752.045349	190.700000
752.082764	187.100000
752.120178	184.500000
752.157532	183.300000
752.195007	185.100000
752.232422	188.400000
752.269775	191.900000
752.307190	190.400000
752.344543	183.800000
752.382019	185.400000
752.419434	184.700000
752.456787	188.200000
752.494202	192.000000
752.531616	188.100000
752.568970	192.100000
752.606384	188.000000
752.643799	188.800000
752.681152	195.900000
752.718567	189.900000
752.755981	177.300000
752.793335	190.700000
752.830750	178.700000
752.868164	192.400000
752.905518	180.900000
752.942932	190.200000
752.980225	181.100000
753.017639	192.100000
753.055054	184.800000
753.092407	189.500000
753.129822	192.400000
753.167175	197.300000
753.204529	185.700000
753.241943	183.900000
753.279358	181.200000
753.316650	190.900000
753.354065	189.100000
753.391479	193.100000
753.428772	194.500000
753.466187	190.900000
753.503479	181.400000
753.540894	186.200000
753.578308	180.800000
753.615601	182.500000
753.653015	186.200000
753.690369	185.100000
753.727722	181.700000
753.765076	181.100000
753.802490	181.600000
753.839783	179.500000
753.877136	184.200000
753.914551	201.100000
753.951843	183.100000
753.989258	190.600000
754.026611	188.200000
754.063904	189.600000
754.101257	183.700000
754.138611	179.100000
754.175964	187.200000
754.213318	199.700000
754.250610	180.200000
754.288025	184.300000
754.325378	181.200000
754.362671	191.600000
754.400024	185.900000
754.437378	196.000000
754.474670	195.600000
754.512085	183.500000
754.549438	187.900000
754.586731	185.700000
754.624084	185.000000
754.661438	181.800000
754.698730	194.000000
754.736084	184.600000
754.773376	186.100000
754.810730	189.400000
754.848083	185.400000
754.885315	189.500000
754.922668	179.600000
754.960022	180.500000
754.997314	190.700000
755.034668	186.100000
755.072021	187.700000
755.109253	184.400000
755.146606	193.600000
755.183960	184.100000
755.221252	194.700000
755.258545	189.900000
755.295898	192.100000
755.333191	191.800000
755.370544	190.700000
755.407776	185.700000
755.445129	188.800000
755.482422	191.400000
755.519714	183.700000
755.557068	178.100000
755.594360	178.000000
755.631653	189.400000
755.668945	193.400000
755.706299	187.100000
755.743530	198.700000
755.780884	192.900000
755.818176	192.100000
755.855408	191.100000
755.892761	188.700000
755.930054	186.600000
755.967346	189.500000
756.004639	189.300000
756.041870	187.000000
756.079224	192.400000
756.116516	183.300000
756.153748	191.200000
756.191040	195.200000
756.228394	190.700000
756.265625	182.400000
756.302917	186.900000
756.340210	183.600000
756.377441	191.400000
756.414795	192.500000
756.452087	187.300000
756.489319	180.400000
756.526611	190.100000
756.563843	187.800000
756.601135	196.900000
756.638428	195.600000
756.675659	187.100000
756.712952	191.200000
756.750244	192.300000
756.787476	189.500000
756.824768	195.800000
756.862061	184.400000
756.899292	235.800000
756.936584	191.700000
756.973816	198.900000
757.011047	200.300000
757.048340	190.700000
757.085632	188.200000
757.122864	205.200000
757.160156	186.300000
757.197327	191.200000
757.234619	193.600000
757.271912	189.200000
757.309082	193.400000
757.346375	186.000000
757.383667	193.300000
757.420837	191.200000
757.458130	191.400000
757.495422	187.000000
757.532593	191.300000
757.569885	183.400000
757.607117	185.100000
757.644348	192.200000
757.681580	202.900000
757.718811	179.100000
757.756042	190.100000
757.793335	186.900000
757.830505	192.500000
757.867798	186.900000
757.905029	186.000000
757.942200	191.300000
757.979492	185.500000
758.016724	189.100000
758.053894	189.400000
758.091187	207.400000
758.128418	190.600000
758.165588	188.200000
758.202820	202.400000
758.240112	187.200000
758.277283	202.200000
758.314514	192.700000
758.351685	187.500000
758.388916	200.300000
758.426147	197.800000
758.463379	200.200000
758.500610	195.400000
758.537842	192.900000
758.575012	199.100000
758.612244	187.800000
758.649475	204.500000
758.686646	184.700000
758.723877	198.600000
758.761108	200.000000
758.798279	191.900000
758.835510	194.500000
758.872742	198.100000
758.909851	194.200000
758.947083	195.400000
758.984253	196.200000
759.021484	198.800000
759.058716	197.800000
759.095886	197.900000
759.133057	192.700000
759.170288	197.700000
759.207458	189.600000
759.244690	206.500000
759.281860	203.400000
759.319031	195.800000
759.356262	192.100000
759.393433	193.300000
759.430603	194.100000
759.467773	194.700000
759.505005	200.200000
759.542175	201.300000
759.579346	193.600000
759.616516	196.600000
759.653687	199.300000
759.690918	192.800000
759.728027	197.000000
759.765259	197.300000
759.802429	200.600000
759.839539	200.400000
759.876770	203.200000
759.913940	207.100000
759.951111	199.100000
759.988281	198.500000
760.025452	194.900000
760.062561	194.200000
760.099792	206.800000
760.136963	201.900000
760.174072	198.000000
760.211243	191.500000
760.248413	193.900000
760.285583	193.800000
760.322754	210.900000
760.359863	205.900000
760.397034	205.400000
760.434204	198.000000
760.471375	199.500000
760.508545	196.600000
760.545715	199.200000
760.582825	194.700000
760.619995	205.300000
760.657166	191.500000
760.694275	207.400000
760.731445	201.700000
760.768555	202.600000
760.805664	204.000000
760.842834	203.300000
760.879944	204.300000
760.917114	202.900000
760.954285	199.600000
760.991394	194.900000
761.028564	205.800000
761.065674	205.000000
761.102783	196.200000
761.139954	205.900000
761.177124	204.600000
761.214172	207.500000
761.251343	199.900000
761.288452	202.500000
761.325562	204.300000
761.362732	200.000000
761.399841	201.400000
761.436951	203.500000
761.474121	197.700000
761.511169	202.700000
761.548340	204.800000
761.585449	205.000000
761.622559	206.500000
761.659668	204.900000
761.696838	208.700000
761.733887	205.800000
761.771057	201.400000
761.808167	203.500000
761.845276	206.500000
761.882385	214.800000
761.919434	203.900000
761.956604	221.700000
761.993713	199.400000
762.030762	210.700000
762.067871	203.900000
762.105042	204.200000
762.142090	212.000000
762.179199	206.700000
762.216309	209.400000
762.253418	221.200000
762.290527	216.400000
762.327637	211.900000
762.364685	202.800000
762.401794	211.600000
762.438904	211.400000
762.475952	204.000000
762.513062	203.100000
762.550110	202.900000
762.587219	217.600000
762.624329	215.500000
762.661377	211.200000
762.698486	209.600000
762.735596	209.600000
762.772644	202.900000
762.809753	203.300000
762.846863	209.500000
762.883911	214.700000
762.921021	212.600000
762.958069	208.400000
762.995117	216.500000
763.032227	216.300000
763.069336	209.400000
763.106323	205.300000
763.143433	204.300000
763.180481	213.100000
763.217590	212.700000
763.254639	209.300000
763.291687	210.000000
763.328735	218.600000
763.365845	210.300000
763.402893	208.300000
763.439941	211.600000
763.477051	216.100000
763.514038	217.100000
763.551147	210.600000
763.588196	214.200000
763.625244	212.000000
763.662292	219.500000
763.699402	221.700000
763.736389	217.600000
763.773499	225.500000
763.810486	218.800000
763.847534	215.300000
763.884644	217.900000
763.921631	213.800000
763.958679	227.100000
763.995728	215.900000
764.032776	224.700000
764.069824	211.500000
764.106873	221.800000
764.143860	226.100000
764.180969	218.200000
764.218018	223.300000
764.255005	215.700000
764.292053	217.000000
764.329102	227.900000
764.366089	227.600000
764.403137	225.500000
764.440125	216.600000
764.477173	221.000000
764.514221	225.100000
764.551208	222.800000
764.588257	215.400000
764.625305	227.600000
764.662292	229.500000
764.699341	233.000000
764.736389	225.800000
764.773376	241.300000
764.810425	227.000000
764.847473	235.800000
764.884399	228.500000
764.921448	239.300000
764.958435	236.900000
764.995483	227.300000
765.032532	243.200000
765.069458	228.800000
765.106506	229.200000
765.143555	228.500000
765.180481	231.500000
765.217529	241.200000
765.254578	227.200000
765.291504	236.800000
765.328552	232.400000
765.365540	229.700000
765.402527	244.800000
765.439575	231.100000
765.476501	227.400000
765.513550	227.800000
765.550537	232.600000
765.587463	240.400000
765.624512	231.400000
765.661499	224.100000
765.698486	240.700000
765.735474	228.900000
765.772461	234.200000
765.809448	242.800000
765.846436	239.600000
765.883423	242.200000
765.920410	237.700000
765.957397	233.700000
765.994385	240.600000
766.031311	248.100000
766.068359	243.000000
766.105286	240.200000
766.142273	247.500000
766.179260	241.300000
766.216187	236.400000
766.253174	234.300000
766.290161	243.900000
766.327148	245.000000
766.364136	245.300000
766.401123	261.000000
766.438049	237.200000
766.475037	251.700000
766.512024	248.500000
766.548950	258.600000
766.585937	254.100000
766.622864	248.900000
766.659790	248.100000
766.696777	235.900000
766.733704	252.700000
766.770691	240.800000
766.807678	259.000000
766.844604	250.700000
766.881531	250.000000
766.918518	256.500000
766.955444	257.300000
766.992432	249.900000
767.029358	253.300000
767.066284	256.400000
767.103271	252.300000
767.140198	282.800000
767.177124	269.000000
767.214050	257.100000
767.251038	258.600000
767.287964	257.300000
767.324890	252.900000
767.361816	257.400000
767.398743	263.000000
767.435730	256.700000
767.472595	261.400000
767.509583	266.000000
767.546509	255.300000
767.583374	260.500000
767.620361	252.500000
767.657288	260.000000
767.694214	259.000000
767.731140	259.900000
767.768066	259.300000
767.804993	264.300000
767.841919	252.600000
767.878845	259.200000
767.915710	268.400000
767.952698	261.100000
767.989563	264.300000
768.026489	266.000000
