Model Number: SPM-001-M   
Serial Number: 10090201
Firmware Version: 004.17.6
Exposure Time: 500000.000000us
Data Taken on: 20-03-2021 09:20:23.658
Wavelength	Amplitude
733.770752	0.000000
733.808716	0.000000
733.846619	0.000000
733.884583	0.000000
733.922546	0.000000
733.960449	0.000000
733.998413	0.000000
734.036377	0.000000
734.074219	0.000000
734.112183	0.000000
734.150085	0.000000
734.188049	0.000000
734.226013	0.000000
734.263916	0.000000
734.301819	0.000000
734.339783	0.000000
734.377686	0.000000
734.415588	0.000000
734.453552	0.000000
734.491455	0.000000
734.529419	0.000000
734.567322	0.000000
734.605225	0.000000
734.643127	0.000000
734.681091	0.000000
734.718994	0.000000
734.756897	0.000000
734.794800	0.000000
734.832703	0.000000
734.870667	0.000000
734.908508	0.000000
734.946472	0.000000
734.984375	0.000000
735.022278	0.000000
735.060181	0.000000
735.098083	0.000000
735.135986	0.000000
735.173889	0.000000
735.211792	0.000000
735.249695	0.000000
735.287598	0.000000
735.325439	0.000000
735.363403	0.000000
735.401306	0.000000
735.439148	0.000000
735.477051	0.000000
735.515015	0.000000
735.552856	0.000000
735.590759	0.000000
735.628662	0.000000
735.666504	0.000000
735.704407	0.000000
735.742310	0.000000
735.780212	0.000000
735.818115	0.000000
735.856018	0.000000
735.893860	0.000000
735.931763	0.000000
735.969604	0.000000
736.007507	0.000000
736.045410	0.000000
736.083252	0.000000
736.121094	0.000000
736.158997	0.000000
736.196838	0.000000
736.234741	0.000000
736.272644	0.000000
736.310486	0.000000
736.348389	0.000000
736.386230	0.000000
736.424072	0.000000
736.461975	0.000000
736.499878	0.000000
736.537720	0.000000
736.575562	0.000000
736.613403	0.000000
736.651306	0.000000
736.689148	0.000000
736.726990	0.000000
736.764893	0.000000
736.802734	0.000000
736.840576	0.000000
736.878418	0.000000
736.916321	0.000000
736.954102	0.000000
736.992004	0.000000
737.029846	0.000000
737.067688	0.000000
737.105530	0.000000
737.143372	0.000000
737.181213	0.000000
737.219116	0.000000
737.256897	0.000000
737.294739	0.000000
737.332642	0.000000
737.370422	0.000000
737.408325	0.000000
737.446167	0.000000
737.483948	0.000000
737.521790	0.000000
737.559692	0.000000
737.597473	0.000000
737.635315	0.000000
737.673157	0.000000
737.710999	0.000000
737.748840	0.000000
737.786621	0.000000
737.824463	0.000000
737.862305	0.000000
737.900085	0.000000
737.937927	0.000000
737.975769	0.000000
738.013550	0.000000
738.051392	0.000000
738.089233	0.000000
738.127014	0.000000
738.164856	0.000000
738.202698	0.000000
738.240479	0.000000
738.278320	0.000000
738.316162	0.000000
738.353943	0.000000
738.391785	0.000000
738.429565	0.000000
738.467407	0.000000
738.505188	0.000000
738.542969	0.000000
738.580811	0.000000
738.618652	0.000000
738.656372	0.000000
738.694214	0.000000
738.732056	0.000000
738.769836	0.000000
738.807617	0.000000
738.845459	0.000000
738.883240	0.000000
738.921021	0.000000
738.958862	0.000000
738.996582	0.000000
739.034424	0.000000
739.072205	0.000000
739.109985	0.000000
739.147827	0.000000
739.185547	0.000000
739.223389	0.000000
739.261169	0.000000
739.298889	0.000000
739.336731	0.000000
739.374512	0.000000
739.412292	0.000000
739.450073	0.000000
739.487854	0.000000
739.525635	0.000000
739.563416	0.000000
739.601135	0.000000
739.638977	0.000000
739.676758	0.000000
739.714478	0.000000
739.752258	0.000000
739.790100	0.000000
739.827820	0.000000
739.865601	0.000000
739.903381	0.000000
739.941101	0.000000
739.978882	192.600000
740.016724	188.800000
740.054443	194.200000
740.092224	186.000000
740.130005	185.500000
740.167725	185.700000
740.205505	184.700000
740.243225	196.500000
740.281006	189.400000
740.318787	181.900000
740.356506	194.200000
740.394287	193.700000
740.432068	184.900000
740.469727	183.300000
740.507507	191.700000
740.545288	188.600000
740.583008	191.300000
740.620789	188.600000
740.658569	181.100000
740.696228	188.000000
740.734009	195.300000
740.771790	176.300000
740.809509	193.300000
740.847229	184.000000
740.884949	185.900000
740.922729	181.900000
740.960449	186.800000
740.998169	183.400000
741.035950	186.200000
741.073669	190.300000
741.111389	187.500000
741.149170	198.700000
741.186890	200.500000
741.224609	192.300000
741.262329	191.100000
741.300110	200.500000
741.337769	184.300000
741.375549	184.400000
741.413208	192.000000
741.450989	185.000000
741.488708	187.000000
741.526367	188.400000
741.564148	193.100000
741.601868	194.500000
741.639526	190.300000
741.677307	190.800000
741.715027	191.800000
741.752686	185.900000
741.790466	195.800000
741.828186	190.900000
741.865845	184.400000
741.903564	179.500000
741.941345	188.600000
741.979004	185.800000
742.016724	191.200000
742.054382	189.200000
742.092102	194.500000
742.129822	181.900000
742.167480	186.700000
742.205200	187.400000
742.242920	191.000000
742.280640	193.100000
742.318359	185.000000
742.356079	185.300000
742.393738	192.700000
742.431396	188.400000
742.469116	191.600000
742.506775	178.300000
742.544495	190.500000
742.582214	192.500000
742.619873	187.000000
742.657593	196.500000
742.695251	191.700000
742.732971	187.800000
742.770630	191.500000
742.808289	187.400000
742.846008	189.400000
742.883728	191.600000
742.921326	188.500000
742.959045	185.400000
742.996765	188.600000
743.034424	188.800000
743.072083	185.900000
743.109802	188.700000
743.147400	184.000000
743.185120	190.800000
743.222839	189.800000
743.260437	194.300000
743.298157	191.300000
743.335754	181.400000
743.373474	186.900000
743.411133	181.300000
743.448792	188.700000
743.486450	189.000000
743.524170	181.400000
743.561768	189.500000
743.599487	197.000000
743.637146	200.900000
743.674744	189.100000
743.712463	189.500000
743.750122	190.300000
743.787720	191.900000
743.825439	186.000000
743.863037	187.100000
743.900696	189.400000
743.938416	214.900000
743.976013	188.400000
744.013672	198.300000
744.051331	194.100000
744.088928	198.400000
744.126587	195.600000
744.164307	190.000000
744.201904	185.400000
744.239563	192.600000
744.277222	191.700000
744.314819	189.100000
744.352478	195.900000
744.390137	190.400000
744.427734	190.800000
744.465393	186.500000
744.502991	184.700000
744.540649	192.600000
744.578308	190.000000
744.615906	183.200000
744.653564	178.400000
744.691223	192.800000
744.728821	181.700000
744.766418	188.500000
744.804077	192.000000
744.841675	185.900000
744.879333	182.400000
744.916992	187.600000
744.954529	186.800000
744.992187	196.100000
745.029785	187.800000
745.067444	185.800000
745.105042	190.000000
745.142639	193.000000
745.180298	198.900000
745.217896	186.500000
745.255493	189.400000
745.293152	193.900000
745.330750	193.800000
745.368347	198.300000
745.405945	193.200000
745.443604	190.600000
745.481140	193.300000
745.518799	188.600000
745.556396	193.900000
745.593994	193.300000
745.631592	190.000000
745.669189	184.200000
745.706787	190.800000
745.744385	185.200000
745.781982	192.000000
745.819580	187.500000
745.857178	189.900000
745.894775	189.400000
745.932373	190.500000
745.969971	190.100000
746.007568	182.200000
746.045166	198.100000
746.082764	194.500000
746.120300	192.000000
746.157898	193.100000
746.195557	188.400000
746.233093	183.600000
746.270691	192.600000
746.308228	191.800000
746.345825	193.900000
746.383423	193.500000
746.420959	184.900000
746.458557	187.100000
746.496155	186.500000
746.533691	188.700000
746.571289	184.700000
746.608887	189.300000
746.646423	189.900000
746.684021	190.100000
746.721619	188.500000
746.759155	190.600000
746.796753	183.100000
746.834351	183.900000
746.871826	186.500000
746.909424	196.800000
746.946960	192.800000
746.984558	187.500000
747.022156	187.900000
747.059631	196.500000
747.097229	192.000000
747.134827	189.200000
747.172363	197.900000
747.209900	192.600000
747.247498	184.700000
747.285034	196.500000
747.322571	197.500000
747.360168	187.500000
747.397644	182.400000
747.435242	194.000000
747.472778	195.700000
747.510315	187.900000
747.547913	187.300000
747.585388	196.300000
747.622925	188.600000
747.660522	181.000000
747.697998	186.100000
747.735596	187.700000
747.773132	185.500000
747.810669	188.900000
747.848206	193.500000
747.885742	183.200000
747.923279	184.200000
747.960815	192.500000
747.998352	189.700000
748.035889	194.500000
748.073425	193.600000
748.110901	186.600000
748.148437	183.800000
748.185974	189.300000
748.223511	198.000000
748.261047	190.300000
748.298584	190.200000
748.336060	188.000000
748.373596	190.800000
748.411133	209.300000
748.448608	185.100000
748.486145	193.200000
748.523682	196.500000
748.561218	195.600000
748.598755	191.000000
748.636292	192.900000
748.673706	186.400000
748.711243	196.100000
748.748718	191.300000
748.786255	189.800000
748.823792	189.200000
748.861267	183.500000
748.898804	192.400000
748.936340	191.800000
748.973816	188.200000
749.011292	196.300000
749.048828	190.700000
749.086304	191.500000
749.123840	201.700000
749.161316	185.300000
749.198792	199.600000
749.236328	195.700000
749.273743	190.100000
749.311279	188.600000
749.348816	192.100000
749.386230	189.500000
749.423767	179.100000
749.461304	193.700000
749.498718	190.400000
749.536255	195.600000
749.573730	203.300000
749.611206	195.500000
749.648682	188.200000
749.686218	189.500000
749.723633	194.800000
749.761169	187.400000
749.798645	186.200000
749.836060	188.700000
749.873596	187.600000
749.911011	189.500000
749.948547	196.100000
749.986023	188.700000
750.023437	189.800000
750.060913	183.100000
750.098450	183.400000
750.135864	187.100000
750.173340	189.500000
750.210815	192.400000
750.248291	184.700000
750.285767	189.500000
750.323242	195.900000
750.360657	192.000000
750.398132	183.700000
750.435608	193.000000
750.473022	185.000000
750.510498	185.700000
750.547974	185.300000
750.585449	188.100000
750.622925	178.400000
750.660339	200.400000
750.697815	189.500000
750.735291	188.800000
750.772644	190.900000
750.810120	190.800000
750.847595	192.700000
750.885010	185.600000
750.922485	198.700000
750.959961	188.600000
750.997375	197.800000
751.034851	194.000000
751.072266	195.700000
751.109680	183.600000
751.147156	196.000000
751.184570	193.200000
751.221985	191.000000
751.259460	181.200000
751.296875	189.400000
751.334290	189.300000
751.371765	192.800000
751.409180	192.800000
751.446594	195.200000
751.484070	191.300000
751.521423	192.100000
751.558899	191.600000
751.596375	197.400000
751.633728	197.700000
751.671204	201.600000
751.708618	186.300000
751.746033	191.300000
751.783447	184.600000
751.820801	187.100000
751.858276	191.100000
751.895691	189.900000
751.933105	185.900000
751.970520	185.000000
752.007935	188.900000
752.045349	194.100000
752.082764	188.800000
752.120178	187.800000
752.157532	184.900000
752.195007	186.800000
752.232422	191.900000
752.269775	193.800000
752.307190	192.600000
752.344543	185.500000
752.382019	189.100000
752.419434	188.400000
752.456787	193.200000
752.494202	193.700000
752.531616	192.100000
752.568970	194.600000
752.606384	189.500000
752.643799	191.800000
752.681152	199.500000
752.718567	192.500000
752.755981	183.200000
752.793335	192.800000
752.830750	181.700000
752.868164	196.600000
752.905518	184.600000
752.942932	193.900000
752.980225	184.800000
753.017639	196.000000
753.055054	189.400000
753.092407	192.200000
753.129822	196.600000
753.167175	201.000000
753.204529	189.700000
753.241943	187.100000
753.279358	184.400000
753.316650	194.200000
753.354065	191.300000
753.391479	195.100000
753.428772	199.800000
753.466187	193.900000
753.503479	184.500000
753.540894	188.600000
753.578308	184.500000
753.615601	184.500000
753.653015	191.100000
753.690369	187.800000
753.727722	185.500000
753.765076	183.600000
753.802490	182.700000
753.839783	181.400000
753.877136	186.800000
753.914551	204.000000
753.951843	185.200000
753.989258	194.400000
754.026611	190.500000
754.063904	193.300000
754.101257	185.600000
754.138611	183.300000
754.175964	190.100000
754.213318	201.600000
754.250610	183.000000
754.288025	187.000000
754.325378	185.200000
754.362671	196.300000
754.400024	188.400000
754.437378	199.300000
754.474670	199.400000
754.512085	186.500000
754.549438	190.500000
754.586731	188.800000
754.624084	189.100000
754.661438	185.800000
754.698730	198.200000
754.736084	188.900000
754.773376	190.200000
754.810730	192.200000
754.848083	188.500000
754.885315	194.200000
754.922668	183.500000
754.960022	185.500000
754.997314	194.600000
755.034668	191.300000
755.072021	191.900000
755.109253	188.200000
755.146606	198.200000
755.183960	188.100000
755.221252	200.300000
755.258545	195.800000
755.295898	196.700000
755.333191	197.100000
755.370544	194.000000
755.407776	190.800000
755.445129	192.200000
755.482422	195.800000
755.519714	187.700000
755.557068	183.600000
755.594360	182.900000
755.631653	196.100000
755.668945	201.800000
755.706299	194.100000
755.743530	203.300000
755.780884	199.700000
755.818176	197.700000
755.855408	196.700000
755.892761	194.500000
755.930054	193.200000
755.967346	194.000000
756.004639	196.300000
756.041870	191.500000
756.079224	195.700000
756.116516	189.400000
756.153748	196.600000
756.191040	200.700000
756.228394	195.300000
756.265625	189.900000
756.302917	193.200000
756.340210	190.800000
756.377441	200.600000
756.414795	201.200000
756.452087	192.500000
756.489319	187.900000
756.526611	196.800000
756.563843	197.000000
756.601135	204.500000
756.638428	202.900000
756.675659	195.000000
756.712952	199.700000
756.750244	198.000000
756.787476	197.100000
756.824768	203.500000
756.862061	193.600000
756.899292	242.500000
756.936584	199.200000
756.973816	206.400000
757.011047	208.100000
757.048340	196.300000
757.085632	197.100000
757.122864	211.900000
757.160156	193.600000
757.197327	199.000000
757.234619	200.100000
757.271912	195.600000
757.309082	200.600000
757.346375	192.600000
757.383667	203.200000
757.420837	198.100000
757.458130	199.300000
757.495422	196.200000
757.532593	199.900000
757.569885	192.300000
757.607117	193.900000
757.644348	199.000000
757.681580	210.500000
757.718811	185.600000
757.756042	197.800000
757.793335	195.600000
757.830505	202.100000
757.867798	196.900000
757.905029	195.800000
757.942200	201.100000
757.979492	196.100000
758.016724	198.500000
758.053894	197.300000
758.091187	216.700000
758.128418	200.300000
758.165588	199.700000
758.202820	211.900000
758.240112	202.400000
758.277283	212.800000
758.314514	202.300000
758.351685	199.100000
758.388916	211.300000
758.426147	209.500000
758.463379	210.500000
758.500610	206.000000
758.537842	201.600000
758.575012	209.800000
758.612244	199.200000
758.649475	215.900000
758.686646	195.800000
758.723877	211.000000
758.761108	210.600000
758.798279	204.300000
758.835510	205.900000
758.872742	210.400000
758.909851	206.100000
758.947083	208.500000
758.984253	205.600000
759.021484	210.400000
759.058716	208.900000
759.095886	209.300000
759.133057	204.100000
759.170288	208.500000
759.207458	202.000000
759.244690	217.300000
759.281860	215.200000
759.319031	205.900000
759.356262	204.100000
759.393433	205.800000
759.430603	206.300000
759.467773	205.500000
759.505005	213.500000
759.542175	213.200000
759.579346	207.300000
759.616516	208.300000
759.653687	210.800000
759.690918	205.700000
759.728027	208.900000
759.765259	208.600000
759.802429	211.100000
759.839539	210.900000
759.876770	217.400000
759.913940	217.700000
759.951111	211.400000
759.988281	210.600000
760.025452	205.700000
760.062561	205.100000
760.099792	217.500000
760.136963	213.100000
760.174072	208.700000
760.211243	204.200000
760.248413	206.400000
760.285583	206.200000
760.322754	220.300000
760.359863	216.300000
760.397034	219.400000
760.434204	209.800000
760.471375	212.000000
760.508545	210.200000
760.545715	211.700000
760.582825	207.800000
760.619995	216.200000
760.657166	206.500000
760.694275	220.900000
760.731445	215.100000
760.768555	215.300000
760.805664	216.200000
760.842834	214.500000
760.879944	217.300000
760.917114	215.400000
760.954285	212.700000
760.991394	208.200000
761.028564	220.500000
761.065674	218.000000
761.102783	210.300000
761.139954	219.200000
761.177124	218.200000
761.214172	222.400000
761.251343	213.600000
761.288452	216.200000
761.325562	219.100000
761.362732	213.800000
761.399841	214.800000
761.436951	218.900000
761.474121	213.900000
761.511169	219.600000
761.548340	222.000000
761.585449	221.200000
761.622559	221.500000
761.659668	221.200000
761.696838	224.200000
761.733887	222.300000
761.771057	217.700000
761.808167	221.300000
761.845276	226.200000
761.882385	232.600000
761.919434	224.000000
761.956604	242.000000
761.993713	219.600000
762.030762	231.100000
762.067871	223.700000
762.105042	223.400000
762.142090	233.000000
762.179199	227.100000
762.216309	231.500000
762.253418	240.700000
762.290527	236.600000
762.327637	233.600000
762.364685	222.100000
762.401794	232.200000
762.438904	229.800000
762.475952	224.800000
762.513062	225.700000
762.550110	224.500000
762.587219	240.700000
762.624329	240.000000
762.661377	234.500000
762.698486	234.000000
762.735596	232.100000
762.772644	227.800000
762.809753	224.200000
762.846863	232.800000
762.883911	235.900000
762.921021	236.700000
762.958069	234.400000
762.995117	242.500000
763.032227	242.000000
763.069336	236.200000
763.106323	231.800000
763.143433	229.800000
763.180481	237.600000
763.217590	239.500000
763.254639	233.400000
763.291687	237.300000
763.328735	244.500000
763.365845	238.000000
763.402893	238.100000
763.439941	240.100000
763.477051	242.600000
763.514038	246.600000
763.551147	237.900000
763.588196	240.600000
763.625244	239.700000
763.662292	246.000000
763.699402	251.300000
763.736389	247.900000
763.773499	256.700000
763.810486	250.000000
763.847534	245.900000
763.884644	248.100000
763.921631	245.400000
763.958679	256.600000
763.995728	246.700000
764.032776	257.100000
764.069824	244.600000
764.106873	253.000000
764.143860	258.400000
764.180969	248.200000
764.218018	257.400000
764.255005	251.000000
764.292053	252.500000
764.329102	262.800000
764.366089	262.000000
764.403137	262.300000
764.440125	250.400000
764.477173	256.200000
764.514221	257.400000
764.551208	256.600000
764.588257	251.200000
764.625305	262.300000
764.662292	267.000000
764.699341	271.400000
764.736389	261.900000
764.773376	279.900000
764.810425	264.800000
764.847473	271.700000
764.884399	269.100000
764.921448	276.700000
764.958435	272.100000
764.995483	263.300000
765.032532	279.800000
765.069458	263.500000
765.106506	265.200000
765.143555	265.300000
765.180481	270.100000
765.217529	276.900000
765.254578	262.500000
765.291504	274.000000
765.328552	269.600000
765.365540	267.200000
765.402527	282.100000
765.439575	268.700000
765.476501	264.000000
765.513550	267.100000
765.550537	269.800000
765.587463	277.600000
765.624512	267.200000
765.661499	262.600000
765.698486	277.800000
765.735474	268.400000
765.772461	270.000000
765.809448	278.800000
765.846436	275.700000
765.883423	282.900000
765.920410	276.700000
765.957397	270.900000
765.994385	276.300000
766.031311	285.800000
766.068359	280.000000
766.105286	277.800000
766.142273	286.800000
766.179260	280.600000
766.216187	274.900000
766.253174	273.500000
766.290161	279.300000
766.327148	282.200000
766.364136	286.300000
766.401123	298.000000
766.438049	277.700000
766.475037	291.700000
766.512024	287.700000
766.548950	301.900000
766.585937	297.800000
766.622864	292.200000
766.659790	291.000000
766.696777	279.800000
766.733704	296.100000
766.770691	287.800000
766.807678	301.100000
766.844604	295.500000
766.881531	293.200000
766.918518	300.800000
766.955444	303.200000
766.992432	295.600000
767.029358	299.900000
767.066284	300.900000
767.103271	299.500000
767.140198	329.300000
767.177124	314.800000
767.214050	304.500000
767.251038	306.300000
767.287964	305.100000
767.324890	301.100000
767.361816	308.000000
767.398743	313.100000
767.435730	307.400000
767.472595	312.100000
767.509583	318.100000
767.546509	305.200000
767.583374	313.500000
767.620361	304.900000
767.657288	310.900000
767.694214	311.400000
767.731140	312.100000
767.768066	312.500000
767.804993	319.700000
767.841919	308.900000
767.878845	316.300000
767.915710	325.500000
767.952698	318.800000
767.989563	322.800000
768.026489	322.900000
