Model Number: SPM-001-M   
Serial Number: 10090201
Firmware Version: 004.17.6
Exposure Time: 500000.000000us
Data Taken on: 20-03-2021 09:22:07.659
Wavelength	Amplitude
733.770752	0.000000
733.808716	0.000000
733.846619	0.000000
733.884583	0.000000
733.922546	0.000000
733.960449	0.000000
733.998413	0.000000
734.036377	0.000000
734.074219	0.000000
734.112183	0.000000
734.150085	0.000000
734.188049	0.000000
734.226013	0.000000
734.263916	0.000000
734.301819	0.000000
734.339783	0.000000
734.377686	0.000000
734.415588	0.000000
734.453552	0.000000
734.491455	0.000000
734.529419	0.000000
734.567322	0.000000
734.605225	0.000000
734.643127	0.000000
734.681091	0.000000
734.718994	0.000000
734.756897	0.000000
734.794800	0.000000
734.832703	0.000000
734.870667	0.000000
734.908508	0.000000
734.946472	0.000000
734.984375	0.000000
735.022278	0.000000
735.060181	0.000000
735.098083	0.000000
735.135986	0.000000
735.173889	0.000000
735.211792	0.000000
735.249695	0.000000
735.287598	0.000000
735.325439	0.000000
735.363403	0.000000
735.401306	0.000000
735.439148	0.000000
735.477051	0.000000
735.515015	0.000000
735.552856	0.000000
735.590759	0.000000
735.628662	0.000000
735.666504	0.000000
735.704407	0.000000
735.742310	0.000000
735.780212	0.000000
735.818115	0.000000
735.856018	0.000000
735.893860	0.000000
735.931763	0.000000
735.969604	0.000000
736.007507	0.000000
736.045410	0.000000
736.083252	0.000000
736.121094	0.000000
736.158997	0.000000
736.196838	0.000000
736.234741	0.000000
736.272644	0.000000
736.310486	0.000000
736.348389	0.000000
736.386230	0.000000
736.424072	0.000000
736.461975	0.000000
736.499878	0.000000
736.537720	0.000000
736.575562	0.000000
736.613403	0.000000
736.651306	0.000000
736.689148	0.000000
736.726990	0.000000
736.764893	0.000000
736.802734	0.000000
736.840576	0.000000
736.878418	0.000000
736.916321	0.000000
736.954102	0.000000
736.992004	0.000000
737.029846	0.000000
737.067688	0.000000
737.105530	0.000000
737.143372	0.000000
737.181213	0.000000
737.219116	0.000000
737.256897	0.000000
737.294739	0.000000
737.332642	0.000000
737.370422	0.000000
737.408325	0.000000
737.446167	0.000000
737.483948	0.000000
737.521790	0.000000
737.559692	0.000000
737.597473	0.000000
737.635315	0.000000
737.673157	0.000000
737.710999	0.000000
737.748840	0.000000
737.786621	0.000000
737.824463	0.000000
737.862305	0.000000
737.900085	0.000000
737.937927	0.000000
737.975769	0.000000
738.013550	0.000000
738.051392	0.000000
738.089233	0.000000
738.127014	0.000000
738.164856	0.000000
738.202698	0.000000
738.240479	0.000000
738.278320	0.000000
738.316162	0.000000
738.353943	0.000000
738.391785	0.000000
738.429565	0.000000
738.467407	0.000000
738.505188	0.000000
738.542969	0.000000
738.580811	0.000000
738.618652	0.000000
738.656372	0.000000
738.694214	0.000000
738.732056	0.000000
738.769836	0.000000
738.807617	0.000000
738.845459	0.000000
738.883240	0.000000
738.921021	0.000000
738.958862	0.000000
738.996582	0.000000
739.034424	0.000000
739.072205	0.000000
739.109985	0.000000
739.147827	0.000000
739.185547	0.000000
739.223389	0.000000
739.261169	0.000000
739.298889	0.000000
739.336731	0.000000
739.374512	0.000000
739.412292	0.000000
739.450073	0.000000
739.487854	0.000000
739.525635	0.000000
739.563416	0.000000
739.601135	0.000000
739.638977	0.000000
739.676758	0.000000
739.714478	0.000000
739.752258	0.000000
739.790100	0.000000
739.827820	0.000000
739.865601	0.000000
739.903381	0.000000
739.941101	0.000000
739.978882	193.400000
740.016724	187.500000
740.054443	195.300000
740.092224	186.700000
740.130005	186.700000
740.167725	187.100000
740.205505	186.600000
740.243225	196.300000
740.281006	192.400000
740.318787	182.100000
740.356506	195.300000
740.394287	194.200000
740.432068	186.100000
740.469727	183.400000
740.507507	193.200000
740.545288	189.000000
740.583008	190.800000
740.620789	192.000000
740.658569	182.000000
740.696228	189.800000
740.734009	195.200000
740.771790	177.800000
740.809509	194.400000
740.847229	185.500000
740.884949	186.800000
740.922729	183.100000
740.960449	187.700000
740.998169	183.900000
741.035950	186.200000
741.073669	192.500000
741.111389	189.500000
741.149170	198.900000
741.186890	199.700000
741.224609	195.100000
741.262329	191.000000
741.300110	199.700000
741.337769	184.500000
741.375549	183.900000
741.413208	190.400000
741.450989	184.900000
741.488708	185.900000
741.526367	187.700000
741.564148	193.400000
741.601868	194.300000
741.639526	188.600000
741.677307	191.700000
741.715027	191.600000
741.752686	185.800000
741.790466	197.400000
741.828186	192.900000
741.865845	184.700000
741.903564	180.800000
741.941345	189.500000
741.979004	185.100000
742.016724	192.100000
742.054382	191.600000
742.092102	195.400000
742.129822	183.200000
742.167480	187.300000
742.205200	189.900000
742.242920	191.700000
742.280640	194.700000
742.318359	184.900000
742.356079	187.700000
742.393738	193.700000
742.431396	188.100000
742.469116	193.400000
742.506775	179.700000
742.544495	191.800000
742.582214	194.100000
742.619873	190.000000
742.657593	197.000000
742.695251	193.400000
742.732971	188.800000
742.770630	191.000000
742.808289	189.400000
742.846008	189.400000
742.883728	191.500000
742.921326	190.900000
742.959045	187.500000
742.996765	189.200000
743.034424	189.500000
743.072083	187.300000
743.109802	189.600000
743.147400	183.900000
743.185120	191.800000
743.222839	190.100000
743.260437	194.800000
743.298157	190.800000
743.335754	181.400000
743.373474	188.600000
743.411133	182.800000
743.448792	190.200000
743.486450	188.500000
743.524170	181.900000
743.561768	189.300000
743.599487	196.600000
743.637146	200.100000
743.674744	188.700000
743.712463	186.400000
743.750122	190.600000
743.787720	193.300000
743.825439	186.900000
743.863037	187.400000
743.900696	190.300000
743.938416	212.800000
743.976013	189.000000
744.013672	197.900000
744.051331	194.500000
744.088928	198.400000
744.126587	195.200000
744.164307	190.000000
744.201904	186.800000
744.239563	192.900000
744.277222	192.700000
744.314819	189.700000
744.352478	197.800000
744.390137	191.800000
744.427734	192.200000
744.465393	187.600000
744.502991	185.500000
744.540649	191.900000
744.578308	190.700000
744.615906	184.300000
744.653564	179.000000
744.691223	193.300000
744.728821	182.500000
744.766418	189.400000
744.804077	193.500000
744.841675	187.200000
744.879333	183.000000
744.916992	189.100000
744.954529	187.200000
744.992187	195.100000
745.029785	188.600000
745.067444	186.100000
745.105042	191.000000
745.142639	191.900000
745.180298	198.800000
745.217896	188.700000
745.255493	187.600000
745.293152	193.800000
745.330750	194.600000
745.368347	198.300000
745.405945	192.300000
745.443604	190.300000
745.481140	193.900000
745.518799	188.300000
745.556396	193.600000
745.593994	195.000000
745.631592	189.300000
745.669189	185.000000
745.706787	191.300000
745.744385	186.200000
745.781982	192.300000
745.819580	187.500000
745.857178	189.600000
745.894775	190.100000
745.932373	191.200000
745.969971	191.100000
746.007568	180.200000
746.045166	200.000000
746.082764	194.000000
746.120300	192.200000
746.157898	193.200000
746.195557	189.600000
746.233093	185.000000
746.270691	194.000000
746.308228	191.000000
746.345825	195.100000
746.383423	193.600000
746.420959	185.700000
746.458557	188.300000
746.496155	187.300000
746.533691	190.300000
746.571289	185.100000
746.608887	190.700000
746.646423	189.700000
746.684021	190.900000
746.721619	187.900000
746.759155	191.200000
746.796753	182.500000
746.834351	183.900000
746.871826	185.900000
746.909424	197.200000
746.946960	191.600000
746.984558	189.600000
747.022156	189.000000
747.059631	197.300000
747.097229	191.800000
747.134827	187.600000
747.172363	197.500000
747.209900	192.900000
747.247498	185.000000
747.285034	197.700000
747.322571	196.500000
747.360168	188.500000
747.397644	182.800000
747.435242	193.800000
747.472778	196.500000
747.510315	188.400000
747.547913	187.000000
747.585388	196.600000
747.622925	189.500000
747.660522	181.700000
747.697998	185.800000
747.735596	189.200000
747.773132	186.600000
747.810669	190.600000
747.848206	193.300000
747.885742	185.000000
747.923279	184.100000
747.960815	193.600000
747.998352	189.700000
748.035889	195.900000
748.073425	195.200000
748.110901	187.600000
748.148437	186.800000
748.185974	190.900000
748.223511	201.300000
748.261047	192.200000
748.298584	191.000000
748.336060	189.000000
748.373596	192.600000
748.411133	209.400000
748.448608	185.900000
748.486145	195.200000
748.523682	197.500000
748.561218	196.200000
748.598755	192.100000
748.636292	194.400000
748.673706	187.800000
748.711243	197.700000
748.748718	191.800000
748.786255	189.000000
748.823792	190.100000
748.861267	185.800000
748.898804	191.700000
748.936340	191.900000
748.973816	188.800000
749.011292	195.900000
749.048828	191.800000
749.086304	192.500000
749.123840	200.800000
749.161316	185.200000
749.198792	199.900000
749.236328	195.700000
749.273743	191.200000
749.311279	188.500000
749.348816	193.000000
749.386230	189.500000
749.423767	178.400000
749.461304	191.700000
749.498718	191.100000
749.536255	196.500000
749.573730	202.800000
749.611206	194.500000
749.648682	189.200000
749.686218	189.100000
749.723633	194.400000
749.761169	188.700000
749.798645	185.600000
749.836060	189.000000
749.873596	187.800000
749.911011	190.500000
749.948547	195.900000
749.986023	190.300000
750.023437	188.800000
750.060913	183.900000
750.098450	184.600000
750.135864	188.400000
750.173340	191.000000
750.210815	192.800000
750.248291	184.100000
750.285767	190.700000
750.323242	196.300000
750.360657	192.500000
750.398132	186.900000
750.435608	193.500000
750.473022	185.500000
750.510498	186.000000
750.547974	186.000000
750.585449	188.400000
750.622925	179.400000
750.660339	199.700000
750.697815	189.700000
750.735291	189.800000
750.772644	190.100000
750.810120	191.300000
750.847595	191.800000
750.885010	185.400000
750.922485	198.100000
750.959961	188.600000
750.997375	196.600000
751.034851	194.000000
751.072266	194.200000
751.109680	183.100000
751.147156	193.500000
751.184570	192.500000
751.221985	191.100000
751.259460	180.900000
751.296875	190.400000
751.334290	190.000000
751.371765	192.400000
751.409180	192.000000
751.446594	195.300000
751.484070	192.900000
751.521423	191.800000
751.558899	193.000000
751.596375	198.200000
751.633728	197.100000
751.671204	203.800000
751.708618	186.000000
751.746033	191.800000
751.783447	185.100000
751.820801	185.900000
751.858276	194.000000
751.895691	191.100000
751.933105	187.800000
751.970520	185.000000
752.007935	191.100000
752.045349	194.500000
752.082764	189.500000
752.120178	188.200000
752.157532	187.000000
752.195007	189.000000
752.232422	192.600000
752.269775	193.500000
752.307190	192.700000
752.344543	186.200000
752.382019	189.200000
752.419434	189.000000
752.456787	192.000000
752.494202	195.000000
752.531616	191.900000
752.568970	194.700000
752.606384	192.200000
752.643799	191.700000
752.681152	199.500000
752.718567	193.200000
752.755981	183.300000
752.793335	193.300000
752.830750	182.200000
752.868164	196.400000
752.905518	185.500000
752.942932	195.200000
752.980225	185.800000
753.017639	196.300000
753.055054	189.500000
753.092407	192.200000
753.129822	194.800000
753.167175	200.600000
753.204529	189.200000
753.241943	187.400000
753.279358	184.000000
753.316650	194.300000
753.354065	192.300000
753.391479	195.900000
753.428772	199.300000
753.466187	194.300000
753.503479	183.000000
753.540894	189.800000
753.578308	185.800000
753.615601	185.700000
753.653015	191.000000
753.690369	189.000000
753.727722	185.200000
753.765076	185.400000
753.802490	185.300000
753.839783	182.100000
753.877136	186.800000
753.914551	205.600000
753.951843	185.300000
753.989258	193.100000
754.026611	190.400000
754.063904	194.300000
754.101257	186.300000
754.138611	182.900000
754.175964	191.600000
754.213318	203.600000
754.250610	184.400000
754.288025	187.700000
754.325378	183.400000
754.362671	197.000000
754.400024	187.400000
754.437378	200.700000
754.474670	200.100000
754.512085	187.900000
754.549438	191.200000
754.586731	188.000000
754.624084	189.100000
754.661438	184.800000
754.698730	196.700000
754.736084	188.200000
754.773376	189.100000
754.810730	193.700000
754.848083	188.900000
754.885315	195.000000
754.922668	182.600000
754.960022	182.700000
754.997314	194.700000
755.034668	191.200000
755.072021	192.300000
755.109253	187.700000
755.146606	199.000000
755.183960	188.300000
755.221252	201.100000
755.258545	197.300000
755.295898	196.500000
755.333191	198.000000
755.370544	195.300000
755.407776	190.900000
755.445129	193.500000
755.482422	196.500000
755.519714	190.000000
755.557068	184.900000
755.594360	184.400000
755.631653	196.200000
755.668945	201.700000
755.706299	193.500000
755.743530	203.700000
755.780884	199.900000
755.818176	198.700000
755.855408	197.000000
755.892761	195.800000
755.930054	193.400000
755.967346	193.800000
756.004639	197.900000
756.041870	192.200000
756.079224	198.800000
756.116516	189.400000
756.153748	196.700000
756.191040	201.900000
756.228394	196.100000
756.265625	188.900000
756.302917	194.100000
756.340210	190.000000
756.377441	200.100000
756.414795	200.000000
756.452087	195.100000
756.489319	187.700000
756.526611	198.500000
756.563843	194.800000
756.601135	205.100000
756.638428	203.300000
756.675659	194.500000
756.712952	199.800000
756.750244	197.600000
756.787476	196.700000
756.824768	201.700000
756.862061	193.200000
756.899292	240.500000
756.936584	200.200000
756.973816	205.900000
757.011047	207.900000
757.048340	197.400000
757.085632	195.900000
757.122864	212.400000
757.160156	194.500000
757.197327	198.800000
757.234619	200.900000
757.271912	196.800000
757.309082	201.300000
757.346375	193.900000
757.383667	204.500000
757.420837	199.300000
757.458130	198.900000
757.495422	196.900000
757.532593	199.600000
757.569885	192.400000
757.607117	195.200000
757.644348	201.200000
757.681580	210.600000
757.718811	187.800000
757.756042	199.900000
757.793335	197.500000
757.830505	201.900000
757.867798	195.600000
757.905029	196.900000
757.942200	201.100000
757.979492	196.800000
758.016724	199.500000
758.053894	197.300000
758.091187	219.100000
758.128418	201.200000
758.165588	200.200000
758.202820	212.300000
758.240112	202.300000
758.277283	211.500000
758.314514	202.300000
758.351685	198.900000
758.388916	210.300000
758.426147	208.200000
758.463379	211.600000
758.500610	205.400000
758.537842	202.000000
758.575012	210.400000
758.612244	198.800000
758.649475	217.000000
758.686646	196.200000
758.723877	210.600000
758.761108	211.500000
758.798279	202.800000
758.835510	205.600000
758.872742	211.200000
758.909851	206.900000
758.947083	208.600000
758.984253	207.000000
759.021484	210.900000
759.058716	211.700000
759.095886	210.500000
759.133057	204.500000
759.170288	209.400000
759.207458	203.300000
759.244690	217.900000
759.281860	216.700000
759.319031	206.600000
759.356262	205.200000
759.393433	206.400000
759.430603	205.500000
759.467773	208.400000
759.505005	214.800000
759.542175	213.000000
759.579346	206.900000
759.616516	208.700000
759.653687	211.700000
759.690918	205.900000
759.728027	210.200000
759.765259	211.000000
759.802429	212.600000
759.839539	212.000000
759.876770	217.400000
759.913940	219.700000
759.951111	211.900000
759.988281	209.600000
760.025452	209.000000
760.062561	205.300000
760.099792	219.100000
760.136963	212.400000
760.174072	209.200000
760.211243	204.200000
760.248413	207.500000
760.285583	206.400000
760.322754	222.000000
760.359863	216.600000
760.397034	218.700000
760.434204	212.200000
760.471375	212.200000
760.508545	210.100000
760.545715	211.500000
760.582825	207.200000
760.619995	217.900000
760.657166	207.100000
760.694275	219.400000
760.731445	214.700000
760.768555	215.300000
760.805664	216.100000
760.842834	215.000000
760.879944	216.600000
760.917114	217.100000
760.954285	213.800000
760.991394	209.200000
761.028564	219.600000
761.065674	218.900000
761.102783	211.600000
761.139954	220.600000
761.177124	221.300000
761.214172	222.800000
761.251343	214.400000
761.288452	217.300000
761.325562	219.600000
761.362732	214.800000
761.399841	215.200000
761.436951	219.300000
761.474121	214.000000
761.511169	219.800000
761.548340	223.900000
761.585449	222.500000
761.622559	222.100000
761.659668	221.200000
761.696838	227.800000
761.733887	222.600000
761.771057	220.600000
761.808167	221.700000
761.845276	226.300000
761.882385	234.100000
761.919434	223.500000
761.956604	242.500000
761.993713	220.900000
762.030762	231.900000
762.067871	225.400000
762.105042	222.100000
762.142090	233.200000
762.179199	226.200000
762.216309	232.300000
762.253418	240.800000
762.290527	236.400000
762.327637	233.800000
762.364685	222.200000
762.401794	231.300000
762.438904	231.700000
762.475952	224.800000
762.513062	225.100000
762.550110	224.600000
762.587219	240.800000
762.624329	240.700000
762.661377	234.600000
762.698486	234.100000
762.735596	233.400000
762.772644	228.300000
762.809753	224.000000
762.846863	233.200000
762.883911	237.100000
762.921021	235.600000
762.958069	234.900000
762.995117	241.500000
763.032227	243.000000
763.069336	235.900000
763.106323	232.400000
763.143433	231.200000
763.180481	238.100000
763.217590	239.500000
763.254639	237.300000
763.291687	236.500000
763.328735	244.900000
763.365845	237.300000
763.402893	237.700000
763.439941	241.100000
763.477051	246.200000
763.514038	245.600000
763.551147	238.900000
763.588196	242.300000
763.625244	240.600000
763.662292	248.700000
763.699402	251.800000
763.736389	245.800000
763.773499	256.400000
763.810486	249.900000
763.847534	246.900000
763.884644	250.700000
763.921631	245.500000
763.958679	257.300000
763.995728	247.700000
764.032776	256.300000
764.069824	242.400000
764.106873	252.200000
764.143860	257.400000
764.180969	251.100000
764.218018	257.400000
764.255005	250.400000
764.292053	253.000000
764.329102	262.600000
764.366089	262.100000
764.403137	261.700000
764.440125	249.400000
764.477173	255.800000
764.514221	256.800000
764.551208	255.400000
764.588257	251.700000
764.625305	262.000000
764.662292	266.600000
764.699341	271.900000
764.736389	261.500000
764.773376	278.500000
764.810425	265.400000
764.847473	273.300000
764.884399	267.900000
764.921448	276.300000
764.958435	273.500000
764.995483	263.500000
765.032532	280.000000
765.069458	266.500000
765.106506	264.900000
765.143555	263.800000
765.180481	268.900000
765.217529	277.500000
765.254578	265.500000
765.291504	273.500000
765.328552	269.400000
765.365540	267.400000
765.402527	283.700000
765.439575	269.700000
765.476501	264.100000
765.513550	264.900000
765.550537	270.500000
765.587463	277.400000
765.624512	266.900000
765.661499	261.800000
765.698486	279.400000
765.735474	268.200000
765.772461	270.400000
765.809448	280.600000
765.846436	277.200000
765.883423	281.700000
765.920410	276.500000
765.957397	272.500000
765.994385	278.500000
766.031311	286.900000
766.068359	279.000000
766.105286	279.300000
766.142273	285.600000
766.179260	280.400000
766.216187	274.500000
766.253174	271.100000
766.290161	281.400000
766.327148	284.200000
766.364136	284.300000
766.401123	300.900000
766.438049	278.500000
766.475037	292.600000
766.512024	287.200000
766.548950	301.800000
766.585937	297.900000
766.622864	292.400000
766.659790	291.200000
766.696777	280.900000
766.733704	297.500000
766.770691	286.900000
766.807678	301.300000
766.844604	297.500000
766.881531	296.800000
766.918518	301.700000
766.955444	304.800000
766.992432	296.600000
767.029358	304.100000
767.066284	302.200000
767.103271	299.800000
767.140198	330.600000
767.177124	315.800000
767.214050	308.500000
767.251038	309.000000
767.287964	305.100000
767.324890	300.900000
767.361816	307.700000
767.398743	314.300000
767.435730	308.600000
767.472595	312.600000
767.509583	316.800000
767.546509	305.600000
767.583374	314.300000
767.620361	304.300000
767.657288	311.500000
767.694214	311.500000
767.731140	310.900000
767.768066	314.200000
767.804993	318.600000
767.841919	310.600000
767.878845	315.700000
767.915710	324.600000
767.952698	321.600000
767.989563	320.600000
768.026489	324.000000
