Model Number: SPM-001-M   
Serial Number: 10090201
Firmware Version: 004.17.6
Exposure Time: 500000.000000us
Data Taken on: 10-03-2021 12:11:19.485
Wavelength	Amplitude
733.770752	0.000000
733.808716	0.000000
733.846619	0.000000
733.884583	0.000000
733.922546	0.000000
733.960449	0.000000
733.998413	0.000000
734.036377	0.000000
734.074219	0.000000
734.112183	0.000000
734.150085	0.000000
734.188049	0.000000
734.226013	0.000000
734.263916	0.000000
734.301819	0.000000
734.339783	0.000000
734.377686	0.000000
734.415588	0.000000
734.453552	0.000000
734.491455	0.000000
734.529419	0.000000
734.567322	0.000000
734.605225	0.000000
734.643127	0.000000
734.681091	0.000000
734.718994	0.000000
734.756897	0.000000
734.794800	0.000000
734.832703	0.000000
734.870667	0.000000
734.908508	0.000000
734.946472	0.000000
734.984375	0.000000
735.022278	0.000000
735.060181	0.000000
735.098083	0.000000
735.135986	0.000000
735.173889	0.000000
735.211792	0.000000
735.249695	0.000000
735.287598	0.000000
735.325439	0.000000
735.363403	0.000000
735.401306	0.000000
735.439148	0.000000
735.477051	0.000000
735.515015	0.000000
735.552856	0.000000
735.590759	0.000000
735.628662	0.000000
735.666504	0.000000
735.704407	0.000000
735.742310	0.000000
735.780212	0.000000
735.818115	0.000000
735.856018	0.000000
735.893860	0.000000
735.931763	0.000000
735.969604	0.000000
736.007507	0.000000
736.045410	0.000000
736.083252	0.000000
736.121094	0.000000
736.158997	0.000000
736.196838	0.000000
736.234741	0.000000
736.272644	0.000000
736.310486	0.000000
736.348389	0.000000
736.386230	0.000000
736.424072	0.000000
736.461975	0.000000
736.499878	0.000000
736.537720	0.000000
736.575562	0.000000
736.613403	0.000000
736.651306	0.000000
736.689148	0.000000
736.726990	0.000000
736.764893	0.000000
736.802734	0.000000
736.840576	0.000000
736.878418	0.000000
736.916321	0.000000
736.954102	0.000000
736.992004	0.000000
737.029846	0.000000
737.067688	0.000000
737.105530	0.000000
737.143372	0.000000
737.181213	0.000000
737.219116	0.000000
737.256897	0.000000
737.294739	0.000000
737.332642	0.000000
737.370422	0.000000
737.408325	0.000000
737.446167	0.000000
737.483948	0.000000
737.521790	0.000000
737.559692	0.000000
737.597473	0.000000
737.635315	0.000000
737.673157	0.000000
737.710999	0.000000
737.748840	0.000000
737.786621	0.000000
737.824463	0.000000
737.862305	0.000000
737.900085	0.000000
737.937927	0.000000
737.975769	0.000000
738.013550	0.000000
738.051392	0.000000
738.089233	0.000000
738.127014	0.000000
738.164856	0.000000
738.202698	0.000000
738.240479	0.000000
738.278320	0.000000
738.316162	0.000000
738.353943	0.000000
738.391785	0.000000
738.429565	0.000000
738.467407	0.000000
738.505188	0.000000
738.542969	0.000000
738.580811	0.000000
738.618652	0.000000
738.656372	0.000000
738.694214	0.000000
738.732056	0.000000
738.769836	0.000000
738.807617	0.000000
738.845459	0.000000
738.883240	0.000000
738.921021	0.000000
738.958862	0.000000
738.996582	0.000000
739.034424	0.000000
739.072205	0.000000
739.109985	0.000000
739.147827	0.000000
739.185547	0.000000
739.223389	0.000000
739.261169	0.000000
739.298889	0.000000
739.336731	0.000000
739.374512	0.000000
739.412292	0.000000
739.450073	0.000000
739.487854	0.000000
739.525635	0.000000
739.563416	0.000000
739.601135	0.000000
739.638977	0.000000
739.676758	0.000000
739.714478	0.000000
739.752258	0.000000
739.790100	0.000000
739.827820	0.000000
739.865601	0.000000
739.903381	0.000000
739.941101	0.000000
739.978882	196.100000
740.016724	190.000000
740.054443	196.800000
740.092224	188.900000
740.130005	188.100000
740.167725	189.300000
740.205505	188.700000
740.243225	199.800000
740.281006	193.400000
740.318787	184.900000
740.356506	198.100000
740.394287	198.800000
740.432068	188.300000
740.469727	187.000000
740.507507	196.200000
740.545288	192.100000
740.583008	195.000000
740.620789	193.300000
740.658569	183.700000
740.696228	192.400000
740.734009	198.800000
740.771790	181.400000
740.809509	196.300000
740.847229	189.000000
740.884949	188.100000
740.922729	185.800000
740.960449	191.100000
740.998169	188.100000
741.035950	188.200000
741.073669	194.300000
741.111389	194.000000
741.149170	203.700000
741.186890	203.200000
741.224609	197.600000
741.262329	193.300000
741.300110	203.000000
741.337769	187.700000
741.375549	186.100000
741.413208	194.100000
741.450989	189.200000
741.488708	190.800000
741.526367	190.300000
741.564148	195.700000
741.601868	196.900000
741.639526	191.200000
741.677307	193.900000
741.715027	194.200000
741.752686	189.300000
741.790466	201.800000
741.828186	195.900000
741.865845	188.200000
741.903564	184.100000
741.941345	191.900000
741.979004	189.000000
742.016724	195.600000
742.054382	193.000000
742.092102	198.200000
742.129822	184.700000
742.167480	190.100000
742.205200	190.800000
742.242920	194.400000
742.280640	196.000000
742.318359	189.500000
742.356079	189.100000
742.393738	196.000000
742.431396	189.800000
742.469116	196.300000
742.506775	181.700000
742.544495	195.800000
742.582214	197.000000
742.619873	192.100000
742.657593	199.500000
742.695251	197.300000
742.732971	192.300000
742.770630	195.200000
742.808289	191.900000
742.846008	192.000000
742.883728	195.700000
742.921326	192.300000
742.959045	190.000000
742.996765	192.900000
743.034424	192.500000
743.072083	189.700000
743.109802	192.700000
743.147400	186.300000
743.185120	193.700000
743.222839	191.400000
743.260437	198.600000
743.298157	193.700000
743.335754	184.000000
743.373474	191.600000
743.411133	183.000000
743.448792	192.200000
743.486450	192.600000
743.524170	185.500000
743.561768	192.800000
743.599487	199.700000
743.637146	204.300000
743.674744	190.600000
743.712463	190.300000
743.750122	192.800000
743.787720	196.000000
743.825439	187.500000
743.863037	190.700000
743.900696	192.200000
743.938416	217.600000
743.976013	191.300000
744.013672	201.900000
744.051331	196.900000
744.088928	201.100000
744.126587	198.400000
744.164307	194.200000
744.201904	188.900000
744.239563	196.400000
744.277222	194.900000
744.314819	192.100000
744.352478	198.800000
744.390137	194.200000
744.427734	194.500000
744.465393	189.800000
744.502991	188.500000
744.540649	196.100000
744.578308	193.100000
744.615906	187.900000
744.653564	181.200000
744.691223	197.300000
744.728821	185.300000
744.766418	191.900000
744.804077	194.700000
744.841675	190.300000
744.879333	184.900000
744.916992	193.100000
744.954529	190.300000
744.992187	199.400000
745.029785	191.400000
745.067444	188.400000
745.105042	194.300000
745.142639	194.800000
745.180298	202.300000
745.217896	190.800000
745.255493	191.900000
745.293152	196.100000
745.330750	196.800000
745.368347	200.100000
745.405945	195.800000
745.443604	193.300000
745.481140	196.600000
745.518799	189.800000
745.556396	195.900000
745.593994	196.900000
745.631592	191.700000
745.669189	186.400000
745.706787	195.200000
745.744385	188.100000
745.781982	193.900000
745.819580	189.600000
745.857178	191.700000
745.894775	192.400000
745.932373	194.300000
745.969971	193.600000
746.007568	184.200000
746.045166	201.700000
746.082764	199.100000
746.120300	195.900000
746.157898	197.200000
746.195557	192.500000
746.233093	186.800000
746.270691	196.500000
746.308228	196.600000
746.345825	198.100000
746.383423	197.000000
746.420959	188.600000
746.458557	190.300000
746.496155	189.100000
746.533691	192.400000
746.571289	187.800000
746.608887	193.300000
746.646423	195.000000
746.684021	194.100000
746.721619	190.200000
746.759155	194.100000
746.796753	186.300000
746.834351	185.800000
746.871826	188.200000
746.909424	200.700000
746.946960	194.300000
746.984558	191.500000
747.022156	191.100000
747.059631	199.000000
747.097229	195.500000
747.134827	190.600000
747.172363	199.000000
747.209900	193.300000
747.247498	188.000000
747.285034	200.100000
747.322571	200.200000
747.360168	191.800000
747.397644	185.900000
747.435242	196.700000
747.472778	200.100000
747.510315	189.200000
747.547913	191.300000
747.585388	200.700000
747.622925	192.300000
747.660522	183.800000
747.697998	188.400000
747.735596	192.000000
747.773132	189.700000
747.810669	191.900000
747.848206	196.500000
747.885742	186.600000
747.923279	187.800000
747.960815	196.100000
747.998352	193.400000
748.035889	198.200000
748.073425	198.600000
748.110901	188.600000
748.148437	189.300000
748.185974	192.500000
748.223511	203.300000
748.261047	193.500000
748.298584	193.700000
748.336060	192.800000
748.373596	196.100000
748.411133	211.400000
748.448608	188.900000
748.486145	195.300000
748.523682	201.000000
748.561218	197.500000
748.598755	194.100000
748.636292	197.300000
748.673706	190.800000
748.711243	198.000000
748.748718	194.100000
748.786255	190.800000
748.823792	193.000000
748.861267	188.400000
748.898804	194.600000
748.936340	195.200000
748.973816	190.500000
749.011292	198.500000
749.048828	194.500000
749.086304	198.300000
749.123840	204.700000
749.161316	187.600000
749.198792	202.700000
749.236328	199.300000
749.273743	193.900000
749.311279	191.600000
749.348816	193.700000
749.386230	194.400000
749.423767	181.000000
749.461304	196.100000
749.498718	195.400000
749.536255	201.300000
749.573730	206.700000
749.611206	198.300000
749.648682	193.200000
749.686218	192.300000
749.723633	197.300000
749.761169	191.200000
749.798645	189.200000
749.836060	192.700000
749.873596	191.700000
749.911011	193.900000
749.948547	200.500000
749.986023	193.000000
750.023437	191.700000
750.060913	185.900000
750.098450	187.000000
750.135864	194.500000
750.173340	192.600000
750.210815	197.700000
750.248291	188.900000
750.285767	193.100000
750.323242	200.000000
750.360657	195.300000
750.398132	188.400000
750.435608	196.400000
750.473022	188.500000
750.510498	187.800000
750.547974	189.600000
750.585449	190.800000
750.622925	181.500000
750.660339	201.900000
750.697815	194.000000
750.735291	191.900000
750.772644	194.200000
750.810120	191.600000
750.847595	195.400000
750.885010	188.600000
750.922485	202.900000
750.959961	191.200000
750.997375	200.700000
751.034851	196.700000
751.072266	197.500000
751.109680	186.300000
751.147156	199.600000
751.184570	195.400000
751.221985	195.200000
751.259460	184.200000
751.296875	193.300000
751.334290	192.900000
751.371765	198.100000
751.409180	196.900000
751.446594	199.400000
751.484070	196.000000
751.521423	196.300000
751.558899	193.900000
751.596375	201.400000
751.633728	202.200000
751.671204	209.000000
751.708618	188.600000
751.746033	194.500000
751.783447	188.500000
751.820801	191.100000
751.858276	195.500000
751.895691	192.400000
751.933105	191.800000
751.970520	188.600000
752.007935	190.900000
752.045349	197.900000
752.082764	193.700000
752.120178	192.200000
752.157532	188.900000
752.195007	191.100000
752.232422	196.100000
752.269775	200.100000
752.307190	196.300000
752.344543	189.100000
752.382019	192.100000
752.419434	192.100000
752.456787	194.800000
752.494202	198.000000
752.531616	195.000000
752.568970	197.100000
752.606384	194.800000
752.643799	195.400000
752.681152	202.700000
752.718567	196.700000
752.755981	186.700000
752.793335	195.900000
752.830750	185.100000
752.868164	199.400000
752.905518	188.700000
752.942932	197.500000
752.980225	188.600000
753.017639	198.800000
753.055054	191.500000
753.092407	196.600000
753.129822	201.600000
753.167175	204.300000
753.204529	193.300000
753.241943	188.900000
753.279358	189.100000
753.316650	197.200000
753.354065	197.900000
753.391479	198.200000
753.428772	203.000000
753.466187	198.300000
753.503479	188.300000
753.540894	192.900000
753.578308	188.900000
753.615601	187.700000
753.653015	194.500000
753.690369	191.600000
753.727722	190.200000
753.765076	185.300000
753.802490	187.500000
753.839783	184.600000
753.877136	191.300000
753.914551	209.400000
753.951843	188.700000
753.989258	196.600000
754.026611	195.300000
754.063904	194.400000
754.101257	187.100000
754.138611	184.100000
754.175964	193.500000
754.213318	204.600000
754.250610	186.500000
754.288025	190.300000
754.325378	186.600000
754.362671	200.200000
754.400024	190.600000
754.437378	202.500000
754.474670	203.100000
754.512085	190.600000
754.549438	194.100000
754.586731	192.300000
754.624084	192.100000
754.661438	188.100000
754.698730	201.900000
754.736084	190.900000
754.773376	191.600000
754.810730	196.200000
754.848083	192.500000
754.885315	197.700000
754.922668	186.100000
754.960022	189.200000
754.997314	197.600000
755.034668	195.600000
755.072021	194.400000
755.109253	192.600000
755.146606	201.400000
755.183960	194.000000
755.221252	203.700000
755.258545	201.500000
755.295898	200.500000
755.333191	203.500000
755.370544	197.700000
755.407776	195.400000
755.445129	195.900000
755.482422	200.300000
755.519714	192.400000
755.557068	188.700000
755.594360	186.200000
755.631653	200.900000
755.668945	204.500000
755.706299	197.800000
755.743530	206.800000
755.780884	204.400000
755.818176	203.500000
755.855408	201.700000
755.892761	199.100000
755.930054	197.700000
755.967346	199.600000
756.004639	201.200000
756.041870	198.100000
756.079224	202.200000
756.116516	194.300000
756.153748	202.400000
756.191040	204.200000
756.228394	201.000000
756.265625	195.000000
756.302917	199.200000
756.340210	195.100000
756.377441	204.000000
756.414795	205.800000
756.452087	199.000000
756.489319	192.800000
756.526611	202.700000
756.563843	203.100000
756.601135	211.100000
756.638428	208.800000
756.675659	198.800000
756.712952	205.700000
756.750244	203.400000
756.787476	201.300000
756.824768	208.300000
756.862061	199.400000
756.899292	248.400000
756.936584	206.800000
756.973816	211.400000
757.011047	214.700000
757.048340	202.600000
757.085632	203.000000
757.122864	219.200000
757.160156	200.900000
757.197327	204.800000
757.234619	208.000000
757.271912	202.100000
757.309082	208.700000
757.346375	200.300000
757.383667	210.000000
757.420837	204.500000
757.458130	204.500000
757.495422	202.400000
757.532593	205.800000
757.569885	197.400000
757.607117	199.600000
757.644348	205.600000
757.681580	219.000000
757.718811	193.200000
757.756042	206.500000
757.793335	203.900000
757.830505	208.900000
757.867798	203.100000
757.905029	202.900000
757.942200	209.500000
757.979492	201.100000
758.016724	204.000000
758.053894	204.500000
758.091187	225.400000
758.128418	207.100000
758.165588	207.800000
758.202820	220.200000
758.240112	208.200000
758.277283	218.100000
758.314514	209.000000
758.351685	203.800000
758.388916	217.800000
758.426147	215.200000
758.463379	219.100000
758.500610	212.200000
758.537842	209.600000
758.575012	215.700000
758.612244	206.000000
758.649475	222.400000
758.686646	204.600000
758.723877	218.100000
758.761108	219.700000
758.798279	210.100000
758.835510	213.700000
758.872742	216.200000
758.909851	213.800000
758.947083	214.300000
758.984253	213.800000
759.021484	217.000000
759.058716	217.800000
759.095886	216.600000
759.133057	211.300000
759.170288	216.400000
759.207458	209.200000
759.244690	225.200000
759.281860	222.800000
759.319031	213.200000
759.356262	211.700000
759.393433	213.100000
759.430603	213.100000
759.467773	214.400000
759.505005	220.200000
759.542175	220.100000
759.579346	213.500000
759.616516	215.000000
759.653687	216.800000
759.690918	211.800000
759.728027	216.900000
759.765259	215.700000
759.802429	219.100000
759.839539	218.500000
759.876770	221.700000
759.913940	225.000000
759.951111	217.300000
759.988281	217.100000
760.025452	215.200000
760.062561	212.900000
760.099792	225.900000
760.136963	221.000000
760.174072	215.800000
760.211243	212.600000
760.248413	212.400000
760.285583	214.000000
760.322754	228.800000
760.359863	225.800000
760.397034	226.100000
760.434204	218.800000
760.471375	219.900000
760.508545	217.000000
760.545715	219.100000
760.582825	214.700000
760.619995	224.700000
760.657166	213.100000
760.694275	227.400000
760.731445	224.300000
760.768555	223.500000
760.805664	224.900000
760.842834	224.300000
760.879944	225.900000
760.917114	224.100000
760.954285	222.000000
760.991394	215.600000
761.028564	228.600000
761.065674	227.800000
761.102783	220.500000
761.139954	229.200000
761.177124	228.800000
761.214172	232.100000
761.251343	224.100000
761.288452	225.500000
761.325562	229.000000
761.362732	223.200000
761.399841	225.500000
761.436951	230.600000
761.474121	223.100000
761.511169	229.100000
761.548340	234.000000
761.585449	233.200000
761.622559	235.500000
761.659668	231.500000
761.696838	237.000000
761.733887	234.400000
761.771057	232.000000
761.808167	234.000000
761.845276	238.200000
761.882385	246.700000
761.919434	234.800000
761.956604	256.600000
761.993713	232.600000
762.030762	242.600000
762.067871	237.100000
762.105042	237.300000
762.142090	244.300000
762.179199	239.500000
762.216309	243.800000
762.253418	253.600000
762.290527	249.000000
762.327637	246.200000
762.364685	236.600000
762.401794	245.500000
762.438904	243.100000
762.475952	238.400000
762.513062	237.400000
762.550110	239.000000
762.587219	254.500000
762.624329	253.700000
762.661377	246.100000
762.698486	246.300000
762.735596	246.100000
762.772644	240.600000
762.809753	238.300000
762.846863	245.800000
762.883911	251.100000
762.921021	251.600000
762.958069	250.800000
762.995117	257.600000
763.032227	257.000000
763.069336	248.200000
763.106323	243.100000
763.143433	243.500000
763.180481	250.100000
763.217590	250.300000
763.254639	247.600000
763.291687	252.000000
763.328735	259.700000
763.365845	251.300000
763.402893	250.900000
763.439941	253.800000
763.477051	258.600000
763.514038	259.000000
763.551147	252.100000
763.588196	255.500000
763.625244	252.200000
763.662292	263.300000
763.699402	266.300000
763.736389	260.100000
763.773499	270.100000
763.810486	262.900000
763.847534	262.000000
763.884644	264.700000
763.921631	258.500000
763.958679	273.600000
763.995728	261.600000
764.032776	271.100000
764.069824	257.000000
764.106873	267.000000
764.143860	273.300000
764.180969	265.100000
764.218018	274.800000
764.255005	265.200000
764.292053	268.300000
764.329102	278.900000
764.366089	278.800000
764.403137	275.700000
764.440125	266.200000
764.477173	270.400000
764.514221	271.000000
764.551208	270.800000
764.588257	264.600000
764.625305	277.500000
764.662292	282.800000
764.699341	287.400000
764.736389	279.300000
764.773376	294.600000
764.810425	280.600000
764.847473	287.700000
764.884399	283.800000
764.921448	292.100000
764.958435	288.600000
764.995483	278.500000
765.032532	296.700000
765.069458	282.200000
765.106506	283.800000
765.143555	281.200000
765.180481	284.000000
765.217529	293.700000
765.254578	278.500000
765.291504	288.400000
765.328552	285.800000
765.365540	283.400000
765.402527	297.500000
765.439575	283.100000
765.476501	277.100000
765.513550	280.900000
765.550537	285.500000
765.587463	294.600000
765.624512	285.500000
765.661499	278.200000
765.698486	295.500000
765.735474	284.500000
765.772461	288.500000
765.809448	297.400000
765.846436	294.900000
765.883423	297.800000
765.920410	291.600000
765.957397	288.700000
765.994385	294.700000
766.031311	303.500000
766.068359	296.000000
766.105286	296.300000
766.142273	303.000000
766.179260	297.800000
766.216187	292.100000
766.253174	289.400000
766.290161	299.000000
766.327148	302.700000
766.364136	302.700000
766.401123	318.400000
766.438049	296.600000
766.475037	311.700000
766.512024	307.200000
766.548950	323.000000
766.585937	316.700000
766.622864	312.000000
766.659790	311.900000
766.696777	300.000000
766.733704	318.800000
766.770691	309.600000
766.807678	326.800000
766.844604	319.100000
766.881531	319.800000
766.918518	327.000000
766.955444	328.700000
766.992432	320.300000
767.029358	325.700000
767.066284	328.800000
767.103271	326.400000
767.140198	355.500000
767.177124	342.800000
767.214050	334.800000
767.251038	335.000000
767.287964	333.600000
767.324890	330.200000
767.361816	336.000000
767.398743	341.400000
767.435730	336.500000
767.472595	340.200000
767.509583	347.300000
767.546509	334.900000
767.583374	344.400000
767.620361	335.600000
767.657288	341.600000
767.694214	342.400000
767.731140	342.000000
767.768066	343.800000
767.804993	348.500000
767.841919	341.000000
767.878845	348.100000
767.915710	357.500000
767.952698	349.300000
767.989563	353.100000
768.026489	356.300000
