Model Number: SPM-001-M   
Serial Number: 10090201
Firmware Version: 004.17.6
Exposure Time: 500000.000000us
Data Taken on: 10-03-2021 12:11:48.963
Wavelength	Amplitude
733.770752	0.000000
733.808716	0.000000
733.846619	0.000000
733.884583	0.000000
733.922546	0.000000
733.960449	0.000000
733.998413	0.000000
734.036377	0.000000
734.074219	0.000000
734.112183	0.000000
734.150085	0.000000
734.188049	0.000000
734.226013	0.000000
734.263916	0.000000
734.301819	0.000000
734.339783	0.000000
734.377686	0.000000
734.415588	0.000000
734.453552	0.000000
734.491455	0.000000
734.529419	0.000000
734.567322	0.000000
734.605225	0.000000
734.643127	0.000000
734.681091	0.000000
734.718994	0.000000
734.756897	0.000000
734.794800	0.000000
734.832703	0.000000
734.870667	0.000000
734.908508	0.000000
734.946472	0.000000
734.984375	0.000000
735.022278	0.000000
735.060181	0.000000
735.098083	0.000000
735.135986	0.000000
735.173889	0.000000
735.211792	0.000000
735.249695	0.000000
735.287598	0.000000
735.325439	0.000000
735.363403	0.000000
735.401306	0.000000
735.439148	0.000000
735.477051	0.000000
735.515015	0.000000
735.552856	0.000000
735.590759	0.000000
735.628662	0.000000
735.666504	0.000000
735.704407	0.000000
735.742310	0.000000
735.780212	0.000000
735.818115	0.000000
735.856018	0.000000
735.893860	0.000000
735.931763	0.000000
735.969604	0.000000
736.007507	0.000000
736.045410	0.000000
736.083252	0.000000
736.121094	0.000000
736.158997	0.000000
736.196838	0.000000
736.234741	0.000000
736.272644	0.000000
736.310486	0.000000
736.348389	0.000000
736.386230	0.000000
736.424072	0.000000
736.461975	0.000000
736.499878	0.000000
736.537720	0.000000
736.575562	0.000000
736.613403	0.000000
736.651306	0.000000
736.689148	0.000000
736.726990	0.000000
736.764893	0.000000
736.802734	0.000000
736.840576	0.000000
736.878418	0.000000
736.916321	0.000000
736.954102	0.000000
736.992004	0.000000
737.029846	0.000000
737.067688	0.000000
737.105530	0.000000
737.143372	0.000000
737.181213	0.000000
737.219116	0.000000
737.256897	0.000000
737.294739	0.000000
737.332642	0.000000
737.370422	0.000000
737.408325	0.000000
737.446167	0.000000
737.483948	0.000000
737.521790	0.000000
737.559692	0.000000
737.597473	0.000000
737.635315	0.000000
737.673157	0.000000
737.710999	0.000000
737.748840	0.000000
737.786621	0.000000
737.824463	0.000000
737.862305	0.000000
737.900085	0.000000
737.937927	0.000000
737.975769	0.000000
738.013550	0.000000
738.051392	0.000000
738.089233	0.000000
738.127014	0.000000
738.164856	0.000000
738.202698	0.000000
738.240479	0.000000
738.278320	0.000000
738.316162	0.000000
738.353943	0.000000
738.391785	0.000000
738.429565	0.000000
738.467407	0.000000
738.505188	0.000000
738.542969	0.000000
738.580811	0.000000
738.618652	0.000000
738.656372	0.000000
738.694214	0.000000
738.732056	0.000000
738.769836	0.000000
738.807617	0.000000
738.845459	0.000000
738.883240	0.000000
738.921021	0.000000
738.958862	0.000000
738.996582	0.000000
739.034424	0.000000
739.072205	0.000000
739.109985	0.000000
739.147827	0.000000
739.185547	0.000000
739.223389	0.000000
739.261169	0.000000
739.298889	0.000000
739.336731	0.000000
739.374512	0.000000
739.412292	0.000000
739.450073	0.000000
739.487854	0.000000
739.525635	0.000000
739.563416	0.000000
739.601135	0.000000
739.638977	0.000000
739.676758	0.000000
739.714478	0.000000
739.752258	0.000000
739.790100	0.000000
739.827820	0.000000
739.865601	0.000000
739.903381	0.000000
739.941101	0.000000
739.978882	197.100000
740.016724	192.600000
740.054443	197.900000
740.092224	190.000000
740.130005	189.000000
740.167725	189.600000
740.205505	189.800000
740.243225	198.900000
740.281006	193.000000
740.318787	186.300000
740.356506	200.100000
740.394287	198.200000
740.432068	188.100000
740.469727	186.200000
740.507507	198.300000
740.545288	191.600000
740.583008	194.700000
740.620789	192.600000
740.658569	184.300000
740.696228	192.200000
740.734009	198.500000
740.771790	180.800000
740.809509	197.400000
740.847229	186.700000
740.884949	188.800000
740.922729	185.200000
740.960449	190.200000
740.998169	187.100000
741.035950	189.000000
741.073669	195.200000
741.111389	193.800000
741.149170	203.000000
741.186890	203.700000
741.224609	196.000000
741.262329	195.600000
741.300110	202.900000
741.337769	187.800000
741.375549	187.500000
741.413208	194.200000
741.450989	188.500000
741.488708	190.600000
741.526367	191.200000
741.564148	196.000000
741.601868	197.600000
741.639526	193.800000
741.677307	194.500000
741.715027	195.100000
741.752686	188.500000
741.790466	199.800000
741.828186	197.000000
741.865845	187.500000
741.903564	183.000000
741.941345	192.300000
741.979004	188.800000
742.016724	195.100000
742.054382	192.600000
742.092102	200.100000
742.129822	186.000000
742.167480	190.800000
742.205200	191.200000
742.242920	194.700000
742.280640	197.800000
742.318359	189.000000
742.356079	190.700000
742.393738	196.100000
742.431396	192.200000
742.469116	196.100000
742.506775	182.200000
742.544495	194.700000
742.582214	197.000000
742.619873	191.600000
742.657593	202.100000
742.695251	197.900000
742.732971	190.700000
742.770630	195.000000
742.808289	192.300000
742.846008	192.700000
742.883728	196.000000
742.921326	192.700000
742.959045	189.900000
742.996765	193.700000
743.034424	192.200000
743.072083	190.300000
743.109802	192.600000
743.147400	186.800000
743.185120	195.700000
743.222839	192.500000
743.260437	197.700000
743.298157	194.900000
743.335754	184.600000
743.373474	190.800000
743.411133	185.900000
743.448792	192.400000
743.486450	192.400000
743.524170	185.300000
743.561768	194.600000
743.599487	199.100000
743.637146	204.300000
743.674744	191.700000
743.712463	190.500000
743.750122	193.900000
743.787720	195.700000
743.825439	189.400000
743.863037	190.100000
743.900696	192.700000
743.938416	216.900000
743.976013	192.200000
744.013672	201.100000
744.051331	198.100000
744.088928	201.200000
744.126587	198.900000
744.164307	194.800000
744.201904	189.400000
744.239563	196.500000
744.277222	194.300000
744.314819	192.000000
744.352478	199.200000
744.390137	194.900000
744.427734	195.600000
744.465393	189.800000
744.502991	188.100000
744.540649	195.900000
744.578308	194.700000
744.615906	187.000000
744.653564	182.700000
744.691223	197.900000
744.728821	185.400000
744.766418	193.500000
744.804077	196.900000
744.841675	189.300000
744.879333	185.500000
744.916992	192.400000
744.954529	190.200000
744.992187	200.200000
745.029785	191.400000
745.067444	188.600000
745.105042	194.300000
745.142639	195.800000
745.180298	202.800000
745.217896	191.600000
745.255493	192.600000
745.293152	197.800000
745.330750	196.700000
745.368347	200.900000
745.405945	197.400000
745.443604	193.700000
745.481140	197.000000
745.518799	192.100000
745.556396	197.200000
745.593994	197.900000
745.631592	192.000000
745.669189	188.400000
745.706787	195.000000
745.744385	188.200000
745.781982	195.500000
745.819580	190.100000
745.857178	193.000000
745.894775	193.500000
745.932373	193.600000
745.969971	193.300000
746.007568	184.400000
746.045166	202.000000
746.082764	199.300000
746.120300	197.100000
746.157898	196.000000
746.195557	192.800000
746.233093	186.300000
746.270691	197.100000
746.308228	195.400000
746.345825	198.300000
746.383423	195.600000
746.420959	186.700000
746.458557	192.000000
746.496155	191.300000
746.533691	192.500000
746.571289	189.000000
746.608887	193.500000
746.646423	195.400000
746.684021	195.500000
746.721619	191.100000
746.759155	194.800000
746.796753	187.300000
746.834351	187.000000
746.871826	190.000000
746.909424	200.800000
746.946960	194.800000
746.984558	192.100000
747.022156	192.100000
747.059631	199.700000
747.097229	196.000000
747.134827	192.400000
747.172363	200.800000
747.209900	195.700000
747.247498	188.600000
747.285034	201.800000
747.322571	200.800000
747.360168	191.400000
747.397644	186.400000
747.435242	198.300000
747.472778	200.400000
747.510315	190.500000
747.547913	190.800000
747.585388	200.100000
747.622925	193.100000
747.660522	183.900000
747.697998	189.500000
747.735596	192.500000
747.773132	190.100000
747.810669	193.100000
747.848206	196.700000
747.885742	187.300000
747.923279	187.600000
747.960815	195.400000
747.998352	193.300000
748.035889	199.100000
748.073425	197.700000
748.110901	188.200000
748.148437	189.100000
748.185974	194.100000
748.223511	204.600000
748.261047	194.500000
748.298584	195.000000
748.336060	191.600000
748.373596	196.100000
748.411133	212.300000
748.448608	188.100000
748.486145	197.400000
748.523682	201.300000
748.561218	199.700000
748.598755	194.000000
748.636292	197.600000
748.673706	191.500000
748.711243	200.400000
748.748718	195.700000
748.786255	192.900000
748.823792	192.800000
748.861267	188.800000
748.898804	195.800000
748.936340	195.700000
748.973816	191.700000
749.011292	198.300000
749.048828	196.100000
749.086304	197.400000
749.123840	205.600000
749.161316	187.100000
749.198792	203.700000
749.236328	199.200000
749.273743	193.500000
749.311279	191.300000
749.348816	195.500000
749.386230	193.600000
749.423767	180.500000
749.461304	194.500000
749.498718	193.300000
749.536255	201.300000
749.573730	205.400000
749.611206	199.000000
749.648682	192.300000
749.686218	193.200000
749.723633	197.600000
749.761169	190.900000
749.798645	187.600000
749.836060	192.900000
749.873596	191.900000
749.911011	193.100000
749.948547	200.800000
749.986023	193.700000
750.023437	193.200000
750.060913	187.000000
750.098450	188.300000
750.135864	193.000000
750.173340	193.600000
750.210815	199.100000
750.248291	189.200000
750.285767	195.000000
750.323242	200.900000
750.360657	195.000000
750.398132	188.800000
750.435608	198.100000
750.473022	189.600000
750.510498	189.500000
750.547974	190.500000
750.585449	191.700000
750.622925	182.600000
750.660339	201.400000
750.697815	193.200000
750.735291	193.900000
750.772644	193.600000
750.810120	193.600000
750.847595	195.700000
750.885010	188.500000
750.922485	201.900000
750.959961	192.100000
750.997375	199.500000
751.034851	198.400000
751.072266	198.200000
751.109680	186.300000
751.147156	199.200000
751.184570	196.300000
751.221985	195.100000
751.259460	184.100000
751.296875	193.100000
751.334290	193.600000
751.371765	198.200000
751.409180	196.900000
751.446594	199.500000
751.484070	196.200000
751.521423	196.900000
751.558899	195.500000
751.596375	202.300000
751.633728	200.600000
751.671204	207.600000
751.708618	188.600000
751.746033	193.900000
751.783447	187.000000
751.820801	189.700000
751.858276	196.900000
751.895691	193.800000
751.933105	191.800000
751.970520	190.400000
752.007935	191.800000
752.045349	198.700000
752.082764	194.800000
752.120178	192.700000
752.157532	189.800000
752.195007	191.300000
752.232422	197.600000
752.269775	199.300000
752.307190	196.500000
752.344543	189.100000
752.382019	192.600000
752.419434	192.500000
752.456787	194.700000
752.494202	197.700000
752.531616	196.700000
752.568970	197.400000
752.606384	195.600000
752.643799	196.300000
752.681152	202.800000
752.718567	197.700000
752.755981	185.900000
752.793335	196.200000
752.830750	185.700000
752.868164	200.200000
752.905518	189.200000
752.942932	198.400000
752.980225	187.300000
753.017639	198.600000
753.055054	191.300000
753.092407	196.600000
753.129822	201.100000
753.167175	203.100000
753.204529	192.900000
753.241943	190.800000
753.279358	188.000000
753.316650	199.300000
753.354065	197.200000
753.391479	197.600000
753.428772	203.100000
753.466187	198.500000
753.503479	187.500000
753.540894	192.100000
753.578308	189.700000
753.615601	187.700000
753.653015	194.600000
753.690369	192.300000
753.727722	189.000000
753.765076	188.400000
753.802490	188.800000
753.839783	184.800000
753.877136	190.900000
753.914551	208.800000
753.951843	188.600000
753.989258	196.800000
754.026611	194.700000
754.063904	195.700000
754.101257	189.000000
754.138611	185.600000
754.175964	193.800000
754.213318	205.400000
754.250610	186.100000
754.288025	189.700000
754.325378	188.600000
754.362671	198.400000
754.400024	192.400000
754.437378	201.900000
754.474670	204.300000
754.512085	189.700000
754.549438	194.500000
754.586731	191.400000
754.624084	192.800000
754.661438	189.300000
754.698730	201.700000
754.736084	191.500000
754.773376	191.400000
754.810730	198.000000
754.848083	192.900000
754.885315	198.200000
754.922668	187.000000
754.960022	187.800000
754.997314	199.100000
755.034668	195.000000
755.072021	195.200000
755.109253	192.600000
755.146606	202.700000
755.183960	193.300000
755.221252	204.800000
755.258545	202.300000
755.295898	200.600000
755.333191	203.300000
755.370544	199.700000
755.407776	195.800000
755.445129	196.800000
755.482422	201.200000
755.519714	194.200000
755.557068	189.500000
755.594360	187.800000
755.631653	201.800000
755.668945	205.900000
755.706299	199.700000
755.743530	208.600000
755.780884	204.700000
755.818176	203.200000
755.855408	203.300000
755.892761	200.300000
755.930054	198.300000
755.967346	199.800000
756.004639	201.500000
756.041870	198.700000
756.079224	203.600000
756.116516	194.600000
756.153748	202.600000
756.191040	206.700000
756.228394	201.300000
756.265625	194.100000
756.302917	199.000000
756.340210	196.100000
756.377441	204.300000
756.414795	206.000000
756.452087	200.100000
756.489319	192.800000
756.526611	201.700000
756.563843	200.600000
756.601135	211.200000
756.638428	209.000000
756.675659	200.700000
756.712952	205.700000
756.750244	204.600000
756.787476	201.800000
756.824768	208.400000
756.862061	198.600000
756.899292	248.500000
756.936584	206.000000
756.973816	212.600000
757.011047	214.400000
757.048340	203.200000
757.085632	203.000000
757.122864	218.700000
757.160156	201.900000
757.197327	205.500000
757.234619	207.600000
757.271912	202.500000
757.309082	210.200000
757.346375	199.700000
757.383667	211.800000
757.420837	206.100000
757.458130	206.300000
757.495422	203.200000
757.532593	208.500000
757.569885	198.500000
757.607117	202.200000
757.644348	206.900000
757.681580	218.300000
757.718811	193.600000
757.756042	205.700000
757.793335	202.100000
757.830505	209.700000
757.867798	203.900000
757.905029	202.300000
757.942200	208.700000
757.979492	202.800000
758.016724	204.800000
758.053894	204.700000
758.091187	226.200000
758.128418	208.300000
758.165588	205.800000
758.202820	218.900000
758.240112	209.300000
758.277283	217.900000
758.314514	208.800000
758.351685	204.900000
758.388916	217.500000
758.426147	215.500000
758.463379	218.000000
758.500610	212.100000
758.537842	209.600000
758.575012	216.700000
758.612244	204.000000
758.649475	221.800000
758.686646	202.400000
758.723877	217.800000
758.761108	218.900000
758.798279	212.800000
758.835510	213.400000
758.872742	218.900000
758.909851	213.800000
758.947083	215.900000
758.984253	214.300000
759.021484	218.700000
759.058716	216.700000
759.095886	217.600000
759.133057	213.000000
759.170288	217.400000
759.207458	209.400000
759.244690	225.200000
759.281860	223.400000
759.319031	213.900000
759.356262	211.800000
759.393433	212.900000
759.430603	214.000000
759.467773	213.900000
759.505005	220.700000
759.542175	219.500000
759.579346	214.500000
759.616516	215.700000
759.653687	218.500000
759.690918	211.400000
759.728027	217.200000
759.765259	217.100000
759.802429	219.700000
759.839539	219.300000
759.876770	222.900000
759.913940	226.400000
759.951111	216.800000
759.988281	217.200000
760.025452	213.700000
760.062561	214.100000
760.099792	226.200000
760.136963	219.100000
760.174072	216.200000
760.211243	212.900000
760.248413	214.800000
760.285583	213.500000
760.322754	230.100000
760.359863	224.300000
760.397034	225.900000
760.434204	218.300000
760.471375	219.200000
760.508545	218.300000
760.545715	217.800000
760.582825	215.200000
760.619995	225.700000
760.657166	213.300000
760.694275	227.800000
760.731445	223.200000
760.768555	224.100000
760.805664	226.100000
760.842834	224.100000
760.879944	226.100000
760.917114	225.200000
760.954285	222.300000
760.991394	216.600000
761.028564	229.700000
761.065674	227.700000
761.102783	221.100000
761.139954	228.700000
761.177124	229.700000
761.214172	232.600000
761.251343	222.600000
761.288452	224.700000
761.325562	231.100000
761.362732	223.600000
761.399841	226.000000
761.436951	230.000000
761.474121	224.300000
761.511169	227.900000
761.548340	232.800000
761.585449	232.600000
761.622559	233.800000
761.659668	231.900000
761.696838	238.200000
761.733887	234.200000
761.771057	229.500000
761.808167	233.300000
761.845276	238.300000
761.882385	247.100000
761.919434	234.400000
761.956604	254.200000
761.993713	231.100000
762.030762	242.800000
762.067871	236.700000
762.105042	235.000000
762.142090	244.600000
762.179199	240.200000
762.216309	242.700000
762.253418	254.200000
762.290527	249.500000
762.327637	246.700000
762.364685	236.500000
762.401794	246.800000
762.438904	243.700000
762.475952	239.600000
762.513062	238.900000
762.550110	238.200000
762.587219	254.400000
762.624329	253.900000
762.661377	246.700000
762.698486	247.600000
762.735596	246.000000
762.772644	239.600000
762.809753	237.400000
762.846863	245.700000
762.883911	250.500000
762.921021	250.800000
762.958069	248.800000
762.995117	258.400000
763.032227	258.600000
763.069336	248.500000
763.106323	246.100000
763.143433	244.300000
763.180481	252.400000
763.217590	250.900000
763.254639	248.700000
763.291687	251.100000
763.328735	258.000000
763.365845	252.300000
763.402893	250.700000
763.439941	254.900000
763.477051	259.300000
763.514038	260.600000
763.551147	252.700000
763.588196	254.600000
763.625244	255.300000
763.662292	262.300000
763.699402	265.900000
763.736389	261.700000
763.773499	272.000000
763.810486	264.700000
763.847534	260.400000
763.884644	263.000000
763.921631	259.400000
763.958679	270.000000
763.995728	259.900000
764.032776	272.000000
764.069824	257.100000
764.106873	265.100000
764.143860	274.500000
764.180969	265.600000
764.218018	272.800000
764.255005	266.700000
764.292053	268.400000
764.329102	280.200000
764.366089	278.900000
764.403137	276.900000
764.440125	266.400000
764.477173	271.000000
764.514221	273.000000
764.551208	268.500000
764.588257	266.300000
764.625305	279.000000
764.662292	284.200000
764.699341	287.400000
764.736389	278.000000
764.773376	295.400000
764.810425	280.700000
764.847473	288.500000
764.884399	283.100000
764.921448	290.700000
764.958435	289.300000
764.995483	278.900000
765.032532	295.500000
765.069458	281.000000
765.106506	283.100000
765.143555	280.800000
765.180481	284.900000
765.217529	292.500000
765.254578	277.600000
765.291504	290.600000
765.328552	285.600000
765.365540	282.300000
765.402527	298.500000
765.439575	282.600000
765.476501	279.900000
765.513550	281.200000
765.550537	286.900000
765.587463	294.100000
765.624512	285.600000
765.661499	278.000000
765.698486	296.100000
765.735474	284.400000
765.772461	286.800000
765.809448	297.700000
765.846436	295.400000
765.883423	298.100000
765.920410	293.200000
765.957397	289.700000
765.994385	295.200000
766.031311	302.500000
766.068359	296.800000
766.105286	298.500000
766.142273	303.400000
766.179260	299.700000
766.216187	295.000000
766.253174	290.400000
766.290161	300.000000
766.327148	303.100000
766.364136	304.400000
766.401123	320.600000
766.438049	297.500000
766.475037	311.200000
766.512024	307.600000
766.548950	321.300000
766.585937	316.600000
766.622864	312.000000
766.659790	311.400000
766.696777	303.500000
766.733704	319.500000
766.770691	310.500000
766.807678	327.300000
766.844604	319.800000
766.881531	320.100000
766.918518	325.700000
766.955444	329.100000
766.992432	321.100000
767.029358	324.700000
767.066284	329.800000
767.103271	327.300000
767.140198	354.200000
767.177124	344.000000
767.214050	332.600000
767.251038	332.700000
767.287964	332.200000
767.324890	330.600000
767.361816	336.000000
767.398743	341.700000
767.435730	334.300000
767.472595	341.000000
767.509583	347.400000
767.546509	334.900000
767.583374	341.700000
767.620361	335.600000
767.657288	342.500000
767.694214	341.800000
767.731140	343.300000
767.768066	345.200000
767.804993	348.700000
767.841919	339.600000
767.878845	349.600000
767.915710	359.100000
767.952698	352.300000
767.989563	354.600000
768.026489	356.600000
