Model Number: SPM-001-M   
Serial Number: 10090201
Firmware Version: 004.17.6
Exposure Time: 500000.000000us
Data Taken on: 10-03-2021 12:20:39.982
Wavelength	Amplitude
733.770752	0.000000
733.808716	0.000000
733.846619	0.000000
733.884583	0.000000
733.922546	0.000000
733.960449	0.000000
733.998413	0.000000
734.036377	0.000000
734.074219	0.000000
734.112183	0.000000
734.150085	0.000000
734.188049	0.000000
734.226013	0.000000
734.263916	0.000000
734.301819	0.000000
734.339783	0.000000
734.377686	0.000000
734.415588	0.000000
734.453552	0.000000
734.491455	0.000000
734.529419	0.000000
734.567322	0.000000
734.605225	0.000000
734.643127	0.000000
734.681091	0.000000
734.718994	0.000000
734.756897	0.000000
734.794800	0.000000
734.832703	0.000000
734.870667	0.000000
734.908508	0.000000
734.946472	0.000000
734.984375	0.000000
735.022278	0.000000
735.060181	0.000000
735.098083	0.000000
735.135986	0.000000
735.173889	0.000000
735.211792	0.000000
735.249695	0.000000
735.287598	0.000000
735.325439	0.000000
735.363403	0.000000
735.401306	0.000000
735.439148	0.000000
735.477051	0.000000
735.515015	0.000000
735.552856	0.000000
735.590759	0.000000
735.628662	0.000000
735.666504	0.000000
735.704407	0.000000
735.742310	0.000000
735.780212	0.000000
735.818115	0.000000
735.856018	0.000000
735.893860	0.000000
735.931763	0.000000
735.969604	0.000000
736.007507	0.000000
736.045410	0.000000
736.083252	0.000000
736.121094	0.000000
736.158997	0.000000
736.196838	0.000000
736.234741	0.000000
736.272644	0.000000
736.310486	0.000000
736.348389	0.000000
736.386230	0.000000
736.424072	0.000000
736.461975	0.000000
736.499878	0.000000
736.537720	0.000000
736.575562	0.000000
736.613403	0.000000
736.651306	0.000000
736.689148	0.000000
736.726990	0.000000
736.764893	0.000000
736.802734	0.000000
736.840576	0.000000
736.878418	0.000000
736.916321	0.000000
736.954102	0.000000
736.992004	0.000000
737.029846	0.000000
737.067688	0.000000
737.105530	0.000000
737.143372	0.000000
737.181213	0.000000
737.219116	0.000000
737.256897	0.000000
737.294739	0.000000
737.332642	0.000000
737.370422	0.000000
737.408325	0.000000
737.446167	0.000000
737.483948	0.000000
737.521790	0.000000
737.559692	0.000000
737.597473	0.000000
737.635315	0.000000
737.673157	0.000000
737.710999	0.000000
737.748840	0.000000
737.786621	0.000000
737.824463	0.000000
737.862305	0.000000
737.900085	0.000000
737.937927	0.000000
737.975769	0.000000
738.013550	0.000000
738.051392	0.000000
738.089233	0.000000
738.127014	0.000000
738.164856	0.000000
738.202698	0.000000
738.240479	0.000000
738.278320	0.000000
738.316162	0.000000
738.353943	0.000000
738.391785	0.000000
738.429565	0.000000
738.467407	0.000000
738.505188	0.000000
738.542969	0.000000
738.580811	0.000000
738.618652	0.000000
738.656372	0.000000
738.694214	0.000000
738.732056	0.000000
738.769836	0.000000
738.807617	0.000000
738.845459	0.000000
738.883240	0.000000
738.921021	0.000000
738.958862	0.000000
738.996582	0.000000
739.034424	0.000000
739.072205	0.000000
739.109985	0.000000
739.147827	0.000000
739.185547	0.000000
739.223389	0.000000
739.261169	0.000000
739.298889	0.000000
739.336731	0.000000
739.374512	0.000000
739.412292	0.000000
739.450073	0.000000
739.487854	0.000000
739.525635	0.000000
739.563416	0.000000
739.601135	0.000000
739.638977	0.000000
739.676758	0.000000
739.714478	0.000000
739.752258	0.000000
739.790100	0.000000
739.827820	0.000000
739.865601	0.000000
739.903381	0.000000
739.941101	0.000000
739.978882	193.600000
740.016724	191.900000
740.054443	196.900000
740.092224	190.300000
740.130005	189.500000
740.167725	188.800000
740.205505	186.800000
740.243225	199.700000
740.281006	193.800000
740.318787	185.000000
740.356506	197.300000
740.394287	197.500000
740.432068	187.000000
740.469727	186.800000
740.507507	196.900000
740.545288	192.500000
740.583008	196.200000
740.620789	192.800000
740.658569	185.000000
740.696228	191.700000
740.734009	199.300000
740.771790	180.400000
740.809509	197.200000
740.847229	188.200000
740.884949	188.700000
740.922729	183.400000
740.960449	191.100000
740.998169	187.600000
741.035950	189.400000
741.073669	194.100000
741.111389	193.400000
741.149170	200.300000
741.186890	204.700000
741.224609	196.700000
741.262329	194.400000
741.300110	201.800000
741.337769	187.600000
741.375549	185.800000
741.413208	194.900000
741.450989	187.100000
741.488708	191.400000
741.526367	188.900000
741.564148	197.200000
741.601868	196.400000
741.639526	193.900000
741.677307	194.100000
741.715027	196.300000
741.752686	187.300000
741.790466	199.500000
741.828186	195.400000
741.865845	187.600000
741.903564	183.500000
741.941345	194.200000
741.979004	189.100000
742.016724	195.600000
742.054382	192.700000
742.092102	198.700000
742.129822	183.900000
742.167480	189.700000
742.205200	193.700000
742.242920	194.700000
742.280640	196.800000
742.318359	187.800000
742.356079	188.500000
742.393738	196.100000
742.431396	193.600000
742.469116	195.700000
742.506775	183.200000
742.544495	195.400000
742.582214	196.100000
742.619873	191.900000
742.657593	200.500000
742.695251	196.700000
742.732971	191.700000
742.770630	192.500000
742.808289	192.400000
742.846008	191.200000
742.883728	196.100000
742.921326	191.300000
742.959045	191.500000
742.996765	191.600000
743.034424	193.600000
743.072083	189.300000
743.109802	194.200000
743.147400	184.700000
743.185120	194.400000
743.222839	190.300000
743.260437	200.400000
743.298157	194.400000
743.335754	185.700000
743.373474	189.500000
743.411133	185.200000
743.448792	192.900000
743.486450	193.900000
743.524170	183.200000
743.561768	192.000000
743.599487	197.800000
743.637146	204.000000
743.674744	190.100000
743.712463	190.100000
743.750122	193.100000
743.787720	194.900000
743.825439	185.900000
743.863037	190.000000
743.900696	193.100000
743.938416	217.100000
743.976013	192.700000
744.013672	202.000000
744.051331	197.600000
744.088928	201.100000
744.126587	199.100000
744.164307	193.300000
744.201904	190.200000
744.239563	195.100000
744.277222	194.900000
744.314819	194.300000
744.352478	200.600000
744.390137	194.500000
744.427734	195.800000
744.465393	190.000000
744.502991	188.100000
744.540649	196.700000
744.578308	195.200000
744.615906	187.200000
744.653564	184.400000
744.691223	195.800000
744.728821	186.200000
744.766418	192.400000
744.804077	195.800000
744.841675	189.700000
744.879333	187.200000
744.916992	190.300000
744.954529	190.900000
744.992187	197.300000
745.029785	191.400000
745.067444	188.300000
745.105042	193.800000
745.142639	194.600000
745.180298	203.200000
745.217896	190.900000
745.255493	191.900000
745.293152	195.000000
745.330750	197.000000
745.368347	200.400000
745.405945	197.200000
745.443604	191.500000
745.481140	196.100000
745.518799	191.300000
745.556396	195.800000
745.593994	197.600000
745.631592	192.200000
745.669189	186.800000
745.706787	193.800000
745.744385	188.800000
745.781982	194.600000
745.819580	190.800000
745.857178	190.900000
745.894775	192.800000
745.932373	193.800000
745.969971	193.900000
746.007568	183.800000
746.045166	202.900000
746.082764	198.400000
746.120300	196.900000
746.157898	196.000000
746.195557	191.400000
746.233093	186.600000
746.270691	195.700000
746.308228	194.300000
746.345825	199.100000
746.383423	196.600000
746.420959	188.200000
746.458557	188.800000
746.496155	190.700000
746.533691	191.500000
746.571289	188.300000
746.608887	192.600000
746.646423	194.900000
746.684021	193.700000
746.721619	191.000000
746.759155	193.600000
746.796753	187.800000
746.834351	184.100000
746.871826	190.400000
746.909424	198.100000
746.946960	194.900000
746.984558	190.000000
747.022156	192.000000
747.059631	199.300000
747.097229	195.300000
747.134827	190.600000
747.172363	202.000000
747.209900	193.700000
747.247498	188.000000
747.285034	199.400000
747.322571	201.800000
747.360168	190.100000
747.397644	185.600000
747.435242	195.600000
747.472778	200.000000
747.510315	190.300000
747.547913	190.300000
747.585388	199.600000
747.622925	191.800000
747.660522	183.500000
747.697998	187.700000
747.735596	192.800000
747.773132	189.300000
747.810669	193.200000
747.848206	196.900000
747.885742	188.000000
747.923279	187.300000
747.960815	195.300000
747.998352	194.100000
748.035889	199.100000
748.073425	196.700000
748.110901	191.300000
748.148437	187.300000
748.185974	194.000000
748.223511	202.600000
748.261047	195.200000
748.298584	192.700000
748.336060	193.300000
748.373596	194.800000
748.411133	210.800000
748.448608	187.900000
748.486145	198.100000
748.523682	199.800000
748.561218	199.100000
748.598755	192.800000
748.636292	198.300000
748.673706	188.900000
748.711243	200.400000
748.748718	194.600000
748.786255	194.200000
748.823792	191.500000
748.861267	188.000000
748.898804	194.000000
748.936340	195.800000
748.973816	190.300000
749.011292	199.800000
749.048828	194.900000
749.086304	195.800000
749.123840	204.500000
749.161316	187.700000
749.198792	203.200000
749.236328	200.000000
749.273743	193.400000
749.311279	191.200000
749.348816	195.900000
749.386230	193.000000
749.423767	182.500000
749.461304	194.900000
749.498718	194.800000
749.536255	200.000000
749.573730	203.800000
749.611206	198.600000
749.648682	193.600000
749.686218	193.900000
749.723633	197.000000
749.761169	190.700000
749.798645	187.900000
749.836060	191.000000
749.873596	189.800000
749.911011	192.900000
749.948547	201.500000
749.986023	192.900000
750.023437	193.400000
750.060913	184.700000
750.098450	188.200000
750.135864	191.100000
750.173340	193.800000
750.210815	197.300000
750.248291	188.800000
750.285767	191.700000
750.323242	200.500000
750.360657	195.200000
750.398132	188.100000
750.435608	195.900000
750.473022	191.300000
750.510498	186.900000
750.547974	188.800000
750.585449	189.300000
750.622925	182.800000
750.660339	202.500000
750.697815	193.700000
750.735291	191.600000
750.772644	193.800000
750.810120	192.600000
750.847595	195.100000
750.885010	188.300000
750.922485	202.900000
750.959961	191.100000
750.997375	200.800000
751.034851	195.500000
751.072266	197.300000
751.109680	186.700000
751.147156	199.100000
751.184570	196.900000
751.221985	192.800000
751.259460	183.100000
751.296875	192.500000
751.334290	194.900000
751.371765	198.200000
751.409180	196.300000
751.446594	198.200000
751.484070	196.700000
751.521423	194.900000
751.558899	195.300000
751.596375	201.500000
751.633728	201.700000
751.671204	207.100000
751.708618	188.800000
751.746033	192.800000
751.783447	188.000000
751.820801	189.400000
751.858276	196.900000
751.895691	191.300000
751.933105	192.800000
751.970520	188.300000
752.007935	192.200000
752.045349	197.300000
752.082764	193.000000
752.120178	190.600000
752.157532	191.200000
752.195007	190.300000
752.232422	197.600000
752.269775	197.100000
752.307190	197.600000
752.344543	188.700000
752.382019	193.100000
752.419434	190.900000
752.456787	195.200000
752.494202	195.900000
752.531616	194.500000
752.568970	197.800000
752.606384	195.000000
752.643799	194.000000
752.681152	202.200000
752.718567	195.000000
752.755981	185.200000
752.793335	195.400000
752.830750	183.800000
752.868164	199.000000
752.905518	188.800000
752.942932	196.500000
752.980225	188.700000
753.017639	198.500000
753.055054	192.300000
753.092407	197.100000
753.129822	199.100000
753.167175	204.000000
753.204529	191.700000
753.241943	190.200000
753.279358	187.200000
753.316650	198.200000
753.354065	194.700000
753.391479	197.000000
753.428772	202.100000
753.466187	198.300000
753.503479	186.900000
753.540894	192.300000
753.578308	187.500000
753.615601	187.300000
753.653015	192.900000
753.690369	193.900000
753.727722	187.700000
753.765076	186.700000
753.802490	187.700000
753.839783	185.400000
753.877136	189.700000
753.914551	211.200000
753.951843	187.800000
753.989258	198.100000
754.026611	193.800000
754.063904	197.300000
754.101257	188.000000
754.138611	185.600000
754.175964	192.400000
754.213318	205.500000
754.250610	185.400000
754.288025	190.700000
754.325378	186.500000
754.362671	199.500000
754.400024	189.900000
754.437378	202.200000
754.474670	203.100000
754.512085	191.000000
754.549438	193.700000
754.586731	190.400000
754.624084	191.500000
754.661438	188.300000
754.698730	200.900000
754.736084	191.900000
754.773376	191.800000
754.810730	196.400000
754.848083	191.700000
754.885315	196.800000
754.922668	186.300000
754.960022	187.600000
754.997314	198.700000
755.034668	194.400000
755.072021	196.000000
755.109253	191.000000
755.146606	201.700000
755.183960	191.600000
755.221252	204.200000
755.258545	199.500000
755.295898	201.900000
755.333191	201.100000
755.370544	198.200000
755.407776	194.600000
755.445129	198.200000
755.482422	199.400000
755.519714	192.300000
755.557068	186.900000
755.594360	187.200000
755.631653	198.600000
755.668945	204.700000
755.706299	198.600000
755.743530	208.600000
755.780884	205.000000
755.818176	202.700000
755.855408	200.500000
755.892761	200.100000
755.930054	196.600000
755.967346	198.400000
756.004639	200.600000
756.041870	198.700000
756.079224	201.200000
756.116516	194.300000
756.153748	201.500000
756.191040	206.600000
756.228394	200.900000
756.265625	194.300000
756.302917	197.400000
756.340210	196.000000
756.377441	203.500000
756.414795	204.900000
756.452087	199.100000
756.489319	191.800000
756.526611	201.400000
756.563843	201.000000
756.601135	210.000000
756.638428	207.000000
756.675659	199.700000
756.712952	203.900000
756.750244	204.100000
756.787476	200.200000
756.824768	208.500000
756.862061	198.300000
756.899292	248.400000
756.936584	203.400000
756.973816	212.500000
757.011047	214.900000
757.048340	203.500000
757.085632	201.600000
757.122864	219.100000
757.160156	198.600000
757.197327	206.700000
757.234619	207.200000
757.271912	203.500000
757.309082	207.500000
757.346375	201.600000
757.383667	209.100000
757.420837	206.300000
757.458130	204.800000
757.495422	202.700000
757.532593	206.000000
757.569885	199.000000
757.607117	200.200000
757.644348	207.400000
757.681580	216.900000
757.718811	192.900000
757.756042	203.700000
757.793335	203.100000
757.830505	207.100000
757.867798	201.000000
757.905029	201.300000
757.942200	208.300000
757.979492	201.800000
758.016724	204.300000
758.053894	202.900000
758.091187	224.900000
758.128418	206.500000
758.165588	204.200000
758.202820	217.500000
758.240112	209.600000
758.277283	217.700000
758.314514	208.400000
758.351685	205.300000
758.388916	217.500000
758.426147	215.500000
758.463379	218.200000
758.500610	212.700000
758.537842	208.400000
758.575012	216.100000
758.612244	204.600000
758.649475	224.600000
758.686646	202.800000
758.723877	218.500000
758.761108	217.700000
758.798279	209.900000
758.835510	212.100000
758.872742	219.400000
758.909851	212.600000
758.947083	216.500000
758.984253	214.200000
759.021484	218.700000
759.058716	215.100000
759.095886	218.000000
759.133057	212.100000
759.170288	217.200000
759.207458	208.100000
759.244690	225.100000
759.281860	222.000000
759.319031	215.100000
759.356262	211.400000
759.393433	212.200000
759.430603	212.400000
759.467773	213.700000
759.505005	220.500000
759.542175	220.900000
759.579346	213.500000
759.616516	216.200000
759.653687	215.700000
759.690918	209.200000
759.728027	216.100000
759.765259	216.300000
759.802429	217.300000
759.839539	219.000000
759.876770	222.500000
759.913940	226.400000
759.951111	217.200000
759.988281	215.300000
760.025452	214.300000
760.062561	211.300000
760.099792	226.200000
760.136963	221.300000
760.174072	216.900000
760.211243	211.300000
760.248413	213.600000
760.285583	213.600000
760.322754	230.000000
760.359863	224.800000
760.397034	226.600000
760.434204	216.800000
760.471375	219.600000
760.508545	216.700000
760.545715	219.300000
760.582825	212.400000
760.619995	226.300000
760.657166	212.400000
760.694275	226.400000
760.731445	220.500000
760.768555	223.400000
760.805664	223.500000
760.842834	223.600000
760.879944	224.100000
760.917114	224.800000
760.954285	220.900000
760.991394	217.400000
761.028564	228.200000
761.065674	226.800000
761.102783	219.700000
761.139954	230.400000
761.177124	226.200000
761.214172	233.600000
761.251343	223.100000
761.288452	225.700000
761.325562	229.100000
761.362732	223.800000
761.399841	225.400000
761.436951	229.800000
761.474121	224.400000
761.511169	229.100000
761.548340	232.500000
761.585449	232.100000
761.622559	231.900000
761.659668	230.700000
761.696838	238.900000
761.733887	234.500000
761.771057	229.900000
761.808167	231.700000
761.845276	238.000000
761.882385	244.900000
761.919434	234.700000
761.956604	256.000000
761.993713	232.600000
762.030762	241.900000
762.067871	236.800000
762.105042	235.600000
762.142090	244.200000
762.179199	240.800000
762.216309	244.700000
762.253418	255.100000
762.290527	250.600000
762.327637	246.100000
762.364685	235.100000
762.401794	245.500000
762.438904	244.200000
762.475952	237.400000
762.513062	238.500000
762.550110	236.800000
762.587219	255.300000
762.624329	252.400000
762.661377	248.600000
762.698486	245.100000
762.735596	246.900000
762.772644	238.500000
762.809753	239.300000
762.846863	245.100000
762.883911	251.600000
762.921021	250.900000
762.958069	249.000000
762.995117	255.700000
763.032227	258.300000
763.069336	247.100000
763.106323	244.300000
763.143433	241.800000
763.180481	252.200000
763.217590	251.800000
763.254639	248.900000
763.291687	251.800000
763.328735	258.900000
763.365845	251.800000
763.402893	248.800000
763.439941	255.000000
763.477051	257.700000
763.514038	259.400000
763.551147	251.400000
763.588196	257.200000
763.625244	253.900000
763.662292	261.900000
763.699402	265.200000
763.736389	262.500000
763.773499	271.000000
763.810486	263.700000
763.847534	260.000000
763.884644	264.800000
763.921631	259.500000
763.958679	272.500000
763.995728	258.600000
764.032776	272.000000
764.069824	256.300000
764.106873	266.800000
764.143860	271.600000
764.180969	264.100000
764.218018	273.500000
764.255005	266.100000
764.292053	267.600000
764.329102	279.500000
764.366089	276.700000
764.403137	277.000000
764.440125	264.900000
764.477173	270.800000
764.514221	273.000000
764.551208	270.300000
764.588257	264.600000
764.625305	276.700000
764.662292	281.200000
764.699341	287.700000
764.736389	275.700000
764.773376	295.900000
764.810425	282.500000
764.847473	290.000000
764.884399	283.300000
764.921448	290.800000
764.958435	289.400000
764.995483	278.500000
765.032532	296.400000
765.069458	281.600000
765.106506	281.900000
765.143555	280.100000
765.180481	286.300000
765.217529	294.800000
765.254578	278.800000
765.291504	288.600000
765.328552	285.200000
765.365540	282.900000
765.402527	299.200000
765.439575	283.600000
765.476501	280.700000
765.513550	280.000000
765.550537	287.400000
765.587463	293.900000
765.624512	286.900000
765.661499	276.200000
765.698486	298.000000
765.735474	284.300000
765.772461	289.400000
765.809448	296.600000
765.846436	295.300000
765.883423	297.600000
765.920410	294.500000
765.957397	286.800000
765.994385	293.500000
766.031311	302.400000
766.068359	297.800000
766.105286	296.200000
766.142273	305.200000
766.179260	298.800000
766.216187	293.400000
766.253174	289.500000
766.290161	299.600000
766.327148	300.000000
766.364136	303.900000
766.401123	318.300000
766.438049	298.100000
766.475037	311.300000
766.512024	307.800000
766.548950	320.000000
766.585937	316.400000
766.622864	313.000000
766.659790	309.800000
766.696777	300.900000
766.733704	318.100000
766.770691	309.800000
766.807678	325.800000
766.844604	320.300000
766.881531	319.900000
766.918518	326.600000
766.955444	327.700000
766.992432	321.100000
767.029358	324.300000
767.066284	330.000000
767.103271	323.300000
767.140198	355.100000
767.177124	341.900000
767.214050	333.700000
767.251038	337.300000
767.287964	332.700000
767.324890	328.600000
767.361816	334.700000
767.398743	343.000000
767.435730	336.800000
767.472595	339.400000
767.509583	347.400000
767.546509	335.400000
767.583374	345.300000
767.620361	335.400000
767.657288	342.900000
767.694214	343.600000
767.731140	343.900000
767.768066	346.100000
767.804993	350.400000
767.841919	341.400000
767.878845	349.900000
767.915710	355.500000
767.952698	351.800000
767.989563	353.600000
768.026489	356.000000
