Model Number: SPM-001-M   
Serial Number: 10090201
Firmware Version: 004.17.6
Exposure Time: 500000.000000us
Data Taken on: 10-03-2021 11:57:45.968
Wavelength	Amplitude
733.770752	0.000000
733.808716	0.000000
733.846619	0.000000
733.884583	0.000000
733.922546	0.000000
733.960449	0.000000
733.998413	0.000000
734.036377	0.000000
734.074219	0.000000
734.112183	0.000000
734.150085	0.000000
734.188049	0.000000
734.226013	0.000000
734.263916	0.000000
734.301819	0.000000
734.339783	0.000000
734.377686	0.000000
734.415588	0.000000
734.453552	0.000000
734.491455	0.000000
734.529419	0.000000
734.567322	0.000000
734.605225	0.000000
734.643127	0.000000
734.681091	0.000000
734.718994	0.000000
734.756897	0.000000
734.794800	0.000000
734.832703	0.000000
734.870667	0.000000
734.908508	0.000000
734.946472	0.000000
734.984375	0.000000
735.022278	0.000000
735.060181	0.000000
735.098083	0.000000
735.135986	0.000000
735.173889	0.000000
735.211792	0.000000
735.249695	0.000000
735.287598	0.000000
735.325439	0.000000
735.363403	0.000000
735.401306	0.000000
735.439148	0.000000
735.477051	0.000000
735.515015	0.000000
735.552856	0.000000
735.590759	0.000000
735.628662	0.000000
735.666504	0.000000
735.704407	0.000000
735.742310	0.000000
735.780212	0.000000
735.818115	0.000000
735.856018	0.000000
735.893860	0.000000
735.931763	0.000000
735.969604	0.000000
736.007507	0.000000
736.045410	0.000000
736.083252	0.000000
736.121094	0.000000
736.158997	0.000000
736.196838	0.000000
736.234741	0.000000
736.272644	0.000000
736.310486	0.000000
736.348389	0.000000
736.386230	0.000000
736.424072	0.000000
736.461975	0.000000
736.499878	0.000000
736.537720	0.000000
736.575562	0.000000
736.613403	0.000000
736.651306	0.000000
736.689148	0.000000
736.726990	0.000000
736.764893	0.000000
736.802734	0.000000
736.840576	0.000000
736.878418	0.000000
736.916321	0.000000
736.954102	0.000000
736.992004	0.000000
737.029846	0.000000
737.067688	0.000000
737.105530	0.000000
737.143372	0.000000
737.181213	0.000000
737.219116	0.000000
737.256897	0.000000
737.294739	0.000000
737.332642	0.000000
737.370422	0.000000
737.408325	0.000000
737.446167	0.000000
737.483948	0.000000
737.521790	0.000000
737.559692	0.000000
737.597473	0.000000
737.635315	0.000000
737.673157	0.000000
737.710999	0.000000
737.748840	0.000000
737.786621	0.000000
737.824463	0.000000
737.862305	0.000000
737.900085	0.000000
737.937927	0.000000
737.975769	0.000000
738.013550	0.000000
738.051392	0.000000
738.089233	0.000000
738.127014	0.000000
738.164856	0.000000
738.202698	0.000000
738.240479	0.000000
738.278320	0.000000
738.316162	0.000000
738.353943	0.000000
738.391785	0.000000
738.429565	0.000000
738.467407	0.000000
738.505188	0.000000
738.542969	0.000000
738.580811	0.000000
738.618652	0.000000
738.656372	0.000000
738.694214	0.000000
738.732056	0.000000
738.769836	0.000000
738.807617	0.000000
738.845459	0.000000
738.883240	0.000000
738.921021	0.000000
738.958862	0.000000
738.996582	0.000000
739.034424	0.000000
739.072205	0.000000
739.109985	0.000000
739.147827	0.000000
739.185547	0.000000
739.223389	0.000000
739.261169	0.000000
739.298889	0.000000
739.336731	0.000000
739.374512	0.000000
739.412292	0.000000
739.450073	0.000000
739.487854	0.000000
739.525635	0.000000
739.563416	0.000000
739.601135	0.000000
739.638977	0.000000
739.676758	0.000000
739.714478	0.000000
739.752258	0.000000
739.790100	0.000000
739.827820	0.000000
739.865601	0.000000
739.903381	0.000000
739.941101	0.000000
739.978882	197.200000
740.016724	192.500000
740.054443	198.000000
740.092224	190.400000
740.130005	188.800000
740.167725	191.300000
740.205505	188.700000
740.243225	200.700000
740.281006	195.200000
740.318787	186.700000
740.356506	198.700000
740.394287	199.100000
740.432068	188.500000
740.469727	187.800000
740.507507	198.100000
740.545288	193.200000
740.583008	196.500000
740.620789	194.400000
740.658569	185.100000
740.696228	194.000000
740.734009	200.200000
740.771790	182.000000
740.809509	196.900000
740.847229	190.600000
740.884949	191.800000
740.922729	187.000000
740.960449	190.500000
740.998169	188.500000
741.035950	188.000000
741.073669	195.700000
741.111389	194.600000
741.149170	203.100000
741.186890	203.300000
741.224609	199.300000
741.262329	195.300000
741.300110	204.800000
741.337769	188.400000
741.375549	187.700000
741.413208	194.900000
741.450989	189.300000
741.488708	191.600000
741.526367	191.300000
741.564148	197.900000
741.601868	199.200000
741.639526	193.300000
741.677307	194.600000
741.715027	196.000000
741.752686	189.100000
741.790466	202.200000
741.828186	198.000000
741.865845	188.700000
741.903564	184.700000
741.941345	193.000000
741.979004	189.400000
742.016724	195.600000
742.054382	193.900000
742.092102	199.800000
742.129822	184.900000
742.167480	190.800000
742.205200	192.200000
742.242920	194.600000
742.280640	197.700000
742.318359	189.600000
742.356079	190.800000
742.393738	197.800000
742.431396	193.400000
742.469116	197.300000
742.506775	182.700000
742.544495	197.500000
742.582214	198.500000
742.619873	194.500000
742.657593	199.800000
742.695251	198.900000
742.732971	192.600000
742.770630	195.000000
742.808289	191.900000
742.846008	194.500000
742.883728	195.800000
742.921326	194.800000
742.959045	191.300000
742.996765	193.100000
743.034424	193.200000
743.072083	191.200000
743.109802	193.400000
743.147400	187.500000
743.185120	195.500000
743.222839	191.800000
743.260437	199.500000
743.298157	196.600000
743.335754	185.100000
743.373474	191.400000
743.411133	185.300000
743.448792	193.000000
743.486450	193.200000
743.524170	184.900000
743.561768	193.500000
743.599487	200.300000
743.637146	204.000000
743.674744	191.600000
743.712463	191.200000
743.750122	193.900000
743.787720	194.800000
743.825439	190.400000
743.863037	192.000000
743.900696	192.900000
743.938416	218.300000
743.976013	192.000000
744.013672	202.700000
744.051331	198.100000
744.088928	204.100000
744.126587	201.400000
744.164307	195.400000
744.201904	191.500000
744.239563	198.400000
744.277222	194.900000
744.314819	194.600000
744.352478	200.100000
744.390137	195.600000
744.427734	196.600000
744.465393	191.800000
744.502991	188.700000
744.540649	197.600000
744.578308	195.200000
744.615906	189.000000
744.653564	183.000000
744.691223	196.400000
744.728821	185.100000
744.766418	193.700000
744.804077	195.600000
744.841675	190.700000
744.879333	185.500000
744.916992	192.800000
744.954529	190.000000
744.992187	199.300000
745.029785	190.600000
745.067444	191.100000
745.105042	194.900000
745.142639	196.700000
745.180298	201.900000
745.217896	192.400000
745.255493	193.100000
745.293152	198.100000
745.330750	198.100000
745.368347	202.900000
745.405945	196.800000
745.443604	194.000000
745.481140	197.000000
745.518799	191.200000
745.556396	198.100000
745.593994	198.900000
745.631592	192.700000
745.669189	188.800000
745.706787	196.300000
745.744385	189.200000
745.781982	196.500000
745.819580	188.900000
745.857178	191.600000
745.894775	193.600000
745.932373	195.600000
745.969971	194.600000
746.007568	186.400000
746.045166	203.700000
746.082764	200.200000
746.120300	196.800000
746.157898	197.900000
746.195557	193.000000
746.233093	188.600000
746.270691	197.200000
746.308228	197.000000
746.345825	199.500000
746.383423	198.000000
746.420959	188.000000
746.458557	191.400000
746.496155	191.200000
746.533691	193.100000
746.571289	188.800000
746.608887	194.100000
746.646423	194.600000
746.684021	196.200000
746.721619	190.700000
746.759155	196.100000
746.796753	187.000000
746.834351	187.500000
746.871826	190.500000
746.909424	200.300000
746.946960	195.800000
746.984558	193.500000
747.022156	191.400000
747.059631	200.200000
747.097229	196.800000
747.134827	192.400000
747.172363	201.000000
747.209900	195.200000
747.247498	190.400000
747.285034	201.700000
747.322571	201.600000
747.360168	191.500000
747.397644	187.800000
747.435242	197.800000
747.472778	200.600000
747.510315	190.100000
747.547913	192.400000
747.585388	201.400000
747.622925	194.400000
747.660522	184.400000
747.697998	191.800000
747.735596	194.000000
747.773132	190.800000
747.810669	194.400000
747.848206	199.600000
747.885742	187.900000
747.923279	190.100000
747.960815	195.800000
747.998352	196.300000
748.035889	198.900000
748.073425	201.100000
748.110901	189.900000
748.148437	191.300000
748.185974	194.000000
748.223511	205.600000
748.261047	196.700000
748.298584	197.200000
748.336060	193.900000
748.373596	196.500000
748.411133	213.000000
748.448608	190.000000
748.486145	198.100000
748.523682	202.400000
748.561218	199.600000
748.598755	196.000000
748.636292	198.100000
748.673706	192.700000
748.711243	200.600000
748.748718	195.100000
748.786255	193.900000
748.823792	193.700000
748.861267	189.400000
748.898804	197.300000
748.936340	195.500000
748.973816	191.700000
749.011292	200.000000
749.048828	196.100000
749.086304	196.500000
749.123840	205.700000
749.161316	188.800000
749.198792	205.200000
749.236328	200.800000
749.273743	193.900000
749.311279	193.600000
749.348816	195.300000
749.386230	196.100000
749.423767	182.000000
749.461304	197.200000
749.498718	196.100000
749.536255	202.900000
749.573730	206.600000
749.611206	200.000000
749.648682	192.900000
749.686218	194.800000
749.723633	198.900000
749.761169	194.200000
749.798645	189.800000
749.836060	195.100000
749.873596	191.800000
749.911011	195.900000
749.948547	201.000000
749.986023	196.200000
750.023437	193.000000
750.060913	188.200000
750.098450	188.400000
750.135864	193.400000
750.173340	194.100000
750.210815	200.000000
750.248291	188.800000
750.285767	194.500000
750.323242	201.600000
750.360657	196.900000
750.398132	188.900000
750.435608	198.300000
750.473022	189.800000
750.510498	188.900000
750.547974	189.500000
750.585449	192.100000
750.622925	184.300000
750.660339	203.800000
750.697815	194.000000
750.735291	193.500000
750.772644	195.000000
750.810120	194.700000
750.847595	196.500000
750.885010	189.300000
750.922485	203.500000
750.959961	193.000000
750.997375	202.000000
751.034851	198.600000
751.072266	198.600000
751.109680	186.400000
751.147156	200.000000
751.184570	197.000000
751.221985	196.200000
751.259460	185.100000
751.296875	194.800000
751.334290	194.800000
751.371765	200.100000
751.409180	196.800000
751.446594	200.800000
751.484070	196.200000
751.521423	197.900000
751.558899	195.700000
751.596375	203.100000
751.633728	201.600000
751.671204	209.200000
751.708618	190.000000
751.746033	197.100000
751.783447	187.600000
751.820801	192.000000
751.858276	197.000000
751.895691	194.800000
751.933105	192.000000
751.970520	190.300000
752.007935	191.600000
752.045349	197.900000
752.082764	193.900000
752.120178	192.400000
752.157532	190.800000
752.195007	192.000000
752.232422	197.500000
752.269775	200.200000
752.307190	198.000000
752.344543	189.800000
752.382019	193.400000
752.419434	192.200000
752.456787	196.100000
752.494202	197.600000
752.531616	196.200000
752.568970	198.600000
752.606384	194.900000
752.643799	196.100000
752.681152	203.900000
752.718567	197.100000
752.755981	186.800000
752.793335	196.300000
752.830750	186.200000
752.868164	200.000000
752.905518	190.900000
752.942932	198.000000
752.980225	188.500000
753.017639	199.200000
753.055054	194.000000
753.092407	197.600000
753.129822	200.100000
753.167175	204.300000
753.204529	194.700000
753.241943	189.800000
753.279358	189.400000
753.316650	198.300000
753.354065	198.700000
753.391479	199.700000
753.428772	204.500000
753.466187	199.500000
753.503479	190.300000
753.540894	192.900000
753.578308	190.000000
753.615601	189.100000
753.653015	195.300000
753.690369	192.200000
753.727722	190.500000
753.765076	188.100000
753.802490	188.800000
753.839783	186.500000
753.877136	192.400000
753.914551	210.300000
753.951843	188.500000
753.989258	197.900000
754.026611	196.600000
754.063904	196.300000
754.101257	190.500000
754.138611	187.200000
754.175964	196.200000
754.213318	206.900000
754.250610	187.400000
754.288025	192.000000
754.325378	188.200000
754.362671	200.100000
754.400024	192.200000
754.437378	204.800000
754.474670	204.400000
754.512085	192.400000
754.549438	194.600000
754.586731	193.000000
754.624084	192.100000
754.661438	189.600000
754.698730	202.200000
754.736084	191.400000
754.773376	191.900000
754.810730	199.400000
754.848083	191.900000
754.885315	198.700000
754.922668	186.900000
754.960022	189.500000
754.997314	199.900000
755.034668	196.800000
755.072021	195.900000
755.109253	194.900000
755.146606	203.300000
755.183960	195.400000
755.221252	204.400000
755.258545	201.100000
755.295898	203.200000
755.333191	203.900000
755.370544	199.900000
755.407776	197.300000
755.445129	196.200000
755.482422	201.200000
755.519714	193.400000
755.557068	191.400000
755.594360	187.300000
755.631653	202.900000
755.668945	205.700000
755.706299	199.900000
755.743530	209.800000
755.780884	206.000000
755.818176	203.900000
755.855408	202.400000
755.892761	201.000000
755.930054	197.900000
755.967346	201.400000
756.004639	201.800000
756.041870	199.600000
756.079224	203.700000
756.116516	195.200000
756.153748	203.500000
756.191040	207.800000
756.228394	202.000000
756.265625	196.000000
756.302917	200.800000
756.340210	196.900000
756.377441	204.800000
756.414795	207.700000
756.452087	201.400000
756.489319	195.100000
756.526611	202.700000
756.563843	202.800000
756.601135	211.600000
756.638428	210.900000
756.675659	200.200000
756.712952	207.300000
756.750244	203.700000
756.787476	202.900000
756.824768	208.600000
756.862061	200.900000
756.899292	248.300000
756.936584	206.000000
756.973816	213.700000
757.011047	216.400000
757.048340	203.800000
757.085632	204.100000
757.122864	219.200000
757.160156	203.300000
757.197327	206.200000
757.234619	207.700000
757.271912	203.500000
757.309082	209.200000
757.346375	201.400000
757.383667	211.600000
757.420837	205.500000
757.458130	206.900000
757.495422	203.000000
757.532593	207.700000
757.569885	198.000000
757.607117	201.400000
757.644348	207.700000
757.681580	219.000000
757.718811	194.700000
757.756042	206.900000
757.793335	204.800000
757.830505	213.300000
757.867798	204.800000
757.905029	204.200000
757.942200	208.100000
757.979492	203.200000
758.016724	207.200000
758.053894	204.700000
758.091187	226.200000
758.128418	207.500000
758.165588	208.300000
758.202820	220.700000
758.240112	211.100000
758.277283	220.100000
758.314514	211.900000
758.351685	207.500000
758.388916	220.100000
758.426147	216.900000
758.463379	219.500000
758.500610	213.600000
758.537842	212.200000
758.575012	218.300000
758.612244	206.500000
758.649475	224.500000
758.686646	205.200000
758.723877	218.300000
758.761108	220.700000
758.798279	211.100000
758.835510	215.000000
758.872742	218.100000
758.909851	215.700000
758.947083	215.100000
758.984253	214.700000
759.021484	218.100000
759.058716	218.300000
759.095886	217.400000
759.133057	211.800000
759.170288	217.000000
759.207458	210.700000
759.244690	226.700000
759.281860	224.000000
759.319031	213.900000
759.356262	212.900000
759.393433	213.900000
759.430603	214.100000
759.467773	215.600000
759.505005	222.300000
759.542175	220.900000
759.579346	215.200000
759.616516	218.000000
759.653687	218.000000
759.690918	212.900000
759.728027	217.300000
759.765259	218.100000
759.802429	218.200000
759.839539	219.000000
759.876770	223.400000
759.913940	227.600000
759.951111	217.900000
759.988281	218.800000
760.025452	214.400000
760.062561	216.300000
760.099792	226.500000
760.136963	221.900000
760.174072	217.400000
760.211243	214.000000
760.248413	215.400000
760.285583	215.600000
760.322754	230.400000
760.359863	226.200000
760.397034	226.500000
760.434204	221.600000
760.471375	220.500000
760.508545	218.500000
760.545715	219.200000
760.582825	216.200000
760.619995	226.500000
760.657166	214.400000
760.694275	229.000000
760.731445	224.800000
760.768555	224.100000
760.805664	226.400000
760.842834	225.300000
760.879944	227.200000
760.917114	226.600000
760.954285	222.700000
760.991394	218.000000
761.028564	230.300000
761.065674	228.600000
761.102783	222.300000
761.139954	231.000000
761.177124	230.700000
761.214172	232.500000
761.251343	224.900000
761.288452	227.200000
761.325562	230.800000
761.362732	225.400000
761.399841	228.400000
761.436951	230.400000
761.474121	224.800000
761.511169	230.500000
761.548340	233.700000
761.585449	233.400000
761.622559	234.700000
761.659668	233.600000
761.696838	238.900000
761.733887	236.400000
761.771057	232.200000
761.808167	234.900000
761.845276	239.900000
761.882385	248.100000
761.919434	236.900000
761.956604	258.800000
761.993713	233.900000
762.030762	246.100000
762.067871	238.500000
762.105042	237.700000
762.142090	245.500000
762.179199	242.200000
762.216309	244.000000
762.253418	259.000000
762.290527	250.000000
762.327637	248.500000
762.364685	235.100000
762.401794	246.700000
762.438904	245.300000
762.475952	241.000000
762.513062	240.100000
762.550110	240.100000
762.587219	256.200000
762.624329	255.300000
762.661377	248.600000
762.698486	248.800000
762.735596	248.200000
762.772644	242.500000
762.809753	237.900000
762.846863	245.800000
762.883911	252.600000
762.921021	250.900000
762.958069	250.100000
762.995117	258.300000
763.032227	259.200000
763.069336	249.000000
763.106323	248.200000
763.143433	244.700000
763.180481	254.700000
763.217590	253.100000
763.254639	250.800000
763.291687	251.100000
763.328735	261.000000
763.365845	252.600000
763.402893	253.100000
763.439941	256.500000
763.477051	260.300000
763.514038	261.900000
763.551147	255.400000
763.588196	256.400000
763.625244	257.000000
763.662292	264.200000
763.699402	269.400000
763.736389	263.000000
763.773499	274.100000
763.810486	265.500000
763.847534	264.500000
763.884644	265.900000
763.921631	261.700000
763.958679	274.900000
763.995728	262.700000
764.032776	273.600000
764.069824	260.300000
764.106873	268.700000
764.143860	277.200000
764.180969	266.600000
764.218018	277.600000
764.255005	264.800000
764.292053	269.900000
764.329102	281.400000
764.366089	279.600000
764.403137	278.900000
764.440125	268.500000
764.477173	271.200000
764.514221	273.600000
764.551208	271.800000
764.588257	268.300000
764.625305	280.100000
764.662292	284.900000
764.699341	289.700000
764.736389	280.700000
764.773376	295.900000
764.810425	282.700000
764.847473	291.000000
764.884399	285.500000
764.921448	292.900000
764.958435	291.300000
764.995483	282.600000
765.032532	297.700000
765.069458	284.100000
765.106506	284.500000
765.143555	283.400000
765.180481	286.800000
765.217529	296.800000
765.254578	280.400000
765.291504	294.900000
765.328552	287.000000
765.365540	285.000000
765.402527	298.700000
765.439575	287.800000
765.476501	281.400000
765.513550	282.800000
765.550537	288.700000
765.587463	297.000000
765.624512	287.900000
765.661499	282.300000
765.698486	297.600000
765.735474	287.800000
765.772461	289.700000
765.809448	298.700000
765.846436	293.800000
765.883423	301.500000
765.920410	293.900000
765.957397	289.800000
765.994385	295.300000
766.031311	305.600000
766.068359	299.000000
766.105286	299.300000
766.142273	305.000000
766.179260	301.600000
766.216187	294.700000
766.253174	291.300000
766.290161	299.900000
766.327148	304.300000
766.364136	306.300000
766.401123	320.700000
766.438049	300.700000
766.475037	314.600000
766.512024	308.900000
766.548950	323.400000
766.585937	318.500000
766.622864	313.900000
766.659790	314.100000
766.696777	303.800000
766.733704	319.500000
766.770691	312.000000
766.807678	328.000000
766.844604	321.700000
766.881531	323.400000
766.918518	328.100000
766.955444	333.100000
766.992432	323.400000
767.029358	328.600000
767.066284	331.500000
767.103271	330.300000
767.140198	358.200000
767.177124	345.700000
767.214050	334.800000
767.251038	338.500000
767.287964	334.600000
767.324890	332.800000
767.361816	338.800000
767.398743	346.700000
767.435730	339.800000
767.472595	344.900000
767.509583	349.100000
767.546509	338.000000
767.583374	345.600000
767.620361	338.700000
767.657288	344.800000
767.694214	346.500000
767.731140	344.900000
767.768066	347.000000
767.804993	351.800000
767.841919	341.400000
767.878845	354.500000
767.915710	359.600000
767.952698	352.900000
767.989563	356.600000
768.026489	356.400000
