Model Number: SPM-001-M   
Serial Number: 10090201
Firmware Version: 004.17.6
Exposure Time: 500000.000000us
Data Taken on: 10-03-2021 12:28:28.957
Wavelength	Amplitude
733.770752	0.000000
733.808716	0.000000
733.846619	0.000000
733.884583	0.000000
733.922546	0.000000
733.960449	0.000000
733.998413	0.000000
734.036377	0.000000
734.074219	0.000000
734.112183	0.000000
734.150085	0.000000
734.188049	0.000000
734.226013	0.000000
734.263916	0.000000
734.301819	0.000000
734.339783	0.000000
734.377686	0.000000
734.415588	0.000000
734.453552	0.000000
734.491455	0.000000
734.529419	0.000000
734.567322	0.000000
734.605225	0.000000
734.643127	0.000000
734.681091	0.000000
734.718994	0.000000
734.756897	0.000000
734.794800	0.000000
734.832703	0.000000
734.870667	0.000000
734.908508	0.000000
734.946472	0.000000
734.984375	0.000000
735.022278	0.000000
735.060181	0.000000
735.098083	0.000000
735.135986	0.000000
735.173889	0.000000
735.211792	0.000000
735.249695	0.000000
735.287598	0.000000
735.325439	0.000000
735.363403	0.000000
735.401306	0.000000
735.439148	0.000000
735.477051	0.000000
735.515015	0.000000
735.552856	0.000000
735.590759	0.000000
735.628662	0.000000
735.666504	0.000000
735.704407	0.000000
735.742310	0.000000
735.780212	0.000000
735.818115	0.000000
735.856018	0.000000
735.893860	0.000000
735.931763	0.000000
735.969604	0.000000
736.007507	0.000000
736.045410	0.000000
736.083252	0.000000
736.121094	0.000000
736.158997	0.000000
736.196838	0.000000
736.234741	0.000000
736.272644	0.000000
736.310486	0.000000
736.348389	0.000000
736.386230	0.000000
736.424072	0.000000
736.461975	0.000000
736.499878	0.000000
736.537720	0.000000
736.575562	0.000000
736.613403	0.000000
736.651306	0.000000
736.689148	0.000000
736.726990	0.000000
736.764893	0.000000
736.802734	0.000000
736.840576	0.000000
736.878418	0.000000
736.916321	0.000000
736.954102	0.000000
736.992004	0.000000
737.029846	0.000000
737.067688	0.000000
737.105530	0.000000
737.143372	0.000000
737.181213	0.000000
737.219116	0.000000
737.256897	0.000000
737.294739	0.000000
737.332642	0.000000
737.370422	0.000000
737.408325	0.000000
737.446167	0.000000
737.483948	0.000000
737.521790	0.000000
737.559692	0.000000
737.597473	0.000000
737.635315	0.000000
737.673157	0.000000
737.710999	0.000000
737.748840	0.000000
737.786621	0.000000
737.824463	0.000000
737.862305	0.000000
737.900085	0.000000
737.937927	0.000000
737.975769	0.000000
738.013550	0.000000
738.051392	0.000000
738.089233	0.000000
738.127014	0.000000
738.164856	0.000000
738.202698	0.000000
738.240479	0.000000
738.278320	0.000000
738.316162	0.000000
738.353943	0.000000
738.391785	0.000000
738.429565	0.000000
738.467407	0.000000
738.505188	0.000000
738.542969	0.000000
738.580811	0.000000
738.618652	0.000000
738.656372	0.000000
738.694214	0.000000
738.732056	0.000000
738.769836	0.000000
738.807617	0.000000
738.845459	0.000000
738.883240	0.000000
738.921021	0.000000
738.958862	0.000000
738.996582	0.000000
739.034424	0.000000
739.072205	0.000000
739.109985	0.000000
739.147827	0.000000
739.185547	0.000000
739.223389	0.000000
739.261169	0.000000
739.298889	0.000000
739.336731	0.000000
739.374512	0.000000
739.412292	0.000000
739.450073	0.000000
739.487854	0.000000
739.525635	0.000000
739.563416	0.000000
739.601135	0.000000
739.638977	0.000000
739.676758	0.000000
739.714478	0.000000
739.752258	0.000000
739.790100	0.000000
739.827820	0.000000
739.865601	0.000000
739.903381	0.000000
739.941101	0.000000
739.978882	195.800000
740.016724	190.200000
740.054443	197.100000
740.092224	188.900000
740.130005	188.700000
740.167725	188.900000
740.205505	188.200000
740.243225	198.700000
740.281006	192.200000
740.318787	184.100000
740.356506	198.400000
740.394287	197.400000
740.432068	188.200000
740.469727	185.000000
740.507507	196.800000
740.545288	191.900000
740.583008	194.700000
740.620789	192.600000
740.658569	185.200000
740.696228	191.800000
740.734009	198.400000
740.771790	180.400000
740.809509	195.600000
740.847229	187.000000
740.884949	189.100000
740.922729	184.000000
740.960449	189.400000
740.998169	186.800000
741.035950	187.400000
741.073669	194.500000
741.111389	192.300000
741.149170	202.100000
741.186890	204.100000
741.224609	195.800000
741.262329	192.900000
741.300110	202.300000
741.337769	187.700000
741.375549	186.200000
741.413208	193.000000
741.450989	188.400000
741.488708	188.700000
741.526367	190.300000
741.564148	196.300000
741.601868	196.400000
741.639526	191.700000
741.677307	193.300000
741.715027	192.800000
741.752686	189.100000
741.790466	200.200000
741.828186	195.700000
741.865845	187.100000
741.903564	183.300000
741.941345	191.400000
741.979004	190.300000
742.016724	194.200000
742.054382	191.600000
742.092102	197.400000
742.129822	184.500000
742.167480	189.100000
742.205200	189.500000
742.242920	192.700000
742.280640	196.200000
742.318359	187.300000
742.356079	189.700000
742.393738	194.500000
742.431396	192.000000
742.469116	194.200000
742.506775	181.700000
742.544495	194.200000
742.582214	194.600000
742.619873	190.900000
742.657593	198.000000
742.695251	196.400000
742.732971	190.500000
742.770630	193.900000
742.808289	192.000000
742.846008	190.800000
742.883728	194.200000
742.921326	191.600000
742.959045	188.200000
742.996765	192.500000
743.034424	191.000000
743.072083	189.800000
743.109802	191.600000
743.147400	186.100000
743.185120	193.200000
743.222839	191.700000
743.260437	197.400000
743.298157	193.300000
743.335754	183.700000
743.373474	190.200000
743.411133	183.500000
743.448792	192.600000
743.486450	190.300000
743.524170	184.000000
743.561768	192.800000
743.599487	198.200000
743.637146	203.800000
743.674744	191.100000
743.712463	189.000000
743.750122	192.800000
743.787720	193.900000
743.825439	189.300000
743.863037	189.200000
743.900696	191.600000
743.938416	216.500000
743.976013	190.300000
744.013672	199.800000
744.051331	195.300000
744.088928	200.200000
744.126587	198.500000
744.164307	192.700000
744.201904	189.200000
744.239563	194.600000
744.277222	194.600000
744.314819	190.900000
744.352478	199.900000
744.390137	193.300000
744.427734	194.100000
744.465393	188.000000
744.502991	187.700000
744.540649	195.500000
744.578308	194.400000
744.615906	186.900000
744.653564	181.800000
744.691223	196.800000
744.728821	184.900000
744.766418	191.500000
744.804077	194.000000
744.841675	190.100000
744.879333	184.600000
744.916992	191.000000
744.954529	188.400000
744.992187	197.200000
745.029785	189.900000
745.067444	188.600000
745.105042	192.500000
745.142639	195.700000
745.180298	201.100000
745.217896	190.300000
745.255493	189.700000
745.293152	197.000000
745.330750	195.900000
745.368347	201.200000
745.405945	194.900000
745.443604	192.100000
745.481140	196.400000
745.518799	190.300000
745.556396	195.400000
745.593994	195.900000
745.631592	190.900000
745.669189	186.200000
745.706787	193.200000
745.744385	188.300000
745.781982	192.600000
745.819580	190.000000
745.857178	190.300000
745.894775	193.300000
745.932373	191.800000
745.969971	193.400000
746.007568	183.000000
746.045166	200.800000
746.082764	197.000000
746.120300	195.000000
746.157898	195.200000
746.195557	192.700000
746.233093	186.200000
746.270691	195.100000
746.308228	193.100000
746.345825	197.000000
746.383423	195.800000
746.420959	187.400000
746.458557	189.100000
746.496155	189.000000
746.533691	191.400000
746.571289	185.600000
746.608887	192.300000
746.646423	193.600000
746.684021	192.600000
746.721619	190.000000
746.759155	193.600000
746.796753	185.200000
746.834351	186.400000
746.871826	188.900000
746.909424	199.900000
746.946960	193.500000
746.984558	190.300000
747.022156	190.600000
747.059631	200.900000
747.097229	194.000000
747.134827	190.500000
747.172363	199.800000
747.209900	194.200000
747.247498	186.400000
747.285034	199.300000
747.322571	199.600000
747.360168	191.800000
747.397644	185.800000
747.435242	195.400000
747.472778	199.700000
747.510315	189.700000
747.547913	190.000000
747.585388	199.100000
747.622925	191.100000
747.660522	183.000000
747.697998	188.000000
747.735596	190.900000
747.773132	189.100000
747.810669	191.700000
747.848206	195.800000
747.885742	186.600000
747.923279	185.600000
747.960815	193.900000
747.998352	192.100000
748.035889	196.400000
748.073425	197.600000
748.110901	188.700000
748.148437	188.000000
748.185974	192.800000
748.223511	202.100000
748.261047	194.000000
748.298584	194.000000
748.336060	192.200000
748.373596	194.100000
748.411133	210.100000
748.448608	188.900000
748.486145	196.400000
748.523682	198.700000
748.561218	198.300000
748.598755	193.400000
748.636292	194.800000
748.673706	189.700000
748.711243	198.100000
748.748718	194.400000
748.786255	191.400000
748.823792	191.700000
748.861267	186.600000
748.898804	194.800000
748.936340	194.700000
748.973816	190.800000
749.011292	197.200000
749.048828	193.800000
749.086304	194.800000
749.123840	204.200000
749.161316	187.500000
749.198792	203.200000
749.236328	198.200000
749.273743	193.400000
749.311279	190.800000
749.348816	194.700000
749.386230	193.000000
749.423767	180.600000
749.461304	194.800000
749.498718	194.100000
749.536255	200.500000
749.573730	204.200000
749.611206	197.200000
749.648682	191.000000
749.686218	191.400000
749.723633	197.300000
749.761169	190.100000
749.798645	188.200000
749.836060	190.000000
749.873596	189.700000
749.911011	191.400000
749.948547	199.200000
749.986023	191.100000
750.023437	192.300000
750.060913	185.900000
750.098450	185.900000
750.135864	192.300000
750.173340	193.000000
750.210815	197.500000
750.248291	186.000000
750.285767	192.900000
750.323242	198.700000
750.360657	194.900000
750.398132	186.300000
750.435608	196.900000
750.473022	187.900000
750.510498	187.700000
750.547974	188.200000
750.585449	191.500000
750.622925	180.200000
750.660339	203.300000
750.697815	191.900000
750.735291	191.700000
750.772644	192.400000
750.810120	194.000000
750.847595	194.000000
750.885010	187.800000
750.922485	200.500000
750.959961	191.900000
750.997375	198.800000
751.034851	196.300000
751.072266	198.700000
751.109680	184.900000
751.147156	198.400000
751.184570	195.600000
751.221985	193.500000
751.259460	182.800000
751.296875	191.800000
751.334290	193.800000
751.371765	197.500000
751.409180	196.900000
751.446594	198.600000
751.484070	194.900000
751.521423	194.900000
751.558899	194.100000
751.596375	199.600000
751.633728	198.800000
751.671204	205.700000
751.708618	187.500000
751.746033	192.800000
751.783447	186.000000
751.820801	188.600000
751.858276	194.900000
751.895691	191.400000
751.933105	190.100000
751.970520	187.400000
752.007935	189.000000
752.045349	196.700000
752.082764	191.200000
752.120178	191.900000
752.157532	187.800000
752.195007	190.100000
752.232422	195.200000
752.269775	198.200000
752.307190	194.900000
752.344543	189.100000
752.382019	191.000000
752.419434	191.200000
752.456787	194.500000
752.494202	197.400000
752.531616	194.100000
752.568970	198.300000
752.606384	192.400000
752.643799	194.200000
752.681152	199.700000
752.718567	195.500000
752.755981	184.500000
752.793335	196.500000
752.830750	183.600000
752.868164	199.000000
752.905518	186.500000
752.942932	195.700000
752.980225	186.500000
753.017639	197.200000
753.055054	190.200000
753.092407	195.600000
753.129822	198.700000
753.167175	202.800000
753.204529	192.200000
753.241943	189.800000
753.279358	186.400000
753.316650	196.500000
753.354065	194.300000
753.391479	198.000000
753.428772	202.500000
753.466187	196.600000
753.503479	186.200000
753.540894	192.000000
753.578308	186.800000
753.615601	187.600000
753.653015	191.900000
753.690369	190.800000
753.727722	186.600000
753.765076	186.500000
753.802490	188.100000
753.839783	183.600000
753.877136	190.500000
753.914551	206.400000
753.951843	187.800000
753.989258	195.100000
754.026611	195.100000
754.063904	195.700000
754.101257	188.700000
754.138611	183.600000
754.175964	193.700000
754.213318	203.800000
754.250610	186.400000
754.288025	189.200000
754.325378	187.200000
754.362671	198.800000
754.400024	191.300000
754.437378	201.400000
754.474670	203.000000
754.512085	188.900000
754.549438	192.700000
754.586731	190.500000
754.624084	192.600000
754.661438	187.000000
754.698730	200.200000
754.736084	189.100000
754.773376	191.600000
754.810730	194.500000
754.848083	191.200000
754.885315	197.900000
754.922668	184.500000
754.960022	187.200000
754.997314	198.300000
755.034668	193.300000
755.072021	194.800000
755.109253	191.200000
755.146606	201.500000
755.183960	191.100000
755.221252	202.900000
755.258545	198.400000
755.295898	200.300000
755.333191	201.800000
755.370544	197.800000
755.407776	193.900000
755.445129	194.800000
755.482422	200.300000
755.519714	191.800000
755.557068	187.200000
755.594360	184.300000
755.631653	199.500000
755.668945	204.700000
755.706299	197.600000
755.743530	207.400000
755.780884	203.600000
755.818176	201.000000
755.855408	201.800000
755.892761	198.200000
755.930054	197.500000
755.967346	198.500000
756.004639	202.600000
756.041870	196.900000
756.079224	202.600000
756.116516	192.700000
756.153748	201.900000
756.191040	204.400000
756.228394	200.800000
756.265625	193.900000
756.302917	199.600000
756.340210	194.900000
756.377441	204.600000
756.414795	205.800000
756.452087	199.700000
756.489319	192.100000
756.526611	201.700000
756.563843	198.900000
756.601135	210.300000
756.638428	207.500000
756.675659	198.700000
756.712952	203.300000
756.750244	204.200000
756.787476	200.600000
756.824768	207.900000
756.862061	197.700000
756.899292	247.800000
756.936584	205.700000
756.973816	212.700000
757.011047	213.600000
757.048340	202.600000
757.085632	201.800000
757.122864	217.800000
757.160156	199.900000
757.197327	205.200000
757.234619	207.200000
757.271912	201.700000
757.309082	209.200000
757.346375	199.800000
757.383667	209.400000
757.420837	204.200000
757.458130	205.900000
757.495422	202.300000
757.532593	206.300000
757.569885	196.200000
757.607117	200.700000
757.644348	205.200000
757.681580	217.700000
757.718811	193.500000
757.756042	204.400000
757.793335	202.800000
757.830505	208.300000
757.867798	201.600000
757.905029	203.200000
757.942200	208.400000
757.979492	202.400000
758.016724	203.200000
758.053894	202.600000
758.091187	223.000000
758.128418	207.200000
758.165588	205.000000
758.202820	218.700000
758.240112	206.800000
758.277283	218.300000
758.314514	207.700000
758.351685	205.400000
758.388916	216.800000
758.426147	216.300000
758.463379	217.300000
758.500610	211.800000
758.537842	209.100000
758.575012	216.500000
758.612244	203.700000
758.649475	223.100000
758.686646	202.000000
758.723877	216.100000
758.761108	217.800000
758.798279	209.800000
758.835510	212.600000
758.872742	217.000000
758.909851	212.100000
758.947083	214.500000
758.984253	213.900000
759.021484	217.200000
759.058716	217.200000
759.095886	216.800000
759.133057	212.300000
759.170288	214.600000
759.207458	209.100000
759.244690	225.800000
759.281860	224.700000
759.319031	212.400000
759.356262	211.800000
759.393433	212.200000
759.430603	212.900000
759.467773	212.000000
759.505005	220.200000
759.542175	219.200000
759.579346	213.500000
759.616516	214.400000
759.653687	217.200000
759.690918	210.600000
759.728027	216.400000
759.765259	215.100000
759.802429	219.200000
759.839539	216.600000
759.876770	221.100000
759.913940	225.600000
759.951111	216.400000
759.988281	217.000000
760.025452	214.600000
760.062561	212.600000
760.099792	228.000000
760.136963	221.400000
760.174072	216.700000
760.211243	210.700000
760.248413	213.200000
760.285583	213.400000
760.322754	228.700000
760.359863	223.800000
760.397034	225.100000
760.434204	217.100000
760.471375	217.900000
760.508545	217.800000
760.545715	218.900000
760.582825	214.500000
760.619995	225.800000
760.657166	213.000000
760.694275	225.000000
760.731445	222.100000
760.768555	224.000000
760.805664	224.200000
760.842834	223.200000
760.879944	223.500000
760.917114	224.900000
760.954285	223.000000
760.991394	217.200000
761.028564	228.000000
761.065674	226.400000
761.102783	219.300000
761.139954	229.600000
761.177124	228.900000
761.214172	230.500000
761.251343	223.600000
761.288452	225.900000
761.325562	229.900000
761.362732	222.000000
761.399841	225.800000
761.436951	228.300000
761.474121	225.000000
761.511169	228.700000
761.548340	234.500000
761.585449	232.600000
761.622559	235.200000
761.659668	232.500000
761.696838	238.800000
761.733887	233.200000
761.771057	231.700000
761.808167	231.700000
761.845276	239.100000
761.882385	247.500000
761.919434	236.500000
761.956604	254.300000
761.993713	232.600000
762.030762	244.200000
762.067871	238.800000
762.105042	235.300000
762.142090	244.200000
762.179199	239.500000
762.216309	243.000000
762.253418	254.300000
762.290527	249.500000
762.327637	247.200000
762.364685	234.800000
762.401794	244.900000
762.438904	244.300000
762.475952	238.500000
762.513062	237.000000
762.550110	238.400000
762.587219	255.000000
762.624329	252.500000
762.661377	247.400000
762.698486	247.100000
762.735596	246.300000
762.772644	239.200000
762.809753	236.700000
762.846863	246.100000
762.883911	250.500000
762.921021	249.300000
762.958069	247.800000
762.995117	256.800000
763.032227	258.200000
763.069336	250.400000
763.106323	243.900000
763.143433	242.800000
763.180481	252.000000
763.217590	253.700000
763.254639	248.600000
763.291687	251.900000
763.328735	258.100000
763.365845	251.400000
763.402893	249.700000
763.439941	254.800000
763.477051	258.100000
763.514038	259.400000
763.551147	252.700000
763.588196	256.100000
763.625244	253.900000
763.662292	263.000000
763.699402	267.100000
763.736389	262.700000
763.773499	271.100000
763.810486	265.000000
763.847534	260.500000
763.884644	265.400000
763.921631	260.900000
763.958679	272.200000
763.995728	260.300000
764.032776	270.300000
764.069824	257.200000
764.106873	266.100000
764.143860	274.200000
764.180969	265.200000
764.218018	275.000000
764.255005	266.100000
764.292053	268.100000
764.329102	278.400000
764.366089	280.500000
764.403137	277.200000
764.440125	267.300000
764.477173	271.600000
764.514221	273.400000
764.551208	271.200000
764.588257	266.900000
764.625305	278.600000
764.662292	284.100000
764.699341	287.100000
764.736389	279.100000
764.773376	296.100000
764.810425	283.400000
764.847473	289.000000
764.884399	284.100000
764.921448	292.400000
764.958435	291.000000
764.995483	278.900000
765.032532	297.200000
765.069458	280.300000
765.106506	283.200000
765.143555	280.100000
765.180481	286.900000
765.217529	294.900000
765.254578	279.900000
765.291504	291.600000
765.328552	286.600000
765.365540	283.400000
765.402527	299.900000
765.439575	285.400000
765.476501	280.800000
765.513550	281.000000
765.550537	288.300000
765.587463	295.300000
765.624512	285.800000
765.661499	280.200000
765.698486	297.300000
765.735474	286.700000
765.772461	290.200000
765.809448	296.700000
765.846436	296.000000
765.883423	299.600000
765.920410	295.500000
765.957397	291.200000
765.994385	297.300000
766.031311	305.500000
766.068359	297.000000
766.105286	297.900000
766.142273	306.000000
766.179260	301.500000
766.216187	293.000000
766.253174	291.200000
766.290161	302.100000
766.327148	304.800000
766.364136	303.800000
766.401123	321.500000
766.438049	299.200000
766.475037	313.000000
766.512024	308.300000
766.548950	326.200000
766.585937	317.600000
766.622864	315.700000
766.659790	312.600000
766.696777	303.700000
766.733704	320.500000
766.770691	311.100000
766.807678	325.700000
766.844604	321.900000
766.881531	321.800000
766.918518	329.800000
766.955444	329.800000
766.992432	323.200000
767.029358	326.000000
767.066284	329.800000
767.103271	328.500000
767.140198	357.400000
767.177124	346.600000
767.214050	336.900000
767.251038	336.900000
767.287964	334.400000
767.324890	329.900000
767.361816	337.100000
767.398743	344.700000
767.435730	338.300000
767.472595	342.800000
767.509583	349.900000
767.546509	336.500000
767.583374	345.000000
767.620361	339.400000
767.657288	345.300000
767.694214	345.100000
767.731140	344.700000
767.768066	346.400000
767.804993	353.600000
767.841919	342.700000
767.878845	350.800000
767.915710	360.500000
767.952698	354.300000
767.989563	357.300000
768.026489	357.800000
