Model Number: SPM-001-M   
Serial Number: 10090201
Firmware Version: 004.17.6
Exposure Time: 500000.000000us
Data Taken on: 10-03-2021 12:29:41.478
Wavelength	Amplitude
733.770752	0.000000
733.808716	0.000000
733.846619	0.000000
733.884583	0.000000
733.922546	0.000000
733.960449	0.000000
733.998413	0.000000
734.036377	0.000000
734.074219	0.000000
734.112183	0.000000
734.150085	0.000000
734.188049	0.000000
734.226013	0.000000
734.263916	0.000000
734.301819	0.000000
734.339783	0.000000
734.377686	0.000000
734.415588	0.000000
734.453552	0.000000
734.491455	0.000000
734.529419	0.000000
734.567322	0.000000
734.605225	0.000000
734.643127	0.000000
734.681091	0.000000
734.718994	0.000000
734.756897	0.000000
734.794800	0.000000
734.832703	0.000000
734.870667	0.000000
734.908508	0.000000
734.946472	0.000000
734.984375	0.000000
735.022278	0.000000
735.060181	0.000000
735.098083	0.000000
735.135986	0.000000
735.173889	0.000000
735.211792	0.000000
735.249695	0.000000
735.287598	0.000000
735.325439	0.000000
735.363403	0.000000
735.401306	0.000000
735.439148	0.000000
735.477051	0.000000
735.515015	0.000000
735.552856	0.000000
735.590759	0.000000
735.628662	0.000000
735.666504	0.000000
735.704407	0.000000
735.742310	0.000000
735.780212	0.000000
735.818115	0.000000
735.856018	0.000000
735.893860	0.000000
735.931763	0.000000
735.969604	0.000000
736.007507	0.000000
736.045410	0.000000
736.083252	0.000000
736.121094	0.000000
736.158997	0.000000
736.196838	0.000000
736.234741	0.000000
736.272644	0.000000
736.310486	0.000000
736.348389	0.000000
736.386230	0.000000
736.424072	0.000000
736.461975	0.000000
736.499878	0.000000
736.537720	0.000000
736.575562	0.000000
736.613403	0.000000
736.651306	0.000000
736.689148	0.000000
736.726990	0.000000
736.764893	0.000000
736.802734	0.000000
736.840576	0.000000
736.878418	0.000000
736.916321	0.000000
736.954102	0.000000
736.992004	0.000000
737.029846	0.000000
737.067688	0.000000
737.105530	0.000000
737.143372	0.000000
737.181213	0.000000
737.219116	0.000000
737.256897	0.000000
737.294739	0.000000
737.332642	0.000000
737.370422	0.000000
737.408325	0.000000
737.446167	0.000000
737.483948	0.000000
737.521790	0.000000
737.559692	0.000000
737.597473	0.000000
737.635315	0.000000
737.673157	0.000000
737.710999	0.000000
737.748840	0.000000
737.786621	0.000000
737.824463	0.000000
737.862305	0.000000
737.900085	0.000000
737.937927	0.000000
737.975769	0.000000
738.013550	0.000000
738.051392	0.000000
738.089233	0.000000
738.127014	0.000000
738.164856	0.000000
738.202698	0.000000
738.240479	0.000000
738.278320	0.000000
738.316162	0.000000
738.353943	0.000000
738.391785	0.000000
738.429565	0.000000
738.467407	0.000000
738.505188	0.000000
738.542969	0.000000
738.580811	0.000000
738.618652	0.000000
738.656372	0.000000
738.694214	0.000000
738.732056	0.000000
738.769836	0.000000
738.807617	0.000000
738.845459	0.000000
738.883240	0.000000
738.921021	0.000000
738.958862	0.000000
738.996582	0.000000
739.034424	0.000000
739.072205	0.000000
739.109985	0.000000
739.147827	0.000000
739.185547	0.000000
739.223389	0.000000
739.261169	0.000000
739.298889	0.000000
739.336731	0.000000
739.374512	0.000000
739.412292	0.000000
739.450073	0.000000
739.487854	0.000000
739.525635	0.000000
739.563416	0.000000
739.601135	0.000000
739.638977	0.000000
739.676758	0.000000
739.714478	0.000000
739.752258	0.000000
739.790100	0.000000
739.827820	0.000000
739.865601	0.000000
739.903381	0.000000
739.941101	0.000000
739.978882	194.800000
740.016724	191.500000
740.054443	195.800000
740.092224	189.000000
740.130005	188.600000
740.167725	189.100000
740.205505	187.200000
740.243225	199.900000
740.281006	192.800000
740.318787	184.700000
740.356506	197.400000
740.394287	197.100000
740.432068	187.900000
740.469727	184.000000
740.507507	196.800000
740.545288	190.500000
740.583008	196.000000
740.620789	193.300000
740.658569	183.900000
740.696228	191.200000
740.734009	197.900000
740.771790	180.000000
740.809509	196.800000
740.847229	186.600000
740.884949	190.300000
740.922729	185.100000
740.960449	189.700000
740.998169	185.300000
741.035950	188.700000
741.073669	193.400000
741.111389	192.700000
741.149170	201.000000
741.186890	201.600000
741.224609	196.500000
741.262329	192.400000
741.300110	201.000000
741.337769	186.300000
741.375549	185.300000
741.413208	191.900000
741.450989	186.100000
741.488708	189.500000
741.526367	188.800000
741.564148	196.300000
741.601868	195.600000
741.639526	190.600000
741.677307	192.300000
741.715027	195.100000
741.752686	188.500000
741.790466	200.200000
741.828186	195.900000
741.865845	187.400000
741.903564	182.800000
741.941345	192.300000
741.979004	186.900000
742.016724	193.800000
742.054382	192.600000
742.092102	198.000000
742.129822	184.500000
742.167480	190.800000
742.205200	191.300000
742.242920	193.500000
742.280640	196.200000
742.318359	187.400000
742.356079	188.400000
742.393738	194.800000
742.431396	191.600000
742.469116	195.600000
742.506775	181.400000
742.544495	194.900000
742.582214	194.700000
742.619873	190.800000
742.657593	199.400000
742.695251	196.200000
742.732971	190.600000
742.770630	192.300000
742.808289	192.300000
742.846008	192.500000
742.883728	194.900000
742.921326	190.900000
742.959045	188.300000
742.996765	191.200000
743.034424	190.700000
743.072083	188.600000
743.109802	191.200000
743.147400	185.300000
743.185120	192.900000
743.222839	190.300000
743.260437	198.200000
743.298157	192.600000
743.335754	184.300000
743.373474	188.800000
743.411133	184.800000
743.448792	192.000000
743.486450	191.200000
743.524170	184.100000
743.561768	192.000000
743.599487	197.300000
743.637146	203.500000
743.674744	190.800000
743.712463	188.800000
743.750122	192.600000
743.787720	193.900000
743.825439	186.600000
743.863037	190.600000
743.900696	191.600000
743.938416	218.100000
743.976013	192.100000
744.013672	201.300000
744.051331	197.000000
744.088928	202.000000
744.126587	199.200000
744.164307	193.700000
744.201904	189.000000
744.239563	195.900000
744.277222	194.100000
744.314819	192.600000
744.352478	199.900000
744.390137	194.200000
744.427734	195.300000
744.465393	189.600000
744.502991	186.400000
744.540649	195.200000
744.578308	192.700000
744.615906	185.000000
744.653564	182.200000
744.691223	195.500000
744.728821	183.600000
744.766418	191.400000
744.804077	194.600000
744.841675	188.800000
744.879333	185.300000
744.916992	189.900000
744.954529	188.900000
744.992187	199.100000
745.029785	190.000000
745.067444	188.600000
745.105042	192.900000
745.142639	195.200000
745.180298	201.700000
745.217896	189.400000
745.255493	191.400000
745.293152	196.400000
745.330750	195.200000
745.368347	199.700000
745.405945	194.500000
745.443604	192.600000
745.481140	196.200000
745.518799	188.600000
745.556396	196.200000
745.593994	195.800000
745.631592	190.700000
745.669189	185.200000
745.706787	194.500000
745.744385	188.000000
745.781982	194.400000
745.819580	189.800000
745.857178	190.200000
745.894775	192.300000
745.932373	192.800000
745.969971	193.800000
746.007568	183.500000
746.045166	201.300000
746.082764	198.300000
746.120300	195.900000
746.157898	195.400000
746.195557	192.800000
746.233093	186.900000
746.270691	196.100000
746.308228	194.100000
746.345825	197.800000
746.383423	195.800000
746.420959	188.400000
746.458557	188.600000
746.496155	188.700000
746.533691	190.800000
746.571289	186.100000
746.608887	192.600000
746.646423	192.600000
746.684021	192.900000
746.721619	189.300000
746.759155	192.500000
746.796753	185.900000
746.834351	185.000000
746.871826	188.600000
746.909424	198.400000
746.946960	193.700000
746.984558	189.700000
747.022156	190.700000
747.059631	199.100000
747.097229	194.500000
747.134827	190.100000
747.172363	198.900000
747.209900	192.300000
747.247498	186.400000
747.285034	199.000000
747.322571	198.500000
747.360168	190.100000
747.397644	184.200000
747.435242	195.000000
747.472778	198.900000
747.510315	189.600000
747.547913	190.200000
747.585388	198.200000
747.622925	191.600000
747.660522	183.100000
747.697998	189.300000
747.735596	191.200000
747.773132	189.800000
747.810669	192.800000
747.848206	195.400000
747.885742	186.300000
747.923279	186.700000
747.960815	194.400000
747.998352	193.600000
748.035889	197.100000
748.073425	197.100000
748.110901	188.600000
748.148437	187.300000
748.185974	192.300000
748.223511	202.200000
748.261047	192.300000
748.298584	193.400000
748.336060	191.900000
748.373596	196.000000
748.411133	210.700000
748.448608	187.700000
748.486145	197.200000
748.523682	200.100000
748.561218	199.200000
748.598755	193.000000
748.636292	195.600000
748.673706	188.500000
748.711243	199.100000
748.748718	192.500000
748.786255	192.400000
748.823792	191.800000
748.861267	188.700000
748.898804	193.700000
748.936340	194.700000
748.973816	189.100000
749.011292	198.200000
749.048828	193.900000
749.086304	195.500000
749.123840	202.000000
749.161316	187.000000
749.198792	202.800000
749.236328	198.300000
749.273743	192.800000
749.311279	190.600000
749.348816	193.200000
749.386230	194.000000
749.423767	181.000000
749.461304	195.700000
749.498718	193.500000
749.536255	200.700000
749.573730	205.100000
749.611206	197.600000
749.648682	193.900000
749.686218	192.800000
749.723633	197.100000
749.761169	190.000000
749.798645	189.100000
749.836060	191.500000
749.873596	189.400000
749.911011	193.200000
749.948547	199.500000
749.986023	192.700000
750.023437	192.000000
750.060913	185.300000
750.098450	187.200000
750.135864	192.000000
750.173340	194.400000
750.210815	195.300000
750.248291	186.600000
750.285767	192.100000
750.323242	200.300000
750.360657	193.000000
750.398132	187.100000
750.435608	196.000000
750.473022	188.500000
750.510498	188.000000
750.547974	188.000000
750.585449	189.200000
750.622925	180.800000
750.660339	201.000000
750.697815	192.200000
750.735291	191.100000
750.772644	193.500000
750.810120	192.800000
750.847595	194.500000
750.885010	187.400000
750.922485	202.500000
750.959961	191.800000
750.997375	198.800000
751.034851	195.700000
751.072266	197.200000
751.109680	184.200000
751.147156	197.500000
751.184570	195.300000
751.221985	194.300000
751.259460	182.400000
751.296875	192.500000
751.334290	192.900000
751.371765	199.200000
751.409180	195.000000
751.446594	199.900000
751.484070	196.300000
751.521423	196.100000
751.558899	194.700000
751.596375	201.200000
751.633728	200.900000
751.671204	205.800000
751.708618	189.600000
751.746033	193.600000
751.783447	186.900000
751.820801	188.200000
751.858276	194.800000
751.895691	191.400000
751.933105	190.800000
751.970520	187.000000
752.007935	189.800000
752.045349	197.300000
752.082764	192.800000
752.120178	188.700000
752.157532	188.800000
752.195007	190.000000
752.232422	193.800000
752.269775	198.400000
752.307190	195.000000
752.344543	188.200000
752.382019	191.300000
752.419434	191.300000
752.456787	195.500000
752.494202	196.600000
752.531616	194.600000
752.568970	197.100000
752.606384	194.400000
752.643799	193.800000
752.681152	201.400000
752.718567	195.800000
752.755981	184.400000
752.793335	194.800000
752.830750	183.800000
752.868164	199.300000
752.905518	188.500000
752.942932	196.200000
752.980225	188.500000
753.017639	196.500000
753.055054	190.900000
753.092407	194.900000
753.129822	198.200000
753.167175	202.100000
753.204529	192.900000
753.241943	189.300000
753.279358	186.700000
753.316650	196.600000
753.354065	195.700000
753.391479	197.500000
753.428772	201.100000
753.466187	197.000000
753.503479	187.200000
753.540894	191.300000
753.578308	186.900000
753.615601	187.900000
753.653015	193.000000
753.690369	190.400000
753.727722	189.400000
753.765076	185.400000
753.802490	186.700000
753.839783	184.100000
753.877136	189.200000
753.914551	207.500000
753.951843	188.300000
753.989258	196.300000
754.026611	194.200000
754.063904	195.600000
754.101257	187.000000
754.138611	185.100000
754.175964	192.700000
754.213318	204.700000
754.250610	184.200000
754.288025	189.800000
754.325378	185.700000
754.362671	197.500000
754.400024	191.400000
754.437378	201.700000
754.474670	203.800000
754.512085	189.800000
754.549438	192.000000
754.586731	191.400000
754.624084	191.000000
754.661438	187.200000
754.698730	201.000000
754.736084	189.900000
754.773376	192.000000
754.810730	195.900000
754.848083	190.500000
754.885315	197.700000
754.922668	185.100000
754.960022	187.700000
754.997314	197.900000
755.034668	193.900000
755.072021	195.100000
755.109253	191.800000
755.146606	202.400000
755.183960	192.200000
755.221252	204.100000
755.258545	200.200000
755.295898	200.000000
755.333191	202.500000
755.370544	198.300000
755.407776	196.500000
755.445129	196.100000
755.482422	199.400000
755.519714	191.500000
755.557068	187.900000
755.594360	185.800000
755.631653	199.800000
755.668945	203.800000
755.706299	197.300000
755.743530	207.900000
755.780884	204.100000
755.818176	202.300000
755.855408	202.400000
755.892761	199.000000
755.930054	198.100000
755.967346	199.600000
756.004639	200.300000
756.041870	197.800000
756.079224	202.300000
756.116516	193.100000
756.153748	201.800000
756.191040	205.900000
756.228394	199.800000
756.265625	194.300000
756.302917	198.200000
756.340210	195.100000
756.377441	204.400000
756.414795	206.200000
756.452087	199.000000
756.489319	193.500000
756.526611	201.700000
756.563843	198.900000
756.601135	211.100000
756.638428	209.700000
756.675659	200.400000
756.712952	205.000000
756.750244	203.300000
756.787476	201.900000
756.824768	208.700000
756.862061	199.000000
756.899292	245.700000
756.936584	205.400000
756.973816	211.700000
757.011047	213.600000
757.048340	202.000000
757.085632	201.500000
757.122864	217.900000
757.160156	200.400000
757.197327	204.600000
757.234619	206.900000
757.271912	200.800000
757.309082	208.600000
757.346375	199.300000
757.383667	209.400000
757.420837	204.600000
757.458130	202.700000
757.495422	202.600000
757.532593	206.000000
757.569885	197.900000
757.607117	199.600000
757.644348	206.500000
757.681580	216.300000
757.718811	192.900000
757.756042	204.600000
757.793335	202.000000
757.830505	207.000000
757.867798	202.200000
757.905029	202.800000
757.942200	207.500000
757.979492	202.400000
758.016724	204.100000
758.053894	203.400000
758.091187	224.600000
758.128418	205.800000
758.165588	204.800000
758.202820	217.900000
758.240112	209.000000
758.277283	218.700000
758.314514	209.900000
758.351685	206.000000
758.388916	218.700000
758.426147	216.000000
758.463379	217.700000
758.500610	213.300000
758.537842	210.600000
758.575012	216.600000
758.612244	204.200000
758.649475	223.400000
758.686646	203.600000
758.723877	216.000000
758.761108	218.300000
758.798279	210.600000
758.835510	213.500000
758.872742	218.200000
758.909851	213.700000
758.947083	214.900000
758.984253	212.100000
759.021484	216.900000
759.058716	216.800000
759.095886	216.700000
759.133057	211.700000
759.170288	217.300000
759.207458	209.000000
759.244690	225.400000
759.281860	222.400000
759.319031	213.100000
759.356262	210.800000
759.393433	211.700000
759.430603	213.600000
759.467773	213.100000
759.505005	220.900000
759.542175	219.200000
759.579346	213.500000
759.616516	214.300000
759.653687	217.400000
759.690918	211.300000
759.728027	217.600000
759.765259	215.700000
759.802429	218.000000
759.839539	217.700000
759.876770	223.000000
759.913940	226.800000
759.951111	218.600000
759.988281	217.400000
760.025452	215.000000
760.062561	213.100000
760.099792	226.000000
760.136963	221.000000
760.174072	217.300000
760.211243	211.900000
760.248413	212.900000
760.285583	213.700000
760.322754	229.500000
760.359863	224.900000
760.397034	225.200000
760.434204	218.000000
760.471375	220.100000
760.508545	217.300000
760.545715	218.400000
760.582825	215.200000
760.619995	225.000000
760.657166	214.300000
760.694275	227.300000
760.731445	222.500000
760.768555	223.600000
760.805664	225.200000
760.842834	223.100000
760.879944	225.300000
760.917114	223.600000
760.954285	222.700000
760.991394	216.200000
761.028564	227.900000
761.065674	227.300000
761.102783	220.100000
761.139954	230.000000
761.177124	230.400000
761.214172	231.300000
761.251343	222.500000
761.288452	225.600000
761.325562	230.200000
761.362732	223.000000
761.399841	227.700000
761.436951	229.800000
761.474121	223.800000
761.511169	229.000000
761.548340	233.600000
761.585449	232.300000
761.622559	234.800000
761.659668	231.300000
761.696838	237.300000
761.733887	235.500000
761.771057	231.100000
761.808167	233.100000
761.845276	238.700000
761.882385	247.000000
761.919434	237.300000
761.956604	256.200000
761.993713	232.400000
762.030762	242.700000
762.067871	236.600000
762.105042	236.800000
762.142090	245.700000
762.179199	239.900000
762.216309	245.100000
762.253418	255.900000
762.290527	250.100000
762.327637	247.000000
762.364685	234.700000
762.401794	247.300000
762.438904	244.100000
762.475952	237.000000
762.513062	238.100000
762.550110	238.900000
762.587219	256.200000
762.624329	254.100000
762.661377	247.400000
762.698486	246.100000
762.735596	247.300000
762.772644	240.300000
762.809753	238.200000
762.846863	246.300000
762.883911	251.000000
762.921021	250.500000
762.958069	248.600000
762.995117	257.200000
763.032227	258.900000
763.069336	248.100000
763.106323	244.000000
763.143433	243.100000
763.180481	251.600000
763.217590	253.900000
763.254639	249.400000
763.291687	251.900000
763.328735	260.000000
763.365845	252.100000
763.402893	252.300000
763.439941	254.800000
763.477051	258.300000
763.514038	260.900000
763.551147	250.800000
763.588196	255.000000
763.625244	257.200000
763.662292	263.800000
763.699402	266.500000
763.736389	263.300000
763.773499	273.400000
763.810486	264.800000
763.847534	260.800000
763.884644	265.100000
763.921631	260.800000
763.958679	273.100000
763.995728	262.300000
764.032776	270.900000
764.069824	256.900000
764.106873	267.800000
764.143860	275.200000
764.180969	266.500000
764.218018	275.800000
764.255005	267.200000
764.292053	268.400000
764.329102	278.100000
764.366089	279.100000
764.403137	276.800000
764.440125	266.800000
764.477173	271.300000
764.514221	272.000000
764.551208	272.900000
764.588257	266.200000
764.625305	277.200000
764.662292	284.000000
764.699341	288.200000
764.736389	279.800000
764.773376	295.700000
764.810425	282.800000
764.847473	290.100000
764.884399	281.500000
764.921448	291.800000
764.958435	290.300000
764.995483	281.200000
765.032532	295.900000
765.069458	281.800000
765.106506	282.600000
765.143555	282.700000
765.180481	289.200000
765.217529	296.100000
765.254578	279.700000
765.291504	290.600000
765.328552	286.300000
765.365540	284.100000
765.402527	299.900000
765.439575	284.700000
765.476501	280.500000
765.513550	282.400000
765.550537	287.400000
765.587463	295.800000
765.624512	288.300000
765.661499	280.300000
765.698486	296.900000
765.735474	287.000000
765.772461	290.300000
765.809448	297.800000
765.846436	294.400000
765.883423	300.000000
765.920410	296.200000
765.957397	290.600000
765.994385	297.000000
766.031311	304.700000
766.068359	297.100000
766.105286	298.700000
766.142273	305.200000
766.179260	301.000000
766.216187	295.300000
766.253174	292.300000
766.290161	301.200000
766.327148	303.200000
766.364136	304.900000
766.401123	321.300000
766.438049	298.400000
766.475037	313.500000
766.512024	309.900000
766.548950	322.800000
766.585937	317.100000
766.622864	315.300000
766.659790	314.600000
766.696777	303.600000
766.733704	321.600000
766.770691	312.500000
766.807678	331.200000
766.844604	323.100000
766.881531	324.000000
766.918518	328.700000
766.955444	329.300000
766.992432	323.900000
767.029358	328.500000
767.066284	331.700000
767.103271	326.400000
767.140198	357.900000
767.177124	347.000000
767.214050	336.300000
767.251038	337.700000
767.287964	335.600000
767.324890	333.400000
767.361816	339.900000
767.398743	344.200000
767.435730	338.900000
767.472595	345.000000
767.509583	350.700000
767.546509	338.600000
767.583374	344.500000
767.620361	338.300000
767.657288	346.200000
767.694214	345.500000
767.731140	345.600000
767.768066	346.500000
767.804993	352.000000
767.841919	342.600000
767.878845	353.000000
767.915710	360.600000
767.952698	353.900000
767.989563	357.100000
768.026489	359.400000
