Model Number: SPM-001-M   
Serial Number: 10090201
Firmware Version: 004.17.6
Exposure Time: 500000.000000us
Data Taken on: 10-03-2021 12:05:24.964
Wavelength	Amplitude
733.770752	0.000000
733.808716	0.000000
733.846619	0.000000
733.884583	0.000000
733.922546	0.000000
733.960449	0.000000
733.998413	0.000000
734.036377	0.000000
734.074219	0.000000
734.112183	0.000000
734.150085	0.000000
734.188049	0.000000
734.226013	0.000000
734.263916	0.000000
734.301819	0.000000
734.339783	0.000000
734.377686	0.000000
734.415588	0.000000
734.453552	0.000000
734.491455	0.000000
734.529419	0.000000
734.567322	0.000000
734.605225	0.000000
734.643127	0.000000
734.681091	0.000000
734.718994	0.000000
734.756897	0.000000
734.794800	0.000000
734.832703	0.000000
734.870667	0.000000
734.908508	0.000000
734.946472	0.000000
734.984375	0.000000
735.022278	0.000000
735.060181	0.000000
735.098083	0.000000
735.135986	0.000000
735.173889	0.000000
735.211792	0.000000
735.249695	0.000000
735.287598	0.000000
735.325439	0.000000
735.363403	0.000000
735.401306	0.000000
735.439148	0.000000
735.477051	0.000000
735.515015	0.000000
735.552856	0.000000
735.590759	0.000000
735.628662	0.000000
735.666504	0.000000
735.704407	0.000000
735.742310	0.000000
735.780212	0.000000
735.818115	0.000000
735.856018	0.000000
735.893860	0.000000
735.931763	0.000000
735.969604	0.000000
736.007507	0.000000
736.045410	0.000000
736.083252	0.000000
736.121094	0.000000
736.158997	0.000000
736.196838	0.000000
736.234741	0.000000
736.272644	0.000000
736.310486	0.000000
736.348389	0.000000
736.386230	0.000000
736.424072	0.000000
736.461975	0.000000
736.499878	0.000000
736.537720	0.000000
736.575562	0.000000
736.613403	0.000000
736.651306	0.000000
736.689148	0.000000
736.726990	0.000000
736.764893	0.000000
736.802734	0.000000
736.840576	0.000000
736.878418	0.000000
736.916321	0.000000
736.954102	0.000000
736.992004	0.000000
737.029846	0.000000
737.067688	0.000000
737.105530	0.000000
737.143372	0.000000
737.181213	0.000000
737.219116	0.000000
737.256897	0.000000
737.294739	0.000000
737.332642	0.000000
737.370422	0.000000
737.408325	0.000000
737.446167	0.000000
737.483948	0.000000
737.521790	0.000000
737.559692	0.000000
737.597473	0.000000
737.635315	0.000000
737.673157	0.000000
737.710999	0.000000
737.748840	0.000000
737.786621	0.000000
737.824463	0.000000
737.862305	0.000000
737.900085	0.000000
737.937927	0.000000
737.975769	0.000000
738.013550	0.000000
738.051392	0.000000
738.089233	0.000000
738.127014	0.000000
738.164856	0.000000
738.202698	0.000000
738.240479	0.000000
738.278320	0.000000
738.316162	0.000000
738.353943	0.000000
738.391785	0.000000
738.429565	0.000000
738.467407	0.000000
738.505188	0.000000
738.542969	0.000000
738.580811	0.000000
738.618652	0.000000
738.656372	0.000000
738.694214	0.000000
738.732056	0.000000
738.769836	0.000000
738.807617	0.000000
738.845459	0.000000
738.883240	0.000000
738.921021	0.000000
738.958862	0.000000
738.996582	0.000000
739.034424	0.000000
739.072205	0.000000
739.109985	0.000000
739.147827	0.000000
739.185547	0.000000
739.223389	0.000000
739.261169	0.000000
739.298889	0.000000
739.336731	0.000000
739.374512	0.000000
739.412292	0.000000
739.450073	0.000000
739.487854	0.000000
739.525635	0.000000
739.563416	0.000000
739.601135	0.000000
739.638977	0.000000
739.676758	0.000000
739.714478	0.000000
739.752258	0.000000
739.790100	0.000000
739.827820	0.000000
739.865601	0.000000
739.903381	0.000000
739.941101	0.000000
739.978882	195.800000
740.016724	190.500000
740.054443	198.200000
740.092224	188.900000
740.130005	190.100000
740.167725	189.700000
740.205505	189.300000
740.243225	199.300000
740.281006	196.400000
740.318787	185.900000
740.356506	200.100000
740.394287	198.200000
740.432068	189.400000
740.469727	186.200000
740.507507	197.900000
740.545288	191.500000
740.583008	196.400000
740.620789	195.300000
740.658569	184.400000
740.696228	192.500000
740.734009	199.600000
740.771790	180.500000
740.809509	197.900000
740.847229	186.600000
740.884949	191.600000
740.922729	186.200000
740.960449	191.400000
740.998169	187.300000
741.035950	189.000000
741.073669	195.200000
741.111389	194.100000
741.149170	202.100000
741.186890	202.800000
741.224609	196.900000
741.262329	193.800000
741.300110	203.700000
741.337769	188.100000
741.375549	185.900000
741.413208	193.700000
741.450989	188.400000
741.488708	189.900000
741.526367	189.700000
741.564148	197.100000
741.601868	199.000000
741.639526	191.600000
741.677307	194.600000
741.715027	193.000000
741.752686	188.800000
741.790466	201.100000
741.828186	196.100000
741.865845	187.700000
741.903564	183.500000
741.941345	192.300000
741.979004	188.700000
742.016724	194.600000
742.054382	195.600000
742.092102	198.900000
742.129822	186.200000
742.167480	190.900000
742.205200	191.000000
742.242920	194.700000
742.280640	198.600000
742.318359	188.100000
742.356079	189.300000
742.393738	195.500000
742.431396	192.000000
742.469116	197.300000
742.506775	182.700000
742.544495	196.400000
742.582214	197.600000
742.619873	192.300000
742.657593	199.300000
742.695251	198.200000
742.732971	193.900000
742.770630	195.300000
742.808289	193.500000
742.846008	193.400000
742.883728	195.700000
742.921326	192.500000
742.959045	189.900000
742.996765	193.800000
743.034424	192.900000
743.072083	189.400000
743.109802	192.300000
743.147400	186.600000
743.185120	194.400000
743.222839	192.000000
743.260437	198.400000
743.298157	194.300000
743.335754	185.300000
743.373474	190.000000
743.411133	183.200000
743.448792	194.200000
743.486450	193.200000
743.524170	184.500000
743.561768	193.100000
743.599487	200.200000
743.637146	204.200000
743.674744	191.400000
743.712463	190.800000
743.750122	194.000000
743.787720	195.600000
743.825439	189.800000
743.863037	191.000000
743.900696	193.700000
743.938416	217.600000
743.976013	192.300000
744.013672	200.800000
744.051331	197.500000
744.088928	202.000000
744.126587	200.700000
744.164307	194.500000
744.201904	190.600000
744.239563	195.900000
744.277222	195.100000
744.314819	192.000000
744.352478	201.000000
744.390137	193.500000
744.427734	195.700000
744.465393	190.200000
744.502991	189.400000
744.540649	196.400000
744.578308	194.500000
744.615906	187.200000
744.653564	181.900000
744.691223	198.000000
744.728821	185.000000
744.766418	191.300000
744.804077	195.800000
744.841675	189.400000
744.879333	185.600000
744.916992	193.200000
744.954529	190.700000
744.992187	199.400000
745.029785	190.300000
745.067444	189.500000
745.105042	193.500000
745.142639	195.800000
745.180298	202.400000
745.217896	190.300000
745.255493	191.500000
745.293152	197.500000
745.330750	197.500000
745.368347	201.700000
745.405945	196.400000
745.443604	193.800000
745.481140	197.500000
745.518799	191.800000
745.556396	197.600000
745.593994	198.000000
745.631592	192.600000
745.669189	188.600000
745.706787	194.700000
745.744385	189.800000
745.781982	195.200000
745.819580	191.500000
745.857178	192.600000
745.894775	194.400000
745.932373	194.300000
745.969971	194.500000
746.007568	183.600000
746.045166	204.900000
746.082764	198.200000
746.120300	196.700000
746.157898	197.000000
746.195557	193.600000
746.233093	186.700000
746.270691	198.400000
746.308228	196.100000
746.345825	199.100000
746.383423	197.100000
746.420959	189.200000
746.458557	191.600000
746.496155	190.200000
746.533691	192.900000
746.571289	188.900000
746.608887	193.400000
746.646423	193.600000
746.684021	194.600000
746.721619	191.000000
746.759155	195.000000
746.796753	186.800000
746.834351	187.100000
746.871826	189.700000
746.909424	200.100000
746.946960	193.800000
746.984558	192.100000
747.022156	191.100000
747.059631	201.000000
747.097229	194.900000
747.134827	192.200000
747.172363	199.600000
747.209900	195.000000
747.247498	186.700000
747.285034	201.400000
747.322571	202.200000
747.360168	191.500000
747.397644	185.300000
747.435242	197.200000
747.472778	200.900000
747.510315	192.000000
747.547913	190.600000
747.585388	200.400000
747.622925	193.000000
747.660522	185.500000
747.697998	189.700000
747.735596	192.900000
747.773132	189.100000
747.810669	193.400000
747.848206	196.400000
747.885742	188.200000
747.923279	186.100000
747.960815	196.700000
747.998352	193.000000
748.035889	199.000000
748.073425	198.100000
748.110901	190.500000
748.148437	188.500000
748.185974	195.100000
748.223511	203.300000
748.261047	193.700000
748.298584	194.200000
748.336060	192.200000
748.373596	195.800000
748.411133	211.900000
748.448608	189.100000
748.486145	196.700000
748.523682	201.100000
748.561218	199.700000
748.598755	195.200000
748.636292	196.800000
748.673706	190.700000
748.711243	200.100000
748.748718	195.800000
748.786255	192.800000
748.823792	194.000000
748.861267	186.900000
748.898804	196.600000
748.936340	196.200000
748.973816	192.300000
749.011292	199.100000
749.048828	195.800000
749.086304	195.500000
749.123840	205.200000
749.161316	189.000000
749.198792	204.000000
749.236328	199.000000
749.273743	193.600000
749.311279	191.000000
749.348816	195.900000
749.386230	193.300000
749.423767	182.200000
749.461304	196.200000
749.498718	194.300000
749.536255	201.100000
749.573730	208.000000
749.611206	198.700000
749.648682	192.700000
749.686218	193.000000
749.723633	198.400000
749.761169	191.600000
749.798645	189.600000
749.836060	191.900000
749.873596	190.200000
749.911011	192.600000
749.948547	200.600000
749.986023	194.100000
750.023437	192.900000
750.060913	186.400000
750.098450	187.800000
750.135864	191.500000
750.173340	194.500000
750.210815	198.400000
750.248291	188.800000
750.285767	193.100000
750.323242	199.300000
750.360657	193.600000
750.398132	187.600000
750.435608	198.300000
750.473022	188.500000
750.510498	189.800000
750.547974	189.300000
750.585449	191.600000
750.622925	181.700000
750.660339	203.000000
750.697815	194.600000
750.735291	193.600000
750.772644	194.100000
750.810120	192.900000
750.847595	195.800000
750.885010	188.900000
750.922485	201.700000
750.959961	192.100000
750.997375	201.100000
751.034851	197.800000
751.072266	197.300000
751.109680	187.100000
751.147156	199.600000
751.184570	198.300000
751.221985	193.900000
751.259460	183.800000
751.296875	193.000000
751.334290	194.700000
751.371765	199.100000
751.409180	198.400000
751.446594	200.400000
751.484070	197.400000
751.521423	195.200000
751.558899	195.700000
751.596375	200.900000
751.633728	202.000000
751.671204	208.700000
751.708618	190.300000
751.746033	195.400000
751.783447	188.000000
751.820801	190.300000
751.858276	196.600000
751.895691	193.000000
751.933105	191.300000
751.970520	188.600000
752.007935	191.600000
752.045349	197.000000
752.082764	192.400000
752.120178	191.300000
752.157532	188.700000
752.195007	191.200000
752.232422	195.300000
752.269775	199.300000
752.307190	198.100000
752.344543	189.100000
752.382019	192.300000
752.419434	192.400000
752.456787	195.600000
752.494202	198.700000
752.531616	194.100000
752.568970	199.600000
752.606384	193.000000
752.643799	195.400000
752.681152	201.500000
752.718567	197.000000
752.755981	186.200000
752.793335	197.300000
752.830750	184.900000
752.868164	203.200000
752.905518	189.200000
752.942932	199.100000
752.980225	188.700000
753.017639	199.700000
753.055054	192.700000
753.092407	197.200000
753.129822	200.300000
753.167175	203.700000
753.204529	193.900000
753.241943	191.800000
753.279358	187.700000
753.316650	197.600000
753.354065	196.500000
753.391479	199.800000
753.428772	203.300000
753.466187	197.800000
753.503479	187.600000
753.540894	192.000000
753.578308	188.100000
753.615601	187.600000
753.653015	194.800000
753.690369	192.000000
753.727722	189.100000
753.765076	187.800000
753.802490	188.500000
753.839783	185.000000
753.877136	191.800000
753.914551	208.400000
753.951843	189.100000
753.989258	197.900000
754.026611	195.900000
754.063904	196.200000
754.101257	189.100000
754.138611	186.000000
754.175964	195.400000
754.213318	206.100000
754.250610	187.500000
754.288025	190.900000
754.325378	189.000000
754.362671	199.700000
754.400024	193.100000
754.437378	202.900000
754.474670	205.000000
754.512085	189.500000
754.549438	195.100000
754.586731	191.600000
754.624084	194.400000
754.661438	188.800000
754.698730	202.400000
754.736084	191.900000
754.773376	193.200000
754.810730	196.800000
754.848083	193.600000
754.885315	198.400000
754.922668	187.900000
754.960022	188.200000
754.997314	199.400000
755.034668	195.700000
755.072021	196.000000
755.109253	192.800000
755.146606	201.800000
755.183960	193.600000
755.221252	204.500000
755.258545	200.700000
755.295898	201.400000
755.333191	201.900000
755.370544	199.400000
755.407776	194.800000
755.445129	196.800000
755.482422	200.300000
755.519714	193.800000
755.557068	187.000000
755.594360	189.000000
755.631653	199.600000
755.668945	205.600000
755.706299	199.100000
755.743530	208.500000
755.780884	204.800000
755.818176	202.900000
755.855408	203.300000
755.892761	199.600000
755.930054	199.500000
755.967346	200.900000
756.004639	204.000000
756.041870	198.300000
756.079224	204.500000
756.116516	195.000000
756.153748	204.500000
756.191040	205.700000
756.228394	202.800000
756.265625	193.600000
756.302917	201.100000
756.340210	195.800000
756.377441	205.900000
756.414795	206.000000
756.452087	200.100000
756.489319	192.000000
756.526611	203.400000
756.563843	201.200000
756.601135	211.800000
756.638428	207.900000
756.675659	200.600000
756.712952	205.200000
756.750244	204.900000
756.787476	202.400000
756.824768	208.600000
756.862061	199.300000
756.899292	248.400000
756.936584	204.900000
756.973816	213.400000
757.011047	214.300000
757.048340	204.000000
757.085632	202.400000
757.122864	219.200000
757.160156	202.400000
757.197327	206.200000
757.234619	209.000000
757.271912	203.000000
757.309082	209.000000
757.346375	201.600000
757.383667	211.600000
757.420837	205.500000
757.458130	206.200000
757.495422	202.100000
757.532593	208.000000
757.569885	196.500000
757.607117	200.900000
757.644348	207.100000
757.681580	218.800000
757.718811	192.700000
757.756042	205.200000
757.793335	203.000000
757.830505	214.400000
757.867798	202.800000
757.905029	203.000000
757.942200	207.300000
757.979492	203.400000
758.016724	205.000000
758.053894	205.700000
758.091187	225.400000
758.128418	208.200000
758.165588	207.500000
758.202820	220.100000
758.240112	208.100000
758.277283	220.100000
758.314514	209.800000
758.351685	205.900000
758.388916	219.100000
758.426147	216.200000
758.463379	218.600000
758.500610	213.100000
758.537842	210.500000
758.575012	218.400000
758.612244	204.300000
758.649475	224.000000
758.686646	202.800000
758.723877	216.900000
758.761108	218.900000
758.798279	212.000000
758.835510	212.900000
758.872742	219.200000
758.909851	214.900000
758.947083	215.300000
758.984253	214.400000
759.021484	215.700000
759.058716	216.100000
759.095886	216.900000
759.133057	212.500000
759.170288	216.600000
759.207458	210.400000
759.244690	225.100000
759.281860	225.500000
759.319031	213.900000
759.356262	212.400000
759.393433	213.200000
759.430603	213.900000
759.467773	212.300000
759.505005	222.700000
759.542175	220.500000
759.579346	215.200000
759.616516	215.800000
759.653687	218.000000
759.690918	209.900000
759.728027	217.700000
759.765259	216.600000
759.802429	221.400000
759.839539	218.800000
759.876770	223.600000
759.913940	226.700000
759.951111	218.200000
759.988281	216.400000
760.025452	214.800000
760.062561	212.400000
760.099792	229.000000
760.136963	220.300000
760.174072	218.000000
760.211243	212.800000
760.248413	215.100000
760.285583	214.100000
760.322754	230.200000
760.359863	224.500000
760.397034	227.200000
760.434204	218.800000
760.471375	220.900000
760.508545	217.400000
760.545715	220.800000
760.582825	214.400000
760.619995	225.900000
760.657166	214.500000
760.694275	227.000000
760.731445	222.800000
760.768555	224.000000
760.805664	224.000000
760.842834	223.800000
760.879944	226.400000
760.917114	224.200000
760.954285	222.600000
760.991394	217.100000
761.028564	229.800000
761.065674	227.400000
761.102783	220.800000
761.139954	230.200000
761.177124	229.400000
761.214172	231.900000
761.251343	225.200000
761.288452	225.900000
761.325562	232.500000
761.362732	222.900000
761.399841	227.900000
761.436951	230.200000
761.474121	225.100000
761.511169	229.000000
761.548340	234.700000
761.585449	232.800000
761.622559	234.300000
761.659668	232.100000
761.696838	238.500000
761.733887	235.300000
761.771057	230.900000
761.808167	233.000000
761.845276	239.500000
761.882385	247.600000
761.919434	237.200000
761.956604	255.300000
761.993713	232.100000
762.030762	240.800000
762.067871	236.600000
762.105042	235.600000
762.142090	246.000000
762.179199	240.200000
762.216309	245.500000
762.253418	255.400000
762.290527	250.000000
762.327637	245.700000
762.364685	236.400000
762.401794	247.700000
762.438904	245.500000
762.475952	237.800000
762.513062	239.700000
762.550110	238.400000
762.587219	254.000000
762.624329	253.500000
762.661377	247.800000
762.698486	246.800000
762.735596	245.300000
762.772644	240.300000
762.809753	237.900000
762.846863	248.700000
762.883911	251.600000
762.921021	251.400000
762.958069	249.500000
762.995117	258.800000
763.032227	258.100000
763.069336	249.200000
763.106323	245.500000
763.143433	245.400000
763.180481	252.800000
763.217590	254.600000
763.254639	249.400000
763.291687	253.000000
763.328735	259.000000
763.365845	254.600000
763.402893	252.200000
763.439941	256.600000
763.477051	259.000000
763.514038	260.600000
763.551147	251.700000
763.588196	257.600000
763.625244	255.100000
763.662292	264.400000
763.699402	264.600000
763.736389	261.100000
763.773499	271.300000
763.810486	265.000000
763.847534	260.100000
763.884644	264.500000
763.921631	259.600000
763.958679	273.600000
763.995728	261.100000
764.032776	271.900000
764.069824	256.100000
764.106873	267.200000
764.143860	272.900000
764.180969	265.500000
764.218018	275.200000
764.255005	267.400000
764.292053	269.700000
764.329102	280.300000
764.366089	278.200000
764.403137	276.600000
764.440125	266.200000
764.477173	270.700000
764.514221	273.600000
764.551208	270.000000
764.588257	267.200000
764.625305	278.100000
764.662292	284.100000
764.699341	288.700000
764.736389	280.300000
764.773376	293.300000
764.810425	281.400000
764.847473	289.000000
764.884399	285.200000
764.921448	294.300000
764.958435	292.500000
764.995483	280.000000
765.032532	298.700000
765.069458	282.400000
765.106506	285.100000
765.143555	281.200000
765.180481	288.400000
765.217529	294.500000
765.254578	281.100000
765.291504	291.100000
765.328552	287.700000
765.365540	282.800000
765.402527	301.400000
765.439575	283.300000
765.476501	281.300000
765.513550	281.600000
765.550537	290.600000
765.587463	293.700000
765.624512	287.800000
765.661499	280.000000
765.698486	297.500000
765.735474	286.300000
765.772461	290.000000
765.809448	298.100000
765.846436	296.500000
765.883423	297.500000
765.920410	292.500000
765.957397	289.300000
765.994385	295.300000
766.031311	303.600000
766.068359	296.000000
766.105286	297.700000
766.142273	304.500000
766.179260	300.600000
766.216187	294.300000
766.253174	291.700000
766.290161	300.500000
766.327148	304.600000
766.364136	303.600000
766.401123	321.600000
766.438049	297.900000
766.475037	313.500000
766.512024	309.100000
766.548950	324.700000
766.585937	318.200000
766.622864	315.600000
766.659790	312.200000
766.696777	304.700000
766.733704	320.500000
766.770691	312.900000
766.807678	326.600000
766.844604	323.300000
766.881531	322.000000
766.918518	329.900000
766.955444	330.300000
766.992432	324.300000
767.029358	328.700000
767.066284	330.100000
767.103271	327.300000
767.140198	357.300000
767.177124	346.200000
767.214050	337.800000
767.251038	337.700000
767.287964	332.300000
767.324890	329.400000
767.361816	339.200000
767.398743	344.200000
767.435730	338.200000
767.472595	343.500000
767.509583	348.300000
767.546509	337.000000
767.583374	345.700000
767.620361	337.900000
767.657288	345.600000
767.694214	344.600000
767.731140	345.200000
767.768066	346.200000
767.804993	352.500000
767.841919	342.900000
767.878845	349.900000
767.915710	359.700000
767.952698	351.600000
767.989563	355.200000
768.026489	357.700000
