Model Number: SPM-001-M   
Serial Number: 10090201
Firmware Version: 004.17.6
Exposure Time: 500000.000000us
Data Taken on: 10-03-2021 12:06:42.985
Wavelength	Amplitude
733.770752	0.000000
733.808716	0.000000
733.846619	0.000000
733.884583	0.000000
733.922546	0.000000
733.960449	0.000000
733.998413	0.000000
734.036377	0.000000
734.074219	0.000000
734.112183	0.000000
734.150085	0.000000
734.188049	0.000000
734.226013	0.000000
734.263916	0.000000
734.301819	0.000000
734.339783	0.000000
734.377686	0.000000
734.415588	0.000000
734.453552	0.000000
734.491455	0.000000
734.529419	0.000000
734.567322	0.000000
734.605225	0.000000
734.643127	0.000000
734.681091	0.000000
734.718994	0.000000
734.756897	0.000000
734.794800	0.000000
734.832703	0.000000
734.870667	0.000000
734.908508	0.000000
734.946472	0.000000
734.984375	0.000000
735.022278	0.000000
735.060181	0.000000
735.098083	0.000000
735.135986	0.000000
735.173889	0.000000
735.211792	0.000000
735.249695	0.000000
735.287598	0.000000
735.325439	0.000000
735.363403	0.000000
735.401306	0.000000
735.439148	0.000000
735.477051	0.000000
735.515015	0.000000
735.552856	0.000000
735.590759	0.000000
735.628662	0.000000
735.666504	0.000000
735.704407	0.000000
735.742310	0.000000
735.780212	0.000000
735.818115	0.000000
735.856018	0.000000
735.893860	0.000000
735.931763	0.000000
735.969604	0.000000
736.007507	0.000000
736.045410	0.000000
736.083252	0.000000
736.121094	0.000000
736.158997	0.000000
736.196838	0.000000
736.234741	0.000000
736.272644	0.000000
736.310486	0.000000
736.348389	0.000000
736.386230	0.000000
736.424072	0.000000
736.461975	0.000000
736.499878	0.000000
736.537720	0.000000
736.575562	0.000000
736.613403	0.000000
736.651306	0.000000
736.689148	0.000000
736.726990	0.000000
736.764893	0.000000
736.802734	0.000000
736.840576	0.000000
736.878418	0.000000
736.916321	0.000000
736.954102	0.000000
736.992004	0.000000
737.029846	0.000000
737.067688	0.000000
737.105530	0.000000
737.143372	0.000000
737.181213	0.000000
737.219116	0.000000
737.256897	0.000000
737.294739	0.000000
737.332642	0.000000
737.370422	0.000000
737.408325	0.000000
737.446167	0.000000
737.483948	0.000000
737.521790	0.000000
737.559692	0.000000
737.597473	0.000000
737.635315	0.000000
737.673157	0.000000
737.710999	0.000000
737.748840	0.000000
737.786621	0.000000
737.824463	0.000000
737.862305	0.000000
737.900085	0.000000
737.937927	0.000000
737.975769	0.000000
738.013550	0.000000
738.051392	0.000000
738.089233	0.000000
738.127014	0.000000
738.164856	0.000000
738.202698	0.000000
738.240479	0.000000
738.278320	0.000000
738.316162	0.000000
738.353943	0.000000
738.391785	0.000000
738.429565	0.000000
738.467407	0.000000
738.505188	0.000000
738.542969	0.000000
738.580811	0.000000
738.618652	0.000000
738.656372	0.000000
738.694214	0.000000
738.732056	0.000000
738.769836	0.000000
738.807617	0.000000
738.845459	0.000000
738.883240	0.000000
738.921021	0.000000
738.958862	0.000000
738.996582	0.000000
739.034424	0.000000
739.072205	0.000000
739.109985	0.000000
739.147827	0.000000
739.185547	0.000000
739.223389	0.000000
739.261169	0.000000
739.298889	0.000000
739.336731	0.000000
739.374512	0.000000
739.412292	0.000000
739.450073	0.000000
739.487854	0.000000
739.525635	0.000000
739.563416	0.000000
739.601135	0.000000
739.638977	0.000000
739.676758	0.000000
739.714478	0.000000
739.752258	0.000000
739.790100	0.000000
739.827820	0.000000
739.865601	0.000000
739.903381	0.000000
739.941101	0.000000
739.978882	196.500000
740.016724	192.600000
740.054443	199.100000
740.092224	190.200000
740.130005	190.000000
740.167725	190.700000
740.205505	188.700000
740.243225	199.900000
740.281006	194.400000
740.318787	186.200000
740.356506	198.100000
740.394287	197.300000
740.432068	189.000000
740.469727	186.600000
740.507507	197.700000
740.545288	192.900000
740.583008	195.600000
740.620789	194.200000
740.658569	185.500000
740.696228	192.900000
740.734009	198.100000
740.771790	181.200000
740.809509	197.700000
740.847229	189.200000
740.884949	191.500000
740.922729	187.000000
740.960449	189.900000
740.998169	188.400000
741.035950	188.200000
741.073669	194.900000
741.111389	193.300000
741.149170	203.000000
741.186890	203.300000
741.224609	197.000000
741.262329	193.200000
741.300110	202.800000
741.337769	186.800000
741.375549	187.900000
741.413208	194.500000
741.450989	189.300000
741.488708	190.200000
741.526367	191.000000
741.564148	195.600000
741.601868	199.500000
741.639526	193.100000
741.677307	195.000000
741.715027	194.200000
741.752686	189.300000
741.790466	201.500000
741.828186	197.200000
741.865845	190.100000
741.903564	184.700000
741.941345	193.900000
741.979004	189.300000
742.016724	196.300000
742.054382	194.900000
742.092102	199.700000
742.129822	185.800000
742.167480	191.200000
742.205200	190.900000
742.242920	196.000000
742.280640	198.100000
742.318359	188.700000
742.356079	191.500000
742.393738	197.300000
742.431396	191.300000
742.469116	196.500000
742.506775	182.000000
742.544495	195.900000
742.582214	197.800000
742.619873	193.000000
742.657593	200.500000
742.695251	196.900000
742.732971	192.800000
742.770630	195.700000
742.808289	192.200000
742.846008	193.500000
742.883728	196.400000
742.921326	194.100000
742.959045	190.100000
742.996765	193.400000
743.034424	191.700000
743.072083	190.800000
743.109802	192.700000
743.147400	186.300000
743.185120	194.900000
743.222839	192.800000
743.260437	197.700000
743.298157	196.500000
743.335754	186.000000
743.373474	190.700000
743.411133	184.000000
743.448792	194.200000
743.486450	193.800000
743.524170	185.400000
743.561768	193.400000
743.599487	202.000000
743.637146	205.300000
743.674744	191.000000
743.712463	191.000000
743.750122	193.700000
743.787720	195.000000
743.825439	190.100000
743.863037	190.900000
743.900696	192.600000
743.938416	217.500000
743.976013	192.200000
744.013672	202.000000
744.051331	198.200000
744.088928	202.400000
744.126587	199.400000
744.164307	195.300000
744.201904	189.400000
744.239563	196.500000
744.277222	195.300000
744.314819	193.800000
744.352478	198.400000
744.390137	194.800000
744.427734	194.600000
744.465393	191.400000
744.502991	188.000000
744.540649	196.700000
744.578308	193.400000
744.615906	187.700000
744.653564	181.900000
744.691223	198.500000
744.728821	185.400000
744.766418	192.600000
744.804077	195.200000
744.841675	191.800000
744.879333	186.000000
744.916992	191.600000
744.954529	190.100000
744.992187	199.900000
745.029785	191.600000
745.067444	190.100000
745.105042	193.700000
745.142639	195.600000
745.180298	202.800000
745.217896	191.500000
745.255493	192.700000
745.293152	196.600000
745.330750	197.600000
745.368347	201.200000
745.405945	197.200000
745.443604	194.700000
745.481140	196.700000
745.518799	192.300000
745.556396	198.000000
745.593994	198.400000
745.631592	192.600000
745.669189	188.800000
745.706787	195.300000
745.744385	190.100000
745.781982	196.300000
745.819580	190.300000
745.857178	192.300000
745.894775	193.500000
745.932373	196.200000
745.969971	193.000000
746.007568	185.600000
746.045166	202.700000
746.082764	199.600000
746.120300	196.100000
746.157898	198.400000
746.195557	192.800000
746.233093	187.600000
746.270691	195.700000
746.308228	195.600000
746.345825	198.800000
746.383423	197.900000
746.420959	188.100000
746.458557	191.600000
746.496155	190.700000
746.533691	193.300000
746.571289	188.600000
746.608887	194.900000
746.646423	194.600000
746.684021	194.900000
746.721619	190.800000
746.759155	194.000000
746.796753	184.700000
746.834351	186.000000
746.871826	188.300000
746.909424	200.700000
746.946960	196.300000
746.984558	192.400000
747.022156	190.500000
747.059631	200.700000
747.097229	194.100000
747.134827	192.100000
747.172363	201.200000
747.209900	195.100000
747.247498	189.500000
747.285034	200.900000
747.322571	201.900000
747.360168	191.800000
747.397644	185.900000
747.435242	197.500000
747.472778	200.400000
747.510315	190.700000
747.547913	192.300000
747.585388	201.100000
747.622925	193.500000
747.660522	183.300000
747.697998	190.900000
747.735596	193.100000
747.773132	191.900000
747.810669	193.500000
747.848206	196.400000
747.885742	189.000000
747.923279	188.600000
747.960815	194.800000
747.998352	194.600000
748.035889	196.100000
748.073425	198.600000
748.110901	190.500000
748.148437	190.700000
748.185974	193.600000
748.223511	205.300000
748.261047	194.100000
748.298584	194.300000
748.336060	192.300000
748.373596	196.900000
748.411133	211.600000
748.448608	189.800000
748.486145	197.400000
748.523682	200.800000
748.561218	198.600000
748.598755	194.700000
748.636292	196.600000
748.673706	190.800000
748.711243	201.300000
748.748718	195.600000
748.786255	193.100000
748.823792	194.500000
748.861267	189.400000
748.898804	196.000000
748.936340	196.300000
748.973816	191.400000
749.011292	198.900000
749.048828	194.700000
749.086304	197.400000
749.123840	205.900000
749.161316	188.800000
749.198792	203.700000
749.236328	200.800000
749.273743	194.500000
749.311279	192.800000
749.348816	197.500000
749.386230	193.900000
749.423767	182.000000
749.461304	197.400000
749.498718	194.500000
749.536255	201.700000
749.573730	207.300000
749.611206	199.700000
749.648682	192.100000
749.686218	193.400000
749.723633	197.300000
749.761169	193.600000
749.798645	189.100000
749.836060	192.900000
749.873596	189.600000
749.911011	194.300000
749.948547	199.400000
749.986023	193.800000
750.023437	193.200000
750.060913	187.700000
750.098450	186.900000
750.135864	192.900000
750.173340	194.800000
750.210815	199.100000
750.248291	187.600000
750.285767	193.600000
750.323242	200.800000
750.360657	197.200000
750.398132	188.100000
750.435608	197.800000
750.473022	188.500000
750.510498	189.300000
750.547974	189.600000
750.585449	191.200000
750.622925	182.900000
750.660339	203.100000
750.697815	193.900000
750.735291	193.000000
750.772644	196.300000
750.810120	193.200000
750.847595	196.800000
750.885010	189.900000
750.922485	203.300000
750.959961	192.900000
750.997375	201.000000
751.034851	198.000000
751.072266	199.600000
751.109680	186.600000
751.147156	199.700000
751.184570	196.300000
751.221985	196.800000
751.259460	185.100000
751.296875	194.400000
751.334290	193.400000
751.371765	200.200000
751.409180	196.600000
751.446594	200.700000
751.484070	195.700000
751.521423	196.000000
751.558899	195.400000
751.596375	202.300000
751.633728	200.600000
751.671204	207.200000
751.708618	189.100000
751.746033	194.500000
751.783447	187.000000
751.820801	191.400000
751.858276	196.200000
751.895691	194.200000
751.933105	191.900000
751.970520	188.100000
752.007935	191.500000
752.045349	198.500000
752.082764	193.500000
752.120178	191.900000
752.157532	188.600000
752.195007	191.400000
752.232422	195.700000
752.269775	199.200000
752.307190	196.300000
752.344543	190.500000
752.382019	193.400000
752.419434	192.400000
752.456787	195.400000
752.494202	197.900000
752.531616	195.200000
752.568970	199.700000
752.606384	194.000000
752.643799	196.700000
752.681152	202.800000
752.718567	196.800000
752.755981	185.700000
752.793335	196.900000
752.830750	187.000000
752.868164	201.400000
752.905518	190.900000
752.942932	198.500000
752.980225	189.500000
753.017639	198.000000
753.055054	193.100000
753.092407	197.000000
753.129822	201.700000
753.167175	204.200000
753.204529	193.200000
753.241943	190.900000
753.279358	188.100000
753.316650	197.700000
753.354065	196.200000
753.391479	197.900000
753.428772	203.300000
753.466187	197.300000
753.503479	188.900000
753.540894	191.500000
753.578308	189.100000
753.615601	187.000000
753.653015	194.300000
753.690369	191.500000
753.727722	189.300000
753.765076	186.000000
753.802490	188.900000
753.839783	186.500000
753.877136	191.000000
753.914551	209.400000
753.951843	187.600000
753.989258	197.600000
754.026611	194.000000
754.063904	194.500000
754.101257	188.700000
754.138611	186.400000
754.175964	193.200000
754.213318	206.500000
754.250610	186.700000
754.288025	190.500000
754.325378	189.100000
754.362671	199.600000
754.400024	192.200000
754.437378	201.800000
754.474670	204.600000
754.512085	191.100000
754.549438	195.000000
754.586731	192.700000
754.624084	193.200000
754.661438	190.000000
754.698730	201.200000
754.736084	192.100000
754.773376	191.500000
754.810730	198.000000
754.848083	192.500000
754.885315	198.600000
754.922668	185.300000
754.960022	189.000000
754.997314	198.700000
755.034668	194.900000
755.072021	195.600000
755.109253	193.400000
755.146606	202.000000
755.183960	193.100000
755.221252	203.600000
755.258545	200.900000
755.295898	200.800000
755.333191	202.100000
755.370544	198.400000
755.407776	197.000000
755.445129	195.500000
755.482422	200.900000
755.519714	192.000000
755.557068	188.100000
755.594360	187.100000
755.631653	202.600000
755.668945	206.400000
755.706299	197.900000
755.743530	207.700000
755.780884	205.200000
755.818176	203.900000
755.855408	203.400000
755.892761	200.200000
755.930054	197.800000
755.967346	199.500000
756.004639	202.900000
756.041870	198.600000
756.079224	204.000000
756.116516	195.100000
756.153748	203.100000
756.191040	206.300000
756.228394	201.600000
756.265625	195.800000
756.302917	200.400000
756.340210	195.600000
756.377441	204.900000
756.414795	207.000000
756.452087	199.300000
756.489319	194.700000
756.526611	203.600000
756.563843	201.200000
756.601135	211.600000
756.638428	208.500000
756.675659	199.400000
756.712952	205.800000
756.750244	204.300000
756.787476	204.000000
756.824768	208.700000
756.862061	199.600000
756.899292	248.300000
756.936584	207.500000
756.973816	213.500000
757.011047	215.300000
757.048340	201.200000
757.085632	202.600000
757.122864	217.900000
757.160156	201.200000
757.197327	205.000000
757.234619	207.700000
757.271912	201.500000
757.309082	209.500000
757.346375	199.500000
757.383667	210.100000
757.420837	205.200000
757.458130	206.800000
757.495422	203.400000
757.532593	206.700000
757.569885	199.000000
757.607117	201.700000
757.644348	205.800000
757.681580	219.400000
757.718811	194.800000
757.756042	204.400000
757.793335	203.300000
757.830505	214.000000
757.867798	202.500000
757.905029	202.900000
757.942200	207.600000
757.979492	203.400000
758.016724	206.100000
758.053894	204.500000
758.091187	225.300000
758.128418	208.300000
758.165588	206.700000
758.202820	219.100000
758.240112	209.200000
758.277283	218.300000
758.314514	210.200000
758.351685	205.300000
758.388916	218.600000
758.426147	216.800000
758.463379	220.300000
758.500610	212.800000
758.537842	210.500000
758.575012	217.100000
758.612244	206.300000
758.649475	222.700000
758.686646	204.800000
758.723877	216.900000
758.761108	218.500000
758.798279	208.700000
758.835510	212.800000
758.872742	217.500000
758.909851	216.000000
758.947083	213.600000
758.984253	214.100000
759.021484	218.500000
759.058716	216.200000
759.095886	215.400000
759.133057	211.100000
759.170288	217.000000
759.207458	209.800000
759.244690	225.500000
759.281860	224.500000
759.319031	213.000000
759.356262	212.600000
759.393433	211.400000
759.430603	214.200000
759.467773	213.800000
759.505005	222.600000
759.542175	220.800000
759.579346	213.700000
759.616516	217.500000
759.653687	217.500000
759.690918	213.200000
759.728027	218.700000
759.765259	217.600000
759.802429	220.000000
759.839539	219.900000
759.876770	223.100000
759.913940	227.700000
759.951111	218.700000
759.988281	217.500000
760.025452	216.000000
760.062561	213.800000
760.099792	226.500000
760.136963	221.700000
760.174072	216.800000
760.211243	213.200000
760.248413	213.600000
760.285583	214.600000
760.322754	230.200000
760.359863	225.000000
760.397034	226.400000
760.434204	218.700000
760.471375	219.800000
760.508545	218.600000
760.545715	219.300000
760.582825	214.800000
760.619995	225.700000
760.657166	213.800000
760.694275	227.800000
760.731445	222.500000
760.768555	222.800000
760.805664	224.400000
760.842834	223.700000
760.879944	226.400000
760.917114	224.800000
760.954285	223.800000
760.991394	216.400000
761.028564	230.500000
761.065674	228.400000
761.102783	220.500000
761.139954	228.800000
761.177124	230.000000
761.214172	232.100000
761.251343	225.900000
761.288452	227.300000
761.325562	229.600000
761.362732	224.100000
761.399841	227.200000
761.436951	229.800000
761.474121	226.200000
761.511169	232.300000
761.548340	233.500000
761.585449	234.200000
761.622559	234.700000
761.659668	233.400000
761.696838	238.600000
761.733887	236.200000
761.771057	232.200000
761.808167	235.200000
761.845276	238.500000
761.882385	247.100000
761.919434	235.700000
761.956604	255.600000
761.993713	233.100000
762.030762	243.700000
762.067871	236.500000
762.105042	237.600000
762.142090	246.000000
762.179199	241.600000
762.216309	244.600000
762.253418	257.000000
762.290527	250.100000
762.327637	246.200000
762.364685	235.100000
762.401794	246.600000
762.438904	244.600000
762.475952	238.800000
762.513062	237.800000
762.550110	240.300000
762.587219	254.600000
762.624329	254.500000
762.661377	247.400000
762.698486	245.500000
762.735596	244.100000
762.772644	241.900000
762.809753	237.500000
762.846863	244.300000
762.883911	249.900000
762.921021	250.600000
762.958069	250.400000
762.995117	258.500000
763.032227	257.800000
763.069336	250.300000
763.106323	244.700000
763.143433	243.800000
763.180481	252.800000
763.217590	252.000000
763.254639	250.900000
763.291687	249.000000
763.328735	258.600000
763.365845	254.600000
763.402893	252.400000
763.439941	257.300000
763.477051	259.700000
763.514038	259.300000
763.551147	252.500000
763.588196	255.000000
763.625244	255.500000
763.662292	262.900000
763.699402	267.100000
763.736389	261.400000
763.773499	271.700000
763.810486	264.600000
763.847534	262.000000
763.884644	265.300000
763.921631	259.400000
763.958679	271.000000
763.995728	262.500000
764.032776	272.700000
764.069824	258.200000
764.106873	266.700000
764.143860	274.200000
764.180969	264.000000
764.218018	273.900000
764.255005	265.300000
764.292053	266.200000
764.329102	278.600000
764.366089	278.400000
764.403137	274.500000
764.440125	266.300000
764.477173	270.000000
764.514221	273.500000
764.551208	269.800000
764.588257	267.100000
764.625305	277.400000
764.662292	283.300000
764.699341	288.100000
764.736389	279.100000
764.773376	294.800000
764.810425	281.200000
764.847473	288.800000
764.884399	283.800000
764.921448	292.900000
764.958435	292.900000
764.995483	280.100000
765.032532	297.300000
765.069458	282.500000
765.106506	284.900000
765.143555	282.500000
765.180481	285.700000
765.217529	296.100000
765.254578	279.800000
765.291504	290.900000
765.328552	285.300000
765.365540	282.500000
765.402527	300.800000
765.439575	285.600000
765.476501	281.800000
765.513550	282.300000
765.550537	289.900000
765.587463	295.800000
765.624512	285.700000
765.661499	278.300000
765.698486	293.700000
765.735474	287.000000
765.772461	289.600000
765.809448	298.400000
765.846436	294.800000
765.883423	299.300000
765.920410	292.300000
765.957397	290.400000
765.994385	295.900000
766.031311	305.700000
766.068359	298.500000
766.105286	296.900000
766.142273	303.800000
766.179260	301.500000
766.216187	295.100000
766.253174	291.500000
766.290161	301.100000
766.327148	304.200000
766.364136	306.700000
766.401123	320.800000
766.438049	296.500000
766.475037	312.700000
766.512024	310.500000
766.548950	323.600000
766.585937	317.800000
766.622864	315.500000
766.659790	311.300000
766.696777	304.000000
766.733704	320.900000
766.770691	310.000000
766.807678	327.600000
766.844604	320.500000
766.881531	320.200000
766.918518	327.700000
766.955444	330.600000
766.992432	323.800000
767.029358	327.000000
767.066284	331.700000
767.103271	327.700000
767.140198	356.600000
767.177124	344.900000
767.214050	334.200000
767.251038	336.500000
767.287964	332.300000
767.324890	329.700000
767.361816	339.400000
767.398743	346.400000
767.435730	338.400000
767.472595	343.900000
767.509583	348.500000
767.546509	335.700000
767.583374	344.300000
767.620361	335.100000
767.657288	342.600000
767.694214	344.700000
767.731140	343.100000
767.768066	344.600000
767.804993	349.600000
767.841919	340.900000
767.878845	350.200000
767.915710	357.500000
767.952698	350.200000
767.989563	354.100000
768.026489	357.700000
