Model Number: SPM-002-B   
Serial Number: 70087108
Firmware Version: 004.15.4
Exposure Time: 100000.000000us
Data Taken on: 11-12-2020 19:28:24.791
Wavelength	Amplitude
221.570786	0.000000
221.663406	0.000000
221.756027	0.000000
221.848648	0.000000
221.941269	0.000000
222.033905	0.000000
222.126526	0.000000
222.219162	0.000000
222.311798	0.000000
222.404419	0.000000
222.497055	0.000000
222.589676	0.000000
222.682312	0.000000
222.774933	0.000000
222.867569	0.000000
222.960205	0.000000
223.052841	0.000000
223.145462	0.000000
223.238098	0.000000
223.330734	0.000000
223.423386	0.000000
223.516022	0.000000
223.608658	0.000000
223.701309	0.000000
223.793945	0.000000
223.886581	0.000000
223.979218	0.000000
224.071869	0.000000
224.164505	0.000000
224.257156	0.000000
224.349792	0.000000
224.442444	0.000000
224.535095	0.000000
224.627747	0.000000
224.720398	0.000000
224.813034	0.000000
224.905685	0.000000
224.998337	145.980000
225.090988	145.820000
225.183640	145.700000
225.276291	145.480000
225.368942	145.680000
225.461594	146.240000
225.554245	146.320000
225.646912	146.440000
225.739578	147.060000
225.832230	147.340000
225.924896	146.680000
226.017548	146.800000
226.110199	147.340000
226.202866	146.580000
226.295532	146.420000
226.388184	146.160000
226.480850	145.660000
226.573517	145.080000
226.666168	145.520000
226.758835	145.860000
226.851501	146.540000
226.944183	146.780000
227.036850	146.420000
227.129517	146.340000
227.222183	146.280000
227.314850	146.220000
227.407516	146.580000
227.500198	147.740000
227.592865	147.400000
227.685532	147.080000
227.778214	146.840000
227.870880	147.040000
227.963562	146.840000
228.056229	147.640000
228.148926	147.760000
228.241592	148.540000
228.334274	148.100000
228.426956	147.820000
228.519638	147.700000
228.612305	147.340000
228.704987	147.120000
228.797668	147.480000
228.890350	147.180000
228.983032	146.500000
229.075714	147.140000
229.168396	146.440000
229.261108	145.720000
229.353790	146.040000
229.446472	146.620000
229.539169	146.240000
229.631851	146.240000
229.724533	146.760000
229.817230	146.720000
229.909912	147.320000
230.002609	147.320000
230.095306	147.260000
230.187988	146.940000
230.280685	146.860000
230.373383	145.720000
230.466095	145.600000
230.558792	146.140000
230.651474	146.320000
230.744171	146.220000
230.836868	145.960000
230.929581	146.100000
231.022278	146.120000
231.114975	146.100000
231.207672	146.020000
231.300369	146.880000
231.393082	147.120000
231.485779	146.520000
231.578506	146.500000
231.671204	146.600000
231.763916	146.220000
231.856613	146.240000
231.949326	146.840000
232.042023	146.720000
232.134735	146.560000
232.227448	146.400000
232.320160	146.380000
232.412872	146.160000
232.505585	146.660000
232.598297	147.360000
232.691010	147.380000
232.783722	147.360000
232.876450	147.940000
232.969162	147.780000
233.061874	146.800000
233.154587	146.700000
233.247314	146.900000
233.340027	146.000000
233.432739	146.280000
233.525467	146.260000
233.618179	146.620000
233.710907	146.080000
233.803635	146.720000
233.896347	146.440000
233.989090	147.200000
234.081818	147.280000
234.174545	147.660000
234.267258	147.160000
234.359985	147.600000
234.452713	147.380000
234.545441	146.980000
234.638168	146.720000
234.730896	147.180000
234.823639	146.640000
234.916367	147.100000
235.009094	147.360000
235.101822	147.360000
235.194580	147.200000
235.287308	147.320000
235.380051	146.560000
235.472778	146.680000
235.565521	146.980000
235.658249	146.540000
235.750992	146.520000
235.843719	146.700000
235.936462	146.760000
236.029205	146.400000
236.121948	146.260000
236.214691	146.480000
236.307449	147.060000
236.400192	146.640000
236.492935	146.600000
236.585678	146.980000
236.678421	146.900000
236.771164	146.720000
236.863907	147.320000
236.956665	147.440000
237.049408	148.840000
237.142151	148.320000
237.234909	148.520000
237.327652	148.420000
237.420410	148.120000
237.513153	147.060000
237.605927	147.020000
237.698669	146.800000
237.791428	146.060000
237.884186	146.600000
237.976944	146.180000
238.069702	146.500000
238.162445	145.960000
238.255203	146.380000
238.347961	146.680000
238.440720	146.920000
238.533478	146.820000
238.626266	146.640000
238.719025	146.880000
238.811783	146.340000
238.904541	145.980000
238.997314	145.780000
239.090073	145.720000
239.182831	146.040000
239.275604	146.940000
239.368362	147.100000
239.461136	147.280000
239.553909	147.400000
239.646667	146.700000
239.739441	145.940000
239.832214	146.100000
239.925003	146.340000
240.017761	147.080000
240.110535	147.820000
240.203308	147.400000
240.296082	146.980000
240.388855	146.740000
240.481628	146.560000
240.574417	146.340000
240.667191	146.440000
240.759964	146.460000
240.852737	146.420000
240.945526	145.920000
241.038315	145.780000
241.131088	146.100000
241.223877	146.760000
241.316650	146.360000
241.409439	146.640000
241.502228	146.120000
241.595001	146.480000
241.687790	145.980000
241.780579	146.580000
241.873367	147.100000
241.966141	147.840000
242.058929	147.000000
242.151718	147.140000
242.244507	147.420000
242.337311	146.440000
242.430099	146.560000
242.522903	147.040000
242.615692	146.540000
242.708481	145.960000
242.801270	146.700000
242.894073	146.400000
242.986862	146.420000
243.079651	147.200000
243.172455	147.220000
243.265244	147.080000
243.358063	146.540000
243.450867	146.720000
243.543655	146.660000
243.636459	146.840000
243.729263	147.100000
243.822067	147.600000
243.914856	147.720000
244.007660	147.560000
244.100464	147.580000
244.193268	146.940000
244.286072	146.740000
244.378876	146.100000
244.471680	145.760000
244.564499	145.920000
244.657318	147.000000
244.750122	147.500000
244.842926	147.260000
244.935745	147.780000
245.028549	147.280000
245.121368	146.340000
245.214172	145.860000
245.306992	146.560000
245.399796	146.160000
245.492615	146.340000
245.585434	146.300000
245.678253	146.200000
245.771072	145.720000
245.863892	146.220000
245.956711	146.680000
246.049530	146.640000
246.142349	146.520000
246.235168	146.860000
246.327988	147.240000
246.420807	146.720000
246.513626	146.900000
246.606445	146.880000
246.699280	146.680000
246.792099	146.200000
246.884918	145.920000
246.977753	145.480000
247.070587	145.540000
247.163422	145.760000
247.256241	145.700000
247.349075	146.160000
247.441895	146.400000
247.534729	146.520000
247.627563	146.400000
247.720383	146.880000
247.813217	146.560000
247.906052	146.520000
247.998886	146.500000
248.091736	146.360000
248.184570	145.680000
248.277405	145.920000
248.370239	146.700000
248.463074	147.620000
248.555908	147.920000
248.648743	147.660000
248.741592	147.820000
248.834427	147.160000
248.927261	145.880000
249.020111	146.140000
249.112946	146.980000
249.205795	146.500000
249.298630	146.540000
249.391495	146.680000
249.484344	146.260000
249.577179	146.040000
249.670029	146.440000
249.762878	146.820000
249.855728	146.780000
249.948563	146.720000
250.041412	145.780000
250.134262	145.920000
250.227112	145.900000
250.319962	145.940000
250.412827	145.700000
250.505692	145.840000
250.598541	145.660000
250.691391	145.360000
250.784241	145.740000
250.877106	145.920000
250.969955	145.980000
251.062805	146.740000
251.155670	147.180000
251.248520	146.860000
251.341385	147.280000
251.434235	147.580000
251.527100	147.020000
251.619965	146.620000
251.712814	147.320000
251.805695	147.020000
251.898560	147.180000
251.991425	147.340000
252.084290	147.480000
252.177155	146.920000
252.270020	146.600000
252.362885	146.480000
252.455750	146.480000
252.548615	146.080000
252.641479	145.960000
252.734360	146.260000
252.827240	146.240000
252.920105	146.220000
253.012970	146.420000
253.105850	146.520000
253.198715	146.080000
253.291595	146.320000
253.384460	145.880000
253.477341	145.580000
253.570221	145.660000
253.663086	145.940000
253.755966	146.100000
253.848846	146.080000
253.941727	146.520000
254.034592	146.440000
254.127472	145.880000
254.220367	145.880000
254.313248	146.140000
254.406128	145.760000
254.499008	146.240000
254.591904	147.180000
254.684784	147.540000
254.777664	147.300000
254.870544	146.860000
254.963440	146.420000
255.056335	146.700000
255.149216	146.180000
255.242111	146.920000
255.334991	147.680000
255.427887	147.640000
255.520767	147.360000
255.613663	147.380000
255.706558	146.320000
255.799438	146.040000
255.892334	145.840000
255.985229	145.560000
256.078125	145.480000
256.171021	145.960000
256.263916	146.500000
256.356812	146.860000
256.449707	146.960000
256.542603	146.880000
256.635498	147.380000
256.728394	146.920000
256.821289	146.740000
256.914215	146.860000
257.007080	147.060000
257.100006	147.020000
257.192932	147.520000
257.285828	147.540000
257.378723	147.260000
257.471619	146.860000
257.564545	146.080000
257.657440	145.980000
257.750336	146.380000
257.843262	145.920000
257.936157	147.200000
258.029053	147.660000
258.121979	147.580000
258.214874	147.140000
258.307800	147.280000
258.400696	145.960000
258.493622	145.860000
258.586517	145.180000
258.679443	145.420000
258.772339	145.260000
258.865265	145.260000
258.958160	144.940000
259.051086	145.660000
259.144012	145.840000
259.236938	146.860000
259.329834	147.040000
259.422791	147.000000
259.515717	146.420000
259.608612	145.840000
259.701538	145.720000
259.794464	145.740000
259.887390	146.000000
259.980316	146.280000
260.073212	146.040000
260.166138	145.000000
260.259064	145.380000
260.351990	145.940000
260.444916	145.580000
260.537842	146.280000
260.630768	147.200000
260.723694	146.980000
260.816620	146.460000
260.909546	146.580000
261.002472	145.820000
261.095398	145.060000
261.188354	145.000000
261.281281	144.560000
261.374207	145.040000
261.467133	145.960000
261.560089	146.160000
261.653015	145.900000
261.745972	146.580000
261.838867	146.640000
261.931824	146.640000
262.024780	146.380000
262.117706	146.660000
262.210663	146.900000
262.303589	146.740000
262.396515	146.700000
262.489471	147.780000
262.582397	147.640000
262.675354	147.040000
262.768280	146.940000
262.861237	146.860000
262.954163	146.520000
263.047119	146.800000
263.140045	146.780000
263.233002	147.040000
263.325958	147.040000
263.418884	146.560000
263.511841	146.360000
263.604797	146.560000
263.697723	145.960000
263.790680	145.560000
263.883636	146.100000
263.976593	146.040000
264.069550	145.880000
264.162476	145.980000
264.255463	146.100000
264.348419	145.780000
264.441376	146.020000
264.534332	145.820000
264.627289	146.120000
264.720245	146.860000
264.813202	146.600000
264.906158	146.520000
264.999115	147.160000
265.092072	146.820000
265.185028	146.780000
265.277985	147.240000
265.370941	147.260000
265.463898	146.840000
265.556854	146.700000
265.649811	145.800000
265.742798	145.380000
265.835754	145.120000
265.928711	145.420000
266.021667	145.760000
266.114655	146.100000
266.207611	146.800000
266.300568	146.600000
266.393585	146.360000
266.486511	146.640000
266.579498	146.300000
266.672485	145.700000
266.765442	145.940000
266.858429	146.280000
266.951385	145.800000
267.044342	146.060000
267.137329	146.140000
267.230316	146.240000
267.323273	145.580000
267.416260	146.320000
267.509216	146.400000
267.602203	146.460000
267.695160	146.740000
267.788147	146.920000
267.881134	146.260000
267.974091	146.180000
268.067078	146.060000
268.160065	145.620000
268.253052	145.180000
268.346008	145.380000
268.438995	145.300000
268.531982	145.480000
268.624969	145.580000
268.717987	146.360000
268.810944	146.300000
268.903961	146.440000
268.996948	146.120000
269.089905	146.580000
269.182892	146.260000
269.275879	146.580000
269.368866	146.180000
269.461853	146.420000
269.554871	146.060000
269.647858	145.960000
269.740845	146.140000
269.833832	146.700000
269.926819	146.460000
270.019806	146.520000
270.112793	146.140000
270.205811	145.940000
270.298798	145.720000
270.391785	146.480000
270.484772	146.420000
270.577789	147.020000
270.670776	146.480000
270.763763	146.180000
270.856750	145.800000
270.949768	145.440000
271.042786	145.660000
271.135773	145.920000
271.228790	146.420000
271.321808	146.120000
271.414795	146.120000
271.507782	145.640000
271.600800	145.280000
271.693817	145.300000
271.786804	145.900000
271.879822	146.080000
271.972809	146.180000
272.065826	146.820000
272.158844	146.280000
272.251831	146.520000
272.344849	146.340000
272.437866	146.120000
272.530853	146.040000
272.623871	146.640000
272.716888	145.400000
272.809906	146.060000
272.902893	146.400000
272.995911	145.960000
273.088928	145.760000
273.181946	146.380000
273.274963	145.920000
273.367981	145.800000
273.460999	146.160000
273.554047	146.440000
273.647003	147.160000
273.740051	147.080000
273.833069	147.400000
273.926086	147.540000
274.019135	147.240000
274.112152	146.480000
274.205170	146.840000
274.298187	146.980000
274.391205	146.240000
274.484222	146.320000
274.577240	146.460000
274.670258	146.100000
274.763306	145.860000
274.856323	146.520000
274.949341	146.340000
275.042358	146.600000
275.135406	146.660000
275.228424	146.540000
275.321442	146.440000
275.414490	146.500000
275.507507	146.500000
275.600525	146.940000
275.693573	146.740000
275.786591	146.520000
275.879669	146.440000
275.972656	146.180000
276.065735	145.920000
276.158752	146.500000
276.251801	147.140000
276.344818	147.440000
276.437866	147.580000
276.530884	147.540000
276.623932	147.000000
276.716980	146.980000
276.809998	146.660000
276.903046	146.500000
276.996094	147.020000
277.089111	147.480000
277.182159	147.520000
277.275208	147.460000
277.368256	147.360000
277.461304	147.140000
277.554321	146.520000
277.647369	146.400000
277.740417	146.440000
277.833466	146.300000
277.926514	145.820000
278.019562	146.460000
278.112610	145.840000
278.205688	146.240000
278.298706	146.620000
278.391785	146.660000
278.484833	146.240000
278.577881	146.060000
278.670929	146.240000
278.763977	146.240000
278.857025	146.620000
278.950073	146.680000
279.043121	146.820000
279.136169	146.580000
279.229248	146.560000
279.322296	146.460000
279.415344	146.220000
279.508392	146.340000
279.601440	146.240000
279.694519	146.040000
279.787567	145.780000
279.880615	145.900000
279.973694	146.060000
280.066742	146.040000
280.159790	146.400000
280.252869	146.300000
280.345917	146.520000
280.438995	146.360000
280.532074	146.280000
280.625122	146.400000
280.718201	147.560000
280.811279	147.360000
280.904327	147.620000
280.997406	147.680000
281.090454	147.460000
281.183533	146.480000
281.276581	146.760000
281.369659	146.400000
281.462738	146.600000
281.555786	146.620000
281.648865	146.800000
281.741943	146.440000
281.835022	147.080000
281.928070	146.780000
282.021149	146.660000
282.114227	146.480000
282.207306	146.740000
282.300385	146.740000
282.393433	147.020000
282.486511	147.020000
282.579590	147.720000
282.672668	147.900000
282.765747	146.980000
282.858856	146.580000
282.951904	146.720000
283.045013	146.460000
283.138062	146.780000
283.231171	147.800000
283.324249	148.100000
283.417328	148.040000
283.510406	147.500000
283.603485	146.860000
283.696564	146.280000
283.789642	146.820000
283.882751	146.660000
283.975830	147.160000
284.068909	146.960000
284.161987	147.580000
284.255066	146.540000
284.348175	146.440000
284.441254	146.180000
284.534332	146.720000
284.627441	146.180000
284.720520	146.000000
284.813599	146.320000
284.906708	146.160000
284.999786	145.100000
285.092896	145.020000
285.185974	146.260000
285.279053	145.740000
285.372192	146.200000
285.465240	147.320000
285.558380	147.060000
285.651459	146.620000
285.744568	147.760000
285.837677	147.340000
285.930756	147.280000
286.023865	147.520000
286.116943	147.000000
286.210052	146.680000
286.303162	146.760000
286.396240	146.460000
286.489349	146.520000
286.582458	146.980000
286.675568	146.360000
286.768646	146.440000
286.861755	146.800000
286.954865	147.160000
287.047974	146.620000
287.141083	146.720000
287.234161	146.480000
287.327271	146.200000
287.420380	146.600000
287.513519	146.660000
287.606598	146.660000
287.699738	146.980000
287.792816	146.880000
287.885956	146.240000
287.979034	146.580000
288.072174	146.720000
288.165283	146.540000
288.258392	146.840000
288.351501	146.380000
288.444611	146.100000
288.537720	146.640000
288.630859	146.360000
288.723969	146.440000
288.817078	147.020000
288.910187	147.220000
289.003296	146.520000
289.096436	146.400000
289.189545	146.120000
289.282654	145.820000
289.375763	146.340000
289.468903	146.760000
289.562012	147.340000
289.655121	147.560000
289.748260	147.560000
289.841400	147.620000
289.934509	147.260000
290.027649	147.320000
290.120728	147.120000
290.213898	147.260000
290.306976	147.000000
290.400146	147.340000
290.493256	146.900000
290.586395	147.080000
290.679535	147.440000
290.772644	146.960000
290.865784	146.080000
290.958893	146.300000
291.052032	146.080000
291.145172	145.800000
291.238281	145.760000
291.331421	146.060000
291.424561	146.600000
291.517670	146.400000
291.610809	146.600000
291.703949	146.720000
291.797089	147.100000
291.890228	146.480000
291.983337	146.760000
292.076477	146.420000
292.169617	146.500000
292.262756	146.440000
292.355927	146.580000
292.449036	146.480000
292.542206	146.900000
292.635315	147.160000
292.728485	147.340000
292.821625	147.000000
292.914764	147.900000
293.007904	147.820000
293.101044	147.620000
293.194183	147.500000
293.287323	147.560000
293.380463	147.000000
293.473602	146.540000
293.566742	146.660000
293.659882	146.980000
293.753021	147.200000
293.846191	147.020000
293.939331	147.000000
294.032471	146.940000
294.125610	146.560000
294.218781	146.960000
294.311920	147.200000
294.405060	147.420000
294.498230	147.340000
294.591370	147.400000
294.684540	146.660000
294.777679	145.980000
294.870850	146.220000
294.963959	146.100000
295.057159	145.640000
295.150299	146.040000
295.243469	146.220000
295.336609	145.660000
295.429779	145.620000
295.522919	146.080000
295.616089	146.020000
295.709229	146.520000
295.802399	146.920000
295.895569	146.540000
295.988708	146.420000
296.081879	146.580000
296.175018	146.080000
296.268188	145.960000
296.361359	146.660000
296.454529	146.680000
296.547668	146.520000
296.640839	146.960000
296.734009	146.560000
296.827179	146.820000
296.920319	146.900000
297.013519	146.780000
297.106659	146.700000
297.199860	146.840000
297.292999	146.600000
297.386200	146.280000
297.479309	145.940000
297.572510	146.020000
297.665680	145.940000
297.758850	146.040000
297.852020	146.380000
297.945190	146.460000
298.038361	145.700000
298.131531	146.660000
298.224701	146.240000
298.317871	146.020000
298.411072	145.920000
298.504242	146.360000
298.597412	145.700000
298.690582	146.060000
298.783752	145.940000
298.876923	146.320000
298.970093	146.260000
299.063293	146.940000
299.156464	147.120000
299.249634	147.520000
299.342834	147.780000
299.436005	148.060000
299.529205	147.620000
299.622345	147.680000
299.715576	147.340000
299.808716	147.000000
299.901917	147.180000
299.995117	147.200000
300.088287	147.060000
300.181488	147.040000
300.274658	147.100000
300.367828	146.940000
300.461029	147.060000
300.554199	147.160000
300.647400	146.940000
300.740601	147.500000
300.833771	147.080000
300.926971	147.180000
301.020142	146.580000
301.113342	146.640000
301.206512	146.180000
301.299713	146.560000
301.392914	146.300000
301.486084	146.840000
301.579285	146.780000
301.672516	147.220000
301.765686	147.040000
301.858887	146.940000
301.952057	146.920000
302.045288	147.120000
302.138458	146.920000
302.231659	146.860000
302.324860	146.700000
302.418060	146.260000
302.511261	146.380000
302.604462	146.480000
302.697662	146.320000
302.790863	146.440000
302.884064	146.180000
302.977264	145.880000
303.070465	145.620000
303.163666	146.480000
303.256866	146.680000
303.350067	147.020000
303.443268	147.080000
303.536469	147.300000
303.629669	146.420000
303.722870	146.440000
303.816071	145.860000
303.909271	146.040000
304.002472	145.380000
304.095673	144.920000
304.188934	144.160000
304.282104	145.300000
304.375336	145.340000
304.468506	145.360000
304.561768	145.640000
304.654968	146.440000
304.748169	146.280000
304.841370	146.080000
304.934601	146.660000
305.027802	146.640000
305.121002	145.960000
305.214233	145.380000
305.307434	145.360000
305.400665	145.680000
305.493866	145.840000
