Model Number: SPM-002-B   
Serial Number: 70087108
Firmware Version: 004.15.4
Exposure Time: 100000.000000us
Data Taken on: 11-12-2020 19:28:37.881
Wavelength	Amplitude
221.570786	0.000000
221.663406	0.000000
221.756027	0.000000
221.848648	0.000000
221.941269	0.000000
222.033905	0.000000
222.126526	0.000000
222.219162	0.000000
222.311798	0.000000
222.404419	0.000000
222.497055	0.000000
222.589676	0.000000
222.682312	0.000000
222.774933	0.000000
222.867569	0.000000
222.960205	0.000000
223.052841	0.000000
223.145462	0.000000
223.238098	0.000000
223.330734	0.000000
223.423386	0.000000
223.516022	0.000000
223.608658	0.000000
223.701309	0.000000
223.793945	0.000000
223.886581	0.000000
223.979218	0.000000
224.071869	0.000000
224.164505	0.000000
224.257156	0.000000
224.349792	0.000000
224.442444	0.000000
224.535095	0.000000
224.627747	0.000000
224.720398	0.000000
224.813034	0.000000
224.905685	0.000000
224.998337	144.880000
225.090988	144.520000
225.183640	144.440000
225.276291	144.180000
225.368942	144.360000
225.461594	144.900000
225.554245	145.400000
225.646912	145.420000
225.739578	146.200000
225.832230	146.440000
225.924896	145.900000
226.017548	146.100000
226.110199	146.880000
226.202866	145.940000
226.295532	146.020000
226.388184	145.980000
226.480850	145.380000
226.573517	144.720000
226.666168	145.140000
226.758835	145.240000
226.851501	145.760000
226.944183	146.020000
227.036850	145.560000
227.129517	145.620000
227.222183	145.640000
227.314850	145.500000
227.407516	145.500000
227.500198	146.580000
227.592865	145.840000
227.685532	145.680000
227.778214	145.460000
227.870880	145.840000
227.963562	145.780000
228.056229	146.820000
228.148926	146.960000
228.241592	147.660000
228.334274	147.160000
228.426956	146.780000
228.519638	146.520000
228.612305	145.820000
228.704987	145.380000
228.797668	145.640000
228.890350	145.360000
228.983032	144.540000
229.075714	145.380000
229.168396	145.180000
229.261108	144.840000
229.353790	145.180000
229.446472	145.660000
229.539169	145.380000
229.631851	145.000000
229.724533	145.380000
229.817230	145.500000
229.909912	146.660000
230.002609	146.560000
230.095306	146.740000
230.187988	146.800000
230.280685	146.220000
230.373383	144.820000
230.466095	144.520000
230.558792	144.640000
230.651474	144.580000
230.744171	144.600000
230.836868	144.540000
230.929581	144.960000
231.022278	144.960000
231.114975	144.940000
231.207672	145.000000
231.300369	145.640000
231.393082	145.520000
231.485779	145.520000
231.578506	145.200000
231.671204	145.420000
231.763916	145.240000
231.856613	145.220000
231.949326	145.620000
232.042023	145.540000
232.134735	145.300000
232.227448	145.060000
232.320160	145.260000
232.412872	145.000000
232.505585	146.020000
232.598297	146.620000
232.691010	146.360000
232.783722	145.740000
232.876450	146.060000
232.969162	145.260000
233.061874	144.640000
233.154587	144.540000
233.247314	145.000000
233.340027	144.280000
233.432739	144.660000
233.525467	144.540000
233.618179	145.280000
233.710907	144.880000
233.803635	145.400000
233.896347	145.260000
233.989090	145.940000
234.081818	145.620000
234.174545	146.220000
234.267258	146.020000
234.359985	145.980000
234.452713	145.800000
234.545441	145.740000
234.638168	145.100000
234.730896	145.320000
234.823639	145.240000
234.916367	145.620000
235.009094	145.980000
235.101822	146.320000
235.194580	146.140000
235.287308	145.940000
235.380051	145.260000
235.472778	145.000000
235.565521	145.360000
235.658249	145.140000
235.750992	145.440000
235.843719	145.480000
235.936462	145.820000
236.029205	145.280000
236.121948	145.100000
236.214691	145.420000
236.307449	145.860000
236.400192	145.520000
236.492935	145.460000
236.585678	145.780000
236.678421	145.400000
236.771164	145.380000
236.863907	145.880000
236.956665	146.240000
237.049408	147.740000
237.142151	147.360000
237.234909	147.660000
237.327652	147.460000
237.420410	147.200000
237.513153	146.260000
237.605927	146.380000
237.698669	145.940000
237.791428	145.420000
237.884186	145.820000
237.976944	145.060000
238.069702	145.440000
238.162445	144.940000
238.255203	145.100000
238.347961	145.460000
238.440720	145.880000
238.533478	145.620000
238.626266	145.740000
238.719025	146.080000
238.811783	145.800000
238.904541	145.540000
238.997314	145.460000
239.090073	145.380000
239.182831	145.400000
239.275604	145.900000
239.368362	145.720000
239.461136	145.920000
239.553909	145.860000
239.646667	145.460000
239.739441	144.960000
239.832214	145.320000
239.925003	145.520000
240.017761	146.280000
240.110535	147.020000
240.203308	146.680000
240.296082	146.460000
240.388855	146.200000
240.481628	146.120000
240.574417	146.100000
240.667191	146.220000
240.759964	146.320000
240.852737	146.420000
240.945526	145.820000
241.038315	145.140000
241.131088	145.160000
241.223877	145.280000
241.316650	144.840000
241.409439	145.280000
241.502228	145.420000
241.595001	145.960000
241.687790	145.980000
241.780579	146.440000
241.873367	146.660000
241.966141	146.620000
242.058929	145.900000
242.151718	146.060000
242.244507	146.100000
242.337311	145.280000
242.430099	145.820000
242.522903	146.060000
242.615692	145.500000
242.708481	145.560000
242.801270	146.160000
242.894073	145.840000
242.986862	145.840000
243.079651	146.460000
243.172455	145.960000
243.265244	145.800000
243.358063	145.180000
243.450867	145.480000
243.543655	145.280000
243.636459	145.800000
243.729263	146.120000
243.822067	146.960000
243.914856	147.200000
244.007660	147.440000
244.100464	147.280000
244.193268	146.640000
244.286072	146.180000
244.378876	145.560000
244.471680	145.020000
244.564499	144.940000
244.657318	145.820000
244.750122	146.400000
244.842926	146.020000
244.935745	146.500000
245.028549	146.280000
245.121368	145.800000
245.214172	145.400000
245.306992	145.800000
245.399796	145.420000
245.492615	145.660000
245.585434	145.560000
245.678253	145.340000
245.771072	145.520000
245.863892	145.960000
245.956711	146.240000
246.049530	145.960000
246.142349	145.940000
246.235168	145.740000
246.327988	145.940000
246.420807	145.520000
246.513626	145.980000
246.606445	145.800000
246.699280	145.860000
246.792099	145.640000
246.884918	145.560000
246.977753	144.920000
247.070587	145.140000
247.163422	145.220000
247.256241	145.180000
247.349075	145.360000
247.441895	145.860000
247.534729	145.900000
247.627563	145.480000
247.720383	146.020000
247.813217	145.980000
247.906052	145.660000
247.998886	145.840000
248.091736	146.040000
248.184570	145.340000
248.277405	145.640000
248.370239	146.620000
248.463074	147.120000
248.555908	147.260000
248.648743	147.240000
248.741592	147.100000
248.834427	146.280000
248.927261	145.380000
249.020111	145.860000
249.112946	146.320000
249.205795	145.980000
249.298630	146.220000
249.391495	146.200000
249.484344	145.660000
249.577179	145.260000
249.670029	145.660000
249.762878	146.080000
249.855728	146.660000
249.948563	146.760000
250.041412	146.500000
250.134262	146.600000
250.227112	146.400000
250.319962	146.080000
250.412827	145.980000
250.505692	145.700000
250.598541	145.500000
250.691391	145.160000
250.784241	145.640000
250.877106	145.660000
250.969955	145.480000
251.062805	145.900000
251.155670	146.500000
251.248520	145.820000
251.341385	145.940000
251.434235	146.140000
251.527100	145.760000
251.619965	145.260000
251.712814	146.120000
251.805695	146.280000
251.898560	146.780000
251.991425	147.060000
252.084290	147.440000
252.177155	146.600000
252.270020	146.220000
252.362885	146.040000
252.455750	145.600000
252.548615	144.860000
252.641479	144.840000
252.734360	144.840000
252.827240	144.900000
252.920105	145.480000
253.012970	145.560000
253.105850	145.560000
253.198715	145.260000
253.291595	145.120000
253.384460	144.560000
253.477341	144.760000
253.570221	144.920000
253.663086	144.880000
253.755966	145.500000
253.848846	145.440000
253.941727	145.540000
254.034592	145.520000
254.127472	145.200000
254.220367	144.700000
254.313248	145.060000
254.406128	144.340000
254.499008	144.360000
254.591904	145.200000
254.684784	145.940000
254.777664	145.680000
254.870544	146.060000
254.963440	146.020000
255.056335	146.200000
255.149216	145.660000
255.242111	146.520000
255.334991	146.760000
255.427887	147.080000
255.520767	147.120000
255.613663	147.080000
255.706558	146.100000
255.799438	146.140000
255.892334	145.580000
255.985229	145.300000
256.078125	145.140000
256.171021	145.360000
256.263916	145.540000
256.356812	146.100000
256.449707	146.260000
256.542603	146.140000
256.635498	146.500000
256.728394	146.140000
256.821289	145.620000
256.914215	145.800000
257.007080	146.020000
257.100006	146.000000
257.192932	146.300000
257.285828	146.940000
257.378723	146.500000
257.471619	146.600000
257.564545	146.140000
257.657440	146.220000
257.750336	146.460000
257.843262	146.440000
257.936157	147.360000
258.029053	147.800000
258.121979	147.900000
258.214874	147.480000
258.307800	147.280000
258.400696	146.060000
258.493622	145.740000
258.586517	145.020000
258.679443	145.400000
258.772339	145.400000
258.865265	145.360000
258.958160	145.080000
259.051086	146.100000
259.144012	145.640000
259.236938	146.280000
259.329834	146.580000
259.422791	146.580000
259.515717	145.640000
259.608612	145.680000
259.701538	145.620000
259.794464	145.380000
259.887390	145.400000
259.980316	145.380000
260.073212	145.020000
260.166138	144.220000
260.259064	144.340000
260.351990	144.920000
260.444916	145.240000
260.537842	145.700000
260.630768	146.420000
260.723694	146.660000
260.816620	146.260000
260.909546	146.180000
261.002472	145.600000
261.095398	144.900000
261.188354	144.760000
261.281281	144.400000
261.374207	144.480000
261.467133	145.240000
261.560089	145.520000
261.653015	145.360000
261.745972	146.400000
261.838867	146.640000
261.931824	146.540000
262.024780	146.160000
262.117706	146.400000
262.210663	145.800000
262.303589	145.580000
262.396515	145.500000
262.489471	146.560000
262.582397	146.320000
262.675354	146.420000
262.768280	146.540000
262.861237	146.440000
262.954163	146.180000
263.047119	146.420000
263.140045	145.980000
263.233002	146.080000
263.325958	146.080000
263.418884	145.620000
263.511841	145.500000
263.604797	145.760000
263.697723	145.780000
263.790680	145.400000
263.883636	146.060000
263.976593	145.920000
264.069550	145.840000
264.162476	145.300000
264.255463	145.680000
264.348419	145.060000
264.441376	145.220000
264.534332	145.100000
264.627289	145.360000
264.720245	145.660000
264.813202	145.540000
264.906158	145.640000
264.999115	146.160000
265.092072	146.020000
265.185028	146.560000
265.277985	146.680000
265.370941	146.560000
265.463898	145.940000
265.556854	145.760000
265.649811	144.640000
265.742798	144.600000
265.835754	144.720000
265.928711	145.360000
266.021667	145.700000
266.114655	146.320000
266.207611	146.880000
266.300568	146.060000
266.393585	145.860000
266.486511	146.300000
266.579498	145.400000
266.672485	145.280000
266.765442	145.600000
266.858429	145.580000
266.951385	144.700000
267.044342	144.920000
267.137329	144.400000
267.230316	144.760000
267.323273	144.380000
267.416260	145.240000
267.509216	145.220000
267.602203	145.460000
267.695160	145.600000
267.788147	145.640000
267.881134	144.840000
267.974091	145.200000
268.067078	145.140000
268.160065	145.100000
268.253052	145.320000
268.346008	145.780000
268.438995	145.640000
268.531982	145.700000
268.624969	145.240000
268.717987	145.340000
268.810944	145.180000
268.903961	145.480000
268.996948	145.140000
269.089905	145.960000
269.182892	146.120000
269.275879	146.220000
269.368866	145.560000
269.461853	145.960000
269.554871	145.480000
269.647858	145.240000
269.740845	145.420000
269.833832	145.960000
269.926819	145.620000
270.019806	145.860000
270.112793	145.520000
270.205811	145.480000
270.298798	145.200000
270.391785	145.740000
270.484772	145.420000
270.577789	145.880000
270.670776	145.500000
270.763763	145.420000
270.856750	145.280000
270.949768	145.240000
271.042786	145.140000
271.135773	145.680000
271.228790	146.080000
271.321808	145.460000
271.414795	145.040000
271.507782	144.700000
271.600800	143.920000
271.693817	143.720000
271.786804	144.540000
271.879822	145.040000
271.972809	145.140000
272.065826	146.000000
272.158844	145.680000
272.251831	145.960000
272.344849	145.660000
272.437866	145.640000
272.530853	145.560000
272.623871	145.820000
272.716888	144.680000
272.809906	145.240000
272.902893	145.280000
272.995911	144.560000
273.088928	144.560000
273.181946	145.300000
273.274963	144.620000
273.367981	144.560000
273.460999	145.020000
273.554047	145.420000
273.647003	145.800000
273.740051	146.440000
273.833069	147.060000
273.926086	147.260000
274.019135	146.840000
274.112152	146.400000
274.205170	146.180000
274.298187	146.100000
274.391205	145.360000
274.484222	145.680000
274.577240	145.800000
274.670258	145.720000
274.763306	145.460000
274.856323	146.380000
274.949341	146.360000
275.042358	146.640000
275.135406	146.460000
275.228424	146.420000
275.321442	146.060000
275.414490	145.640000
275.507507	145.660000
275.600525	146.340000
275.693573	146.160000
275.786591	145.940000
275.879669	146.200000
275.972656	145.780000
276.065735	145.500000
276.158752	146.000000
276.251801	146.660000
276.344818	146.800000
276.437866	146.700000
276.530884	146.300000
276.623932	145.380000
276.716980	145.180000
276.809998	145.260000
276.903046	145.320000
276.996094	146.420000
277.089111	147.520000
277.182159	147.940000
277.275208	147.360000
277.368256	147.060000
277.461304	146.380000
277.554321	145.560000
277.647369	145.180000
277.740417	145.520000
277.833466	145.820000
277.926514	145.660000
278.019562	146.140000
278.112610	145.480000
278.205688	145.720000
278.298706	145.940000
278.391785	145.980000
278.484833	145.860000
278.577881	145.960000
278.670929	146.040000
278.763977	145.960000
278.857025	146.260000
278.950073	146.080000
279.043121	145.980000
279.136169	145.700000
279.229248	145.340000
279.322296	144.980000
279.415344	144.960000
279.508392	144.980000
279.601440	145.040000
279.694519	145.080000
279.787567	145.020000
279.880615	144.940000
279.973694	144.920000
280.066742	144.840000
280.159790	145.140000
280.252869	145.020000
280.345917	145.120000
280.438995	145.180000
280.532074	145.120000
280.625122	145.300000
280.718201	146.180000
280.811279	146.400000
280.904327	146.540000
280.997406	146.740000
281.090454	146.600000
281.183533	145.920000
281.276581	145.900000
281.369659	145.520000
281.462738	145.720000
281.555786	145.520000
281.648865	145.720000
281.741943	145.520000
281.835022	146.380000
281.928070	146.060000
282.021149	146.040000
282.114227	146.000000
282.207306	145.720000
282.300385	145.760000
282.393433	145.800000
282.486511	145.800000
282.579590	146.020000
282.672668	146.660000
282.765747	145.880000
282.858856	145.580000
282.951904	145.880000
283.045013	145.960000
283.138062	146.020000
283.231171	146.480000
283.324249	146.900000
283.417328	147.080000
283.510406	146.780000
283.603485	146.600000
283.696564	146.420000
283.789642	146.480000
283.882751	145.840000
283.975830	146.200000
284.068909	145.760000
284.161987	146.500000
284.255066	145.800000
284.348175	146.220000
284.441254	145.660000
284.534332	146.440000
284.627441	145.620000
284.720520	145.600000
284.813599	145.480000
284.906708	145.900000
284.999786	145.240000
285.092896	144.920000
285.185974	146.140000
285.279053	145.740000
285.372192	145.700000
285.465240	146.400000
285.558380	146.620000
285.651459	145.660000
285.744568	146.620000
285.837677	145.920000
285.930756	145.680000
286.023865	145.960000
286.116943	145.640000
286.210052	145.440000
286.303162	145.880000
286.396240	145.800000
286.489349	145.580000
286.582458	146.200000
286.675568	146.040000
286.768646	146.040000
286.861755	146.000000
286.954865	146.800000
287.047974	146.400000
287.141083	146.180000
287.234161	145.680000
287.327271	145.460000
287.420380	145.400000
287.513519	145.320000
287.606598	145.220000
287.699738	145.940000
287.792816	146.000000
287.885956	145.700000
287.979034	145.740000
288.072174	145.860000
288.165283	145.300000
288.258392	145.560000
288.351501	144.860000
288.444611	145.340000
288.537720	145.720000
288.630859	146.040000
288.723969	145.900000
288.817078	146.520000
288.910187	146.400000
289.003296	145.820000
289.096436	145.460000
289.189545	145.340000
289.282654	144.760000
289.375763	145.180000
289.468903	145.680000
289.562012	146.060000
289.655121	146.120000
289.748260	146.520000
289.841400	146.520000
289.934509	146.260000
290.027649	146.300000
290.120728	146.200000
290.213898	146.360000
290.306976	146.060000
290.400146	146.100000
290.493256	145.640000
290.586395	145.640000
290.679535	145.500000
290.772644	145.360000
290.865784	144.600000
290.958893	144.960000
291.052032	144.880000
291.145172	144.860000
291.238281	144.580000
291.331421	145.040000
291.424561	145.780000
291.517670	145.880000
291.610809	146.200000
291.703949	146.200000
291.797089	146.380000
291.890228	145.240000
291.983337	144.960000
292.076477	144.720000
292.169617	145.080000
292.262756	145.180000
292.355927	145.400000
292.449036	145.220000
292.542206	145.300000
292.635315	145.500000
292.728485	145.560000
292.821625	145.340000
292.914764	146.500000
293.007904	146.400000
293.101044	146.020000
293.194183	145.700000
293.287323	146.000000
293.380463	145.320000
293.473602	145.320000
293.566742	145.640000
293.659882	146.040000
293.753021	146.240000
293.846191	146.160000
293.939331	145.980000
294.032471	145.900000
294.125610	145.520000
294.218781	145.580000
294.311920	145.780000
294.405060	146.000000
294.498230	146.000000
294.591370	146.300000
294.684540	145.700000
294.777679	145.280000
294.870850	145.620000
294.963959	145.300000
295.057159	144.940000
295.150299	145.480000
295.243469	145.600000
295.336609	144.740000
295.429779	144.900000
295.522919	145.460000
295.616089	145.440000
295.709229	146.420000
295.802399	146.880000
295.895569	146.360000
295.988708	146.200000
296.081879	146.400000
296.175018	145.300000
296.268188	145.140000
296.361359	146.320000
296.454529	146.240000
296.547668	146.080000
296.640839	146.820000
296.734009	146.560000
296.827179	146.320000
296.920319	146.360000
297.013519	145.900000
297.106659	145.620000
297.199860	145.860000
297.292999	145.600000
297.386200	145.380000
297.479309	145.640000
297.572510	145.700000
297.665680	145.760000
297.758850	145.800000
297.852020	146.240000
297.945190	146.340000
298.038361	146.020000
298.131531	146.700000
298.224701	146.340000
298.317871	145.660000
298.411072	145.100000
298.504242	145.280000
298.597412	144.920000
298.690582	145.180000
298.783752	145.320000
298.876923	145.940000
298.970093	145.860000
299.063293	145.920000
299.156464	146.480000
299.249634	146.860000
299.342834	146.740000
299.436005	147.060000
299.529205	146.920000
299.622345	146.380000
299.715576	145.800000
299.808716	145.780000
299.901917	145.580000
299.995117	145.600000
300.088287	145.620000
300.181488	145.760000
300.274658	145.780000
300.367828	145.840000
300.461029	145.600000
300.554199	145.960000
300.647400	146.220000
300.740601	146.620000
300.833771	146.300000
300.926971	146.860000
301.020142	146.280000
301.113342	145.960000
301.206512	145.660000
301.299713	146.080000
301.392914	145.880000
301.486084	146.400000
301.579285	146.580000
301.672516	146.840000
301.765686	146.500000
301.858887	146.300000
301.952057	146.000000
302.045288	145.820000
302.138458	145.580000
302.231659	145.160000
302.324860	145.120000
302.418060	145.040000
302.511261	145.140000
302.604462	145.280000
302.697662	145.560000
302.790863	145.560000
302.884064	145.420000
302.977264	145.600000
303.070465	145.980000
303.163666	146.760000
303.256866	147.060000
303.350067	147.240000
303.443268	147.100000
303.536469	146.600000
303.629669	145.860000
303.722870	146.060000
303.816071	145.820000
303.909271	145.820000
304.002472	145.300000
304.095673	145.240000
304.188934	144.340000
304.282104	145.200000
304.375336	145.140000
304.468506	145.400000
304.561768	145.360000
304.654968	145.840000
304.748169	145.000000
304.841370	144.820000
304.934601	145.140000
305.027802	145.080000
305.121002	144.740000
305.214233	145.060000
305.307434	145.200000
305.400665	145.680000
305.493866	145.740000
