Model Number: SPM-002-B   
Serial Number: 70087108
Firmware Version: 004.15.4
Exposure Time: 100000.000000us
Data Taken on: 11-12-2020 19:29:04.149
Wavelength	Amplitude
221.570786	0.000000
221.663406	0.000000
221.756027	0.000000
221.848648	0.000000
221.941269	0.000000
222.033905	0.000000
222.126526	0.000000
222.219162	0.000000
222.311798	0.000000
222.404419	0.000000
222.497055	0.000000
222.589676	0.000000
222.682312	0.000000
222.774933	0.000000
222.867569	0.000000
222.960205	0.000000
223.052841	0.000000
223.145462	0.000000
223.238098	0.000000
223.330734	0.000000
223.423386	0.000000
223.516022	0.000000
223.608658	0.000000
223.701309	0.000000
223.793945	0.000000
223.886581	0.000000
223.979218	0.000000
224.071869	0.000000
224.164505	0.000000
224.257156	0.000000
224.349792	0.000000
224.442444	0.000000
224.535095	0.000000
224.627747	0.000000
224.720398	0.000000
224.813034	0.000000
224.905685	0.000000
224.998337	145.400000
225.090988	145.440000
225.183640	145.200000
225.276291	144.880000
225.368942	145.520000
225.461594	146.040000
225.554245	146.380000
225.646912	146.380000
225.739578	146.660000
225.832230	146.820000
225.924896	146.060000
226.017548	146.000000
226.110199	146.520000
226.202866	145.940000
226.295532	145.380000
226.388184	145.300000
226.480850	144.980000
226.573517	144.200000
226.666168	144.600000
226.758835	145.240000
226.851501	146.020000
226.944183	146.280000
227.036850	146.120000
227.129517	146.380000
227.222183	146.120000
227.314850	145.800000
227.407516	146.020000
227.500198	147.240000
227.592865	146.660000
227.685532	146.440000
227.778214	146.300000
227.870880	146.160000
227.963562	145.860000
228.056229	146.420000
228.148926	146.360000
228.241592	147.100000
228.334274	146.820000
228.426956	146.600000
228.519638	146.740000
228.612305	146.440000
228.704987	146.300000
228.797668	146.240000
228.890350	146.180000
228.983032	145.220000
229.075714	146.100000
229.168396	145.440000
229.261108	145.320000
229.353790	145.540000
229.446472	146.180000
229.539169	146.000000
229.631851	145.800000
229.724533	146.220000
229.817230	146.160000
229.909912	146.780000
230.002609	146.340000
230.095306	146.620000
230.187988	146.680000
230.280685	146.600000
230.373383	145.360000
230.466095	145.300000
230.558792	145.900000
230.651474	145.940000
230.744171	145.640000
230.836868	145.920000
230.929581	146.300000
231.022278	145.860000
231.114975	146.000000
231.207672	146.160000
231.300369	146.480000
231.393082	146.700000
231.485779	146.660000
231.578506	146.240000
231.671204	146.040000
231.763916	146.160000
231.856613	145.640000
231.949326	145.840000
232.042023	145.780000
232.134735	146.000000
232.227448	145.700000
232.320160	145.920000
232.412872	145.520000
232.505585	146.140000
232.598297	146.720000
232.691010	146.520000
232.783722	146.340000
232.876450	147.100000
232.969162	146.560000
233.061874	145.860000
233.154587	145.880000
233.247314	146.440000
233.340027	145.800000
233.432739	146.080000
233.525467	146.200000
233.618179	146.400000
233.710907	145.860000
233.803635	146.120000
233.896347	146.040000
233.989090	146.480000
234.081818	146.400000
234.174545	146.520000
234.267258	146.020000
234.359985	146.020000
234.452713	145.720000
234.545441	145.700000
234.638168	145.740000
234.730896	146.380000
234.823639	146.280000
234.916367	146.640000
235.009094	146.620000
235.101822	146.620000
235.194580	146.640000
235.287308	146.560000
235.380051	145.800000
235.472778	146.140000
235.565521	146.280000
235.658249	145.480000
235.750992	145.680000
235.843719	145.980000
235.936462	146.020000
236.029205	145.620000
236.121948	145.920000
236.214691	146.280000
236.307449	146.900000
236.400192	146.360000
236.492935	146.500000
236.585678	146.840000
236.678421	146.740000
236.771164	146.400000
236.863907	147.300000
236.956665	147.380000
237.049408	148.580000
237.142151	148.140000
237.234909	148.480000
237.327652	148.080000
237.420410	147.780000
237.513153	147.060000
237.605927	146.820000
237.698669	146.540000
237.791428	146.180000
237.884186	146.680000
237.976944	145.880000
238.069702	146.580000
238.162445	145.860000
238.255203	146.000000
238.347961	146.380000
238.440720	146.500000
238.533478	146.040000
238.626266	146.240000
238.719025	146.640000
238.811783	146.000000
238.904541	145.800000
238.997314	145.920000
239.090073	145.640000
239.182831	145.680000
239.275604	146.420000
239.368362	146.420000
239.461136	146.360000
239.553909	146.320000
239.646667	145.780000
239.739441	145.180000
239.832214	145.700000
239.925003	145.880000
240.017761	146.820000
240.110535	147.500000
240.203308	147.180000
240.296082	147.080000
240.388855	146.900000
240.481628	146.840000
240.574417	146.740000
240.667191	146.980000
240.759964	146.600000
240.852737	146.460000
240.945526	145.780000
241.038315	145.420000
241.131088	145.580000
241.223877	145.840000
241.316650	145.680000
241.409439	146.220000
241.502228	145.760000
241.595001	146.020000
241.687790	146.080000
241.780579	146.200000
241.873367	146.020000
241.966141	146.520000
242.058929	145.860000
242.151718	145.760000
242.244507	146.180000
242.337311	145.520000
242.430099	146.080000
242.522903	146.580000
242.615692	146.260000
242.708481	146.160000
242.801270	147.080000
242.894073	146.720000
242.986862	147.040000
243.079651	147.720000
243.172455	147.540000
243.265244	147.380000
243.358063	146.940000
243.450867	146.640000
243.543655	146.260000
243.636459	146.340000
243.729263	146.580000
243.822067	147.100000
243.914856	147.420000
244.007660	147.360000
244.100464	147.100000
244.193268	146.560000
244.286072	146.260000
244.378876	145.560000
244.471680	145.620000
244.564499	145.900000
244.657318	146.720000
244.750122	146.820000
244.842926	146.500000
244.935745	146.780000
245.028549	146.480000
245.121368	145.980000
245.214172	145.800000
245.306992	146.340000
245.399796	145.880000
245.492615	146.240000
245.585434	146.100000
245.678253	146.240000
245.771072	146.180000
245.863892	146.600000
245.956711	146.540000
246.049530	146.300000
246.142349	146.000000
246.235168	145.920000
246.327988	146.160000
246.420807	146.200000
246.513626	146.060000
246.606445	145.980000
246.699280	145.940000
246.792099	145.680000
246.884918	145.280000
246.977753	145.180000
247.070587	145.620000
247.163422	145.880000
247.256241	145.720000
247.349075	146.240000
247.441895	146.560000
247.534729	146.380000
247.627563	146.160000
247.720383	146.580000
247.813217	146.420000
247.906052	146.320000
247.998886	146.300000
248.091736	146.260000
248.184570	145.900000
248.277405	145.940000
248.370239	146.660000
248.463074	147.760000
248.555908	147.880000
248.648743	147.800000
248.741592	147.840000
248.834427	147.320000
248.927261	146.020000
249.020111	146.440000
249.112946	147.120000
249.205795	146.720000
249.298630	146.800000
249.391495	147.160000
249.484344	146.880000
249.577179	146.700000
249.670029	147.020000
249.762878	147.320000
249.855728	147.180000
249.948563	147.040000
250.041412	146.380000
250.134262	146.500000
250.227112	146.480000
250.319962	146.620000
250.412827	146.760000
250.505692	146.680000
250.598541	146.720000
250.691391	146.320000
250.784241	146.140000
250.877106	146.000000
250.969955	145.760000
251.062805	146.160000
251.155670	146.880000
251.248520	146.740000
251.341385	146.900000
251.434235	147.020000
251.527100	146.400000
251.619965	145.600000
251.712814	146.700000
251.805695	146.580000
251.898560	147.080000
251.991425	147.480000
252.084290	147.560000
252.177155	146.440000
252.270020	146.420000
252.362885	146.180000
252.455750	145.980000
252.548615	146.080000
252.641479	146.120000
252.734360	146.020000
252.827240	146.060000
252.920105	146.120000
253.012970	145.640000
253.105850	145.740000
253.198715	145.620000
253.291595	145.500000
253.384460	144.920000
253.477341	145.260000
253.570221	145.340000
253.663086	145.180000
253.755966	145.600000
253.848846	145.920000
253.941727	146.140000
254.034592	145.860000
254.127472	145.440000
254.220367	145.440000
254.313248	145.640000
254.406128	145.120000
254.499008	145.700000
254.591904	146.880000
254.684784	147.340000
254.777664	147.160000
254.870544	147.220000
254.963440	146.780000
255.056335	146.520000
255.149216	145.740000
255.242111	146.360000
255.334991	147.000000
255.427887	147.180000
255.520767	147.200000
255.613663	147.700000
255.706558	146.720000
255.799438	146.220000
255.892334	146.040000
255.985229	146.100000
256.078125	145.740000
256.171021	146.100000
256.263916	146.480000
256.356812	146.700000
256.449707	146.700000
256.542603	146.540000
256.635498	147.040000
256.728394	146.780000
256.821289	146.880000
256.914215	146.980000
257.007080	147.240000
257.100006	147.200000
257.192932	147.500000
257.285828	147.220000
257.378723	146.860000
257.471619	146.980000
257.564545	146.140000
257.657440	146.400000
257.750336	147.160000
257.843262	147.060000
257.936157	147.700000
258.029053	148.280000
258.121979	148.140000
258.214874	147.480000
258.307800	147.520000
258.400696	146.540000
258.493622	146.500000
258.586517	145.600000
258.679443	145.860000
258.772339	145.360000
258.865265	145.300000
258.958160	144.960000
259.051086	145.660000
259.144012	145.500000
259.236938	146.580000
259.329834	146.860000
259.422791	146.840000
259.515717	146.540000
259.608612	146.300000
259.701538	146.200000
259.794464	145.940000
259.887390	145.800000
259.980316	145.680000
260.073212	145.740000
260.166138	144.860000
260.259064	145.380000
260.351990	146.120000
260.444916	146.140000
260.537842	146.840000
260.630768	147.340000
260.723694	146.940000
260.816620	146.560000
260.909546	147.060000
261.002472	146.080000
261.095398	145.740000
261.188354	145.860000
261.281281	145.560000
261.374207	145.260000
261.467133	146.240000
261.560089	146.760000
261.653015	146.380000
261.745972	147.140000
261.838867	147.600000
261.931824	147.400000
262.024780	146.800000
262.117706	147.300000
262.210663	147.080000
262.303589	146.600000
262.396515	146.660000
262.489471	147.660000
262.582397	147.200000
262.675354	146.580000
262.768280	146.480000
262.861237	146.180000
262.954163	145.740000
263.047119	146.120000
263.140045	146.260000
263.233002	146.500000
263.325958	146.360000
263.418884	145.720000
263.511841	145.540000
263.604797	145.720000
263.697723	145.660000
263.790680	145.580000
263.883636	146.520000
263.976593	146.340000
264.069550	146.500000
264.162476	146.160000
264.255463	146.300000
264.348419	145.920000
264.441376	146.380000
264.534332	145.920000
264.627289	146.160000
264.720245	146.720000
264.813202	146.140000
264.906158	146.140000
264.999115	146.500000
265.092072	146.720000
265.185028	146.760000
265.277985	147.320000
265.370941	146.920000
265.463898	146.680000
265.556854	146.320000
265.649811	145.560000
265.742798	145.140000
265.835754	145.380000
265.928711	146.000000
266.021667	146.060000
266.114655	146.200000
266.207611	146.900000
266.300568	146.160000
266.393585	145.680000
266.486511	146.000000
266.579498	145.380000
266.672485	145.100000
266.765442	145.260000
266.858429	145.960000
266.951385	145.360000
267.044342	145.860000
267.137329	145.700000
267.230316	146.220000
267.323273	145.420000
267.416260	146.260000
267.509216	146.280000
267.602203	146.540000
267.695160	147.100000
267.788147	147.280000
267.881134	146.380000
267.974091	146.340000
268.067078	145.780000
268.160065	144.780000
268.253052	144.240000
268.346008	144.820000
268.438995	144.740000
268.531982	145.040000
268.624969	145.300000
268.717987	145.940000
268.810944	145.720000
268.903961	145.880000
268.996948	145.620000
269.089905	146.220000
269.182892	146.240000
269.275879	146.760000
269.368866	146.440000
269.461853	146.940000
269.554871	146.640000
269.647858	146.520000
269.740845	146.420000
269.833832	146.940000
269.926819	146.380000
270.019806	146.460000
270.112793	146.340000
270.205811	146.460000
270.298798	146.020000
270.391785	146.960000
270.484772	146.320000
270.577789	146.440000
270.670776	145.740000
270.763763	145.920000
270.856750	145.560000
270.949768	145.820000
271.042786	145.920000
271.135773	146.300000
271.228790	146.680000
271.321808	146.360000
271.414795	145.960000
271.507782	145.780000
271.600800	145.660000
271.693817	145.520000
271.786804	146.140000
271.879822	146.660000
271.972809	146.660000
272.065826	146.840000
272.158844	146.480000
272.251831	146.880000
272.344849	146.940000
272.437866	146.520000
272.530853	146.800000
272.623871	147.180000
272.716888	146.000000
272.809906	146.040000
272.902893	146.500000
272.995911	145.620000
273.088928	145.540000
273.181946	145.760000
273.274963	145.600000
273.367981	145.500000
273.460999	146.020000
273.554047	146.440000
273.647003	147.040000
273.740051	146.860000
273.833069	147.280000
273.926086	147.420000
274.019135	146.980000
274.112152	146.500000
274.205170	146.760000
274.298187	146.540000
274.391205	145.900000
274.484222	145.800000
274.577240	146.000000
274.670258	145.960000
274.763306	145.660000
274.856323	146.320000
274.949341	146.360000
275.042358	146.520000
275.135406	146.600000
275.228424	146.740000
275.321442	146.580000
275.414490	146.280000
275.507507	146.540000
275.600525	146.780000
275.693573	146.540000
275.786591	146.100000
275.879669	146.600000
275.972656	145.900000
276.065735	145.440000
276.158752	145.980000
276.251801	146.800000
276.344818	146.540000
276.437866	146.700000
276.530884	146.660000
276.623932	146.500000
276.716980	146.320000
276.809998	146.400000
276.903046	146.600000
276.996094	147.420000
277.089111	147.880000
277.182159	148.440000
277.275208	148.220000
277.368256	147.860000
277.461304	147.520000
277.554321	146.580000
277.647369	146.000000
277.740417	146.000000
277.833466	146.140000
277.926514	145.640000
278.019562	146.260000
278.112610	145.800000
278.205688	146.240000
278.298706	146.220000
278.391785	146.380000
278.484833	145.900000
278.577881	145.880000
278.670929	145.900000
278.763977	146.060000
278.857025	146.300000
278.950073	146.280000
279.043121	146.120000
279.136169	145.900000
279.229248	145.700000
279.322296	145.660000
279.415344	145.820000
279.508392	146.420000
279.601440	146.340000
279.694519	146.020000
279.787567	145.700000
279.880615	145.800000
279.973694	145.120000
280.066742	145.000000
280.159790	145.260000
280.252869	145.160000
280.345917	144.980000
280.438995	145.140000
280.532074	145.260000
280.625122	145.700000
280.718201	146.600000
280.811279	146.840000
280.904327	146.920000
280.997406	147.260000
281.090454	146.960000
281.183533	146.180000
281.276581	145.960000
281.369659	145.560000
281.462738	145.480000
281.555786	145.720000
281.648865	146.040000
281.741943	146.100000
281.835022	147.140000
281.928070	146.800000
282.021149	146.500000
282.114227	146.080000
282.207306	146.160000
282.300385	146.060000
282.393433	146.180000
282.486511	146.160000
282.579590	146.860000
282.672668	147.160000
282.765747	146.460000
282.858856	146.180000
282.951904	146.480000
283.045013	146.420000
283.138062	146.460000
283.231171	147.060000
283.324249	147.660000
283.417328	147.720000
283.510406	147.280000
283.603485	146.860000
283.696564	146.540000
283.789642	146.480000
283.882751	145.980000
283.975830	146.700000
284.068909	146.580000
284.161987	147.340000
284.255066	146.800000
284.348175	147.120000
284.441254	146.580000
284.534332	147.020000
284.627441	146.160000
284.720520	146.440000
284.813599	146.440000
284.906708	146.460000
284.999786	145.800000
285.092896	145.700000
285.185974	146.400000
285.279053	145.840000
285.372192	145.640000
285.465240	146.740000
285.558380	146.660000
285.651459	145.920000
285.744568	146.780000
285.837677	146.560000
285.930756	146.180000
286.023865	146.820000
286.116943	146.780000
286.210052	146.700000
286.303162	146.960000
286.396240	146.780000
286.489349	146.200000
286.582458	146.520000
286.675568	146.240000
286.768646	146.440000
286.861755	146.700000
286.954865	147.540000
287.047974	146.900000
287.141083	146.700000
287.234161	146.220000
287.327271	145.820000
287.420380	145.920000
287.513519	146.000000
287.606598	146.260000
287.699738	146.540000
287.792816	146.520000
287.885956	146.340000
287.979034	146.500000
288.072174	146.400000
288.165283	146.200000
288.258392	146.560000
288.351501	145.860000
288.444611	146.100000
288.537720	146.460000
288.630859	146.640000
288.723969	146.580000
288.817078	147.080000
288.910187	147.080000
289.003296	146.440000
289.096436	146.160000
289.189545	145.880000
289.282654	145.540000
289.375763	145.680000
289.468903	146.100000
289.562012	146.460000
289.655121	146.500000
289.748260	146.480000
289.841400	146.600000
289.934509	146.540000
290.027649	146.720000
290.120728	146.600000
290.213898	146.720000
290.306976	146.400000
290.400146	146.480000
290.493256	145.960000
290.586395	146.040000
290.679535	146.320000
290.772644	146.080000
290.865784	145.200000
290.958893	145.380000
291.052032	145.060000
291.145172	144.960000
291.238281	145.060000
291.331421	145.560000
291.424561	145.740000
291.517670	145.600000
291.610809	145.860000
291.703949	145.680000
291.797089	145.780000
291.890228	145.700000
291.983337	145.900000
292.076477	145.480000
292.169617	145.560000
292.262756	145.560000
292.355927	145.320000
292.449036	145.400000
292.542206	145.500000
292.635315	145.800000
292.728485	145.800000
292.821625	145.680000
292.914764	146.640000
293.007904	146.360000
293.101044	146.280000
293.194183	146.040000
293.287323	146.160000
293.380463	145.440000
293.473602	145.220000
293.566742	145.560000
293.659882	146.240000
293.753021	146.560000
293.846191	146.500000
293.939331	146.300000
294.032471	145.860000
294.125610	145.580000
294.218781	145.760000
294.311920	146.240000
294.405060	146.960000
294.498230	146.940000
294.591370	146.940000
294.684540	146.620000
294.777679	145.920000
294.870850	146.220000
294.963959	146.180000
295.057159	146.020000
295.150299	145.820000
295.243469	146.080000
295.336609	145.180000
295.429779	145.260000
295.522919	145.660000
295.616089	145.900000
295.709229	146.460000
295.802399	146.960000
295.895569	146.500000
295.988708	146.520000
296.081879	146.800000
296.175018	146.040000
296.268188	145.840000
296.361359	146.600000
296.454529	146.300000
296.547668	145.840000
296.640839	146.340000
296.734009	146.180000
296.827179	146.160000
296.920319	146.460000
297.013519	146.460000
297.106659	146.160000
297.199860	146.400000
297.292999	146.200000
297.386200	145.980000
297.479309	146.140000
297.572510	146.160000
297.665680	146.000000
297.758850	146.140000
297.852020	145.980000
297.945190	145.600000
298.038361	145.100000
298.131531	145.960000
298.224701	145.620000
298.317871	145.580000
298.411072	145.400000
298.504242	145.840000
298.597412	145.320000
298.690582	145.600000
298.783752	145.380000
298.876923	145.980000
298.970093	146.040000
299.063293	146.080000
299.156464	146.560000
299.249634	146.980000
299.342834	147.080000
299.436005	147.420000
299.529205	147.320000
299.622345	146.980000
299.715576	146.500000
299.808716	146.140000
299.901917	145.840000
299.995117	146.220000
300.088287	146.280000
300.181488	146.320000
300.274658	146.300000
300.367828	146.260000
300.461029	145.940000
300.554199	145.960000
300.647400	146.160000
300.740601	146.860000
300.833771	146.800000
300.926971	147.000000
301.020142	146.840000
301.113342	147.000000
301.206512	146.560000
301.299713	146.700000
301.392914	146.740000
301.486084	146.860000
301.579285	146.380000
301.672516	146.980000
301.765686	146.620000
301.858887	146.020000
301.952057	145.940000
302.045288	146.200000
302.138458	145.620000
302.231659	145.520000
302.324860	145.680000
302.418060	145.520000
302.511261	145.660000
302.604462	145.820000
302.697662	145.900000
302.790863	146.120000
302.884064	145.500000
302.977264	145.320000
303.070465	145.720000
303.163666	146.380000
303.256866	146.420000
303.350067	147.120000
303.443268	146.880000
303.536469	146.780000
303.629669	146.380000
303.722870	146.400000
303.816071	145.800000
303.909271	146.180000
304.002472	145.100000
304.095673	144.800000
304.188934	144.180000
304.282104	145.340000
304.375336	145.140000
304.468506	145.540000
304.561768	145.260000
304.654968	145.820000
304.748169	145.140000
304.841370	145.200000
304.934601	145.420000
305.027802	145.760000
305.121002	145.540000
305.214233	145.760000
305.307434	145.940000
305.400665	146.540000
305.493866	146.380000
