Model Number: SPM-002-B   
Serial Number: 70087108
Firmware Version: 004.15.4
Exposure Time: 100000.000000us
Data Taken on: 11-12-2020 19:29:51.342
Wavelength	Amplitude
221.570786	0.000000
221.663406	0.000000
221.756027	0.000000
221.848648	0.000000
221.941269	0.000000
222.033905	0.000000
222.126526	0.000000
222.219162	0.000000
222.311798	0.000000
222.404419	0.000000
222.497055	0.000000
222.589676	0.000000
222.682312	0.000000
222.774933	0.000000
222.867569	0.000000
222.960205	0.000000
223.052841	0.000000
223.145462	0.000000
223.238098	0.000000
223.330734	0.000000
223.423386	0.000000
223.516022	0.000000
223.608658	0.000000
223.701309	0.000000
223.793945	0.000000
223.886581	0.000000
223.979218	0.000000
224.071869	0.000000
224.164505	0.000000
224.257156	0.000000
224.349792	0.000000
224.442444	0.000000
224.535095	0.000000
224.627747	0.000000
224.720398	0.000000
224.813034	0.000000
224.905685	0.000000
224.998337	145.360000
225.090988	145.460000
225.183640	145.640000
225.276291	145.440000
225.368942	145.800000
225.461594	146.320000
225.554245	146.360000
225.646912	146.360000
225.739578	147.120000
225.832230	147.340000
225.924896	146.500000
226.017548	147.120000
226.110199	147.260000
226.202866	146.160000
226.295532	145.800000
226.388184	145.700000
226.480850	144.860000
226.573517	144.380000
226.666168	145.060000
226.758835	145.560000
226.851501	146.400000
226.944183	146.520000
227.036850	146.380000
227.129517	146.260000
227.222183	145.860000
227.314850	145.280000
227.407516	145.860000
227.500198	146.800000
227.592865	146.440000
227.685532	146.120000
227.778214	146.120000
227.870880	146.100000
227.963562	146.040000
228.056229	146.560000
228.148926	146.780000
228.241592	147.680000
228.334274	147.300000
228.426956	146.960000
228.519638	146.840000
228.612305	146.600000
228.704987	146.000000
228.797668	146.040000
228.890350	145.820000
228.983032	145.240000
229.075714	145.940000
229.168396	145.780000
229.261108	145.580000
229.353790	145.640000
229.446472	146.040000
229.539169	145.500000
229.631851	145.220000
229.724533	145.380000
229.817230	145.800000
229.909912	146.740000
230.002609	146.800000
230.095306	147.060000
230.187988	147.020000
230.280685	146.540000
230.373383	145.140000
230.466095	145.240000
230.558792	145.500000
230.651474	145.680000
230.744171	145.760000
230.836868	146.300000
230.929581	146.500000
231.022278	146.520000
231.114975	146.460000
231.207672	146.220000
231.300369	146.500000
231.393082	146.680000
231.485779	146.040000
231.578506	145.960000
231.671204	146.220000
231.763916	145.960000
231.856613	145.500000
231.949326	145.980000
232.042023	146.000000
232.134735	145.740000
232.227448	145.320000
232.320160	145.520000
232.412872	145.500000
232.505585	146.240000
232.598297	146.780000
232.691010	146.900000
232.783722	146.940000
232.876450	147.200000
232.969162	146.580000
233.061874	146.040000
233.154587	145.840000
233.247314	145.780000
233.340027	145.280000
233.432739	145.400000
233.525467	145.180000
233.618179	145.740000
233.710907	145.260000
233.803635	145.740000
233.896347	145.360000
233.989090	146.160000
234.081818	145.660000
234.174545	146.380000
234.267258	145.900000
234.359985	146.240000
234.452713	146.020000
234.545441	146.120000
234.638168	145.540000
234.730896	146.240000
234.823639	145.880000
234.916367	146.320000
235.009094	146.720000
235.101822	146.980000
235.194580	146.620000
235.287308	146.520000
235.380051	145.660000
235.472778	145.880000
235.565521	146.120000
235.658249	145.620000
235.750992	145.820000
235.843719	145.840000
235.936462	145.540000
236.029205	145.060000
236.121948	145.000000
236.214691	145.420000
236.307449	146.180000
236.400192	145.980000
236.492935	145.840000
236.585678	146.260000
236.678421	146.400000
236.771164	145.980000
236.863907	146.440000
236.956665	146.820000
237.049408	148.420000
237.142151	147.900000
237.234909	148.360000
237.327652	148.320000
237.420410	148.200000
237.513153	147.080000
237.605927	146.940000
237.698669	146.540000
237.791428	146.140000
237.884186	146.720000
237.976944	145.860000
238.069702	146.440000
238.162445	146.000000
238.255203	145.860000
238.347961	145.940000
238.440720	146.120000
238.533478	145.780000
238.626266	145.760000
238.719025	146.220000
238.811783	145.620000
238.904541	145.420000
238.997314	145.180000
239.090073	144.880000
239.182831	144.720000
239.275604	145.500000
239.368362	145.700000
239.461136	145.860000
239.553909	145.920000
239.646667	145.620000
239.739441	145.200000
239.832214	145.420000
239.925003	145.660000
240.017761	146.660000
240.110535	147.340000
240.203308	146.500000
240.296082	146.420000
240.388855	146.400000
240.481628	146.180000
240.574417	146.220000
240.667191	146.620000
240.759964	146.400000
240.852737	146.060000
240.945526	145.520000
241.038315	145.100000
241.131088	145.340000
241.223877	145.800000
241.316650	145.520000
241.409439	145.700000
241.502228	145.360000
241.595001	145.880000
241.687790	145.500000
241.780579	145.600000
241.873367	145.900000
241.966141	146.340000
242.058929	145.740000
242.151718	146.020000
242.244507	146.740000
242.337311	145.980000
242.430099	146.420000
242.522903	146.700000
242.615692	146.480000
242.708481	146.340000
242.801270	147.100000
242.894073	146.680000
242.986862	146.540000
243.079651	147.040000
243.172455	146.840000
243.265244	146.760000
243.358063	146.460000
243.450867	146.640000
243.543655	146.260000
243.636459	146.320000
243.729263	146.640000
243.822067	146.760000
243.914856	146.860000
244.007660	147.040000
244.100464	147.140000
244.193268	146.800000
244.286072	146.800000
244.378876	146.100000
244.471680	145.620000
244.564499	145.860000
244.657318	146.320000
244.750122	146.820000
244.842926	146.820000
244.935745	147.460000
245.028549	146.820000
245.121368	146.480000
245.214172	146.180000
245.306992	146.620000
245.399796	146.200000
245.492615	146.360000
245.585434	146.120000
245.678253	146.060000
245.771072	145.860000
245.863892	146.080000
245.956711	146.460000
246.049530	146.260000
246.142349	146.000000
246.235168	146.140000
246.327988	146.640000
246.420807	146.240000
246.513626	146.280000
246.606445	146.160000
246.699280	146.120000
246.792099	145.580000
246.884918	145.380000
246.977753	145.240000
247.070587	145.460000
247.163422	145.400000
247.256241	145.360000
247.349075	145.780000
247.441895	146.020000
247.534729	145.980000
247.627563	145.900000
247.720383	146.720000
247.813217	146.540000
247.906052	146.440000
247.998886	146.500000
248.091736	146.780000
248.184570	145.960000
248.277405	146.180000
248.370239	147.120000
248.463074	148.040000
248.555908	148.240000
248.648743	148.180000
248.741592	148.120000
248.834427	147.360000
248.927261	146.240000
249.020111	146.240000
249.112946	147.200000
249.205795	146.840000
249.298630	147.240000
249.391495	147.540000
249.484344	147.220000
249.577179	146.580000
249.670029	147.100000
249.762878	147.380000
249.855728	147.380000
249.948563	147.460000
250.041412	147.080000
250.134262	147.180000
250.227112	146.940000
250.319962	147.080000
250.412827	147.120000
250.505692	146.860000
250.598541	146.620000
250.691391	146.140000
250.784241	145.860000
250.877106	145.820000
250.969955	145.960000
251.062805	146.260000
251.155670	146.920000
251.248520	146.720000
251.341385	147.040000
251.434235	147.220000
251.527100	146.860000
251.619965	146.240000
251.712814	147.120000
251.805695	146.940000
251.898560	146.820000
251.991425	147.120000
252.084290	147.340000
252.177155	146.680000
252.270020	146.160000
252.362885	146.400000
252.455750	146.060000
252.548615	146.140000
252.641479	146.120000
252.734360	146.440000
252.827240	146.120000
252.920105	146.060000
253.012970	145.800000
253.105850	145.740000
253.198715	145.580000
253.291595	145.800000
253.384460	145.580000
253.477341	145.720000
253.570221	145.900000
253.663086	145.720000
253.755966	146.060000
253.848846	146.240000
253.941727	146.400000
254.034592	146.380000
254.127472	146.160000
254.220367	146.240000
254.313248	146.500000
254.406128	146.100000
254.499008	146.680000
254.591904	147.640000
254.684784	148.060000
254.777664	148.040000
254.870544	148.020000
254.963440	147.340000
255.056335	147.060000
255.149216	146.380000
255.242111	146.600000
255.334991	146.840000
255.427887	146.940000
255.520767	147.120000
255.613663	147.200000
255.706558	146.520000
255.799438	146.380000
255.892334	146.200000
255.985229	145.920000
256.078125	145.520000
256.171021	145.460000
256.263916	145.700000
256.356812	145.980000
256.449707	145.960000
256.542603	145.980000
256.635498	146.700000
256.728394	146.460000
256.821289	146.300000
256.914215	146.700000
257.007080	146.960000
257.100006	146.800000
257.192932	147.380000
257.285828	147.480000
257.378723	146.920000
257.471619	146.740000
257.564545	146.460000
257.657440	146.280000
257.750336	146.700000
257.843262	146.660000
257.936157	147.820000
258.029053	148.140000
258.121979	148.080000
258.214874	147.580000
258.307800	147.460000
258.400696	146.360000
258.493622	146.500000
258.586517	145.740000
258.679443	145.940000
258.772339	145.920000
258.865265	145.680000
258.958160	145.040000
259.051086	145.880000
259.144012	145.760000
259.236938	146.820000
259.329834	147.460000
259.422791	147.820000
259.515717	147.320000
259.608612	147.360000
259.701538	146.800000
259.794464	146.480000
259.887390	146.260000
259.980316	146.440000
260.073212	146.180000
260.166138	145.060000
260.259064	145.440000
260.351990	145.960000
260.444916	145.900000
260.537842	146.200000
260.630768	147.420000
260.723694	147.400000
260.816620	147.040000
260.909546	146.980000
261.002472	146.680000
261.095398	145.880000
261.188354	145.440000
261.281281	145.120000
261.374207	145.300000
261.467133	146.200000
261.560089	146.440000
261.653015	146.440000
261.745972	147.300000
261.838867	147.420000
261.931824	147.220000
262.024780	147.060000
262.117706	147.180000
262.210663	146.980000
262.303589	146.760000
262.396515	146.440000
262.489471	147.200000
262.582397	146.920000
262.675354	146.400000
262.768280	146.320000
262.861237	146.660000
262.954163	146.300000
263.047119	146.480000
263.140045	146.440000
263.233002	146.520000
263.325958	146.040000
263.418884	145.760000
263.511841	145.840000
263.604797	145.980000
263.697723	145.940000
263.790680	145.960000
263.883636	146.440000
263.976593	146.020000
264.069550	146.060000
264.162476	146.100000
264.255463	146.040000
264.348419	145.800000
264.441376	146.220000
264.534332	145.980000
264.627289	146.060000
264.720245	146.480000
264.813202	145.960000
264.906158	146.040000
264.999115	146.360000
265.092072	146.180000
265.185028	146.480000
265.277985	146.820000
265.370941	146.920000
265.463898	146.740000
265.556854	146.600000
265.649811	145.360000
265.742798	145.560000
265.835754	145.480000
265.928711	146.060000
266.021667	146.280000
266.114655	146.940000
266.207611	147.080000
266.300568	146.500000
266.393585	146.160000
266.486511	146.320000
266.579498	145.760000
266.672485	145.460000
266.765442	145.500000
266.858429	145.680000
266.951385	145.140000
267.044342	145.280000
267.137329	145.480000
267.230316	145.880000
267.323273	145.320000
267.416260	146.420000
267.509216	146.520000
267.602203	146.180000
267.695160	146.520000
267.788147	146.760000
267.881134	145.840000
267.974091	146.060000
268.067078	146.180000
268.160065	145.980000
268.253052	145.720000
268.346008	146.180000
268.438995	145.860000
268.531982	146.080000
268.624969	145.800000
268.717987	146.340000
268.810944	145.880000
268.903961	145.900000
268.996948	145.540000
269.089905	145.740000
269.182892	145.380000
269.275879	145.820000
269.368866	145.500000
269.461853	146.020000
269.554871	146.020000
269.647858	146.120000
269.740845	146.500000
269.833832	147.060000
269.926819	146.480000
270.019806	146.420000
270.112793	146.100000
270.205811	145.660000
270.298798	145.400000
270.391785	146.040000
270.484772	145.480000
270.577789	145.620000
270.670776	145.280000
270.763763	145.420000
270.856750	145.360000
270.949768	145.880000
271.042786	146.020000
271.135773	146.280000
271.228790	146.740000
271.321808	146.260000
271.414795	145.900000
271.507782	145.660000
271.600800	145.240000
271.693817	145.220000
271.786804	145.660000
271.879822	146.100000
271.972809	146.160000
272.065826	147.140000
272.158844	146.660000
272.251831	147.160000
272.344849	147.260000
272.437866	147.180000
272.530853	146.500000
272.623871	146.800000
272.716888	145.780000
272.809906	145.740000
272.902893	145.780000
272.995911	145.480000
273.088928	145.440000
273.181946	145.560000
273.274963	145.240000
273.367981	145.300000
273.460999	145.540000
273.554047	145.780000
273.647003	146.440000
273.740051	146.900000
273.833069	147.280000
273.926086	147.300000
274.019135	146.940000
274.112152	146.500000
274.205170	145.980000
274.298187	146.100000
274.391205	145.840000
274.484222	145.800000
274.577240	145.900000
274.670258	145.940000
274.763306	145.360000
274.856323	146.100000
274.949341	146.240000
275.042358	146.440000
275.135406	146.500000
275.228424	146.860000
275.321442	146.460000
275.414490	146.180000
275.507507	146.420000
275.600525	146.980000
275.693573	146.800000
275.786591	146.460000
275.879669	146.840000
275.972656	146.460000
276.065735	145.860000
276.158752	146.280000
276.251801	147.000000
276.344818	146.880000
276.437866	146.840000
276.530884	146.840000
276.623932	145.980000
276.716980	145.960000
276.809998	146.080000
276.903046	146.000000
276.996094	147.060000
277.089111	147.600000
277.182159	147.840000
277.275208	147.420000
277.368256	147.380000
277.461304	146.360000
277.554321	145.880000
277.647369	145.840000
277.740417	146.180000
277.833466	146.120000
277.926514	146.340000
278.019562	147.160000
278.112610	146.400000
278.205688	146.480000
278.298706	146.480000
278.391785	146.220000
278.484833	145.560000
278.577881	145.840000
278.670929	145.740000
278.763977	146.060000
278.857025	146.600000
278.950073	147.060000
279.043121	146.780000
279.136169	146.800000
279.229248	146.520000
279.322296	146.220000
279.415344	145.760000
279.508392	145.660000
279.601440	145.400000
279.694519	145.360000
279.787567	145.460000
279.880615	145.700000
279.973694	145.720000
280.066742	146.020000
280.159790	146.340000
280.252869	145.900000
280.345917	145.780000
280.438995	145.820000
280.532074	145.700000
280.625122	145.640000
280.718201	146.560000
280.811279	146.800000
280.904327	147.060000
280.997406	147.300000
281.090454	147.580000
281.183533	146.920000
281.276581	146.660000
281.369659	146.240000
281.462738	146.060000
281.555786	145.920000
281.648865	146.080000
281.741943	145.940000
281.835022	146.700000
281.928070	146.660000
282.021149	146.040000
282.114227	145.940000
282.207306	146.180000
282.300385	146.200000
282.393433	146.280000
282.486511	146.640000
282.579590	147.220000
282.672668	147.300000
282.765747	146.660000
282.858856	146.600000
282.951904	146.540000
283.045013	146.520000
283.138062	146.720000
283.231171	147.140000
283.324249	147.280000
283.417328	147.680000
283.510406	146.780000
283.603485	146.480000
283.696564	146.380000
283.789642	146.580000
283.882751	146.140000
283.975830	146.900000
284.068909	146.700000
284.161987	147.460000
284.255066	146.860000
284.348175	147.120000
284.441254	146.780000
284.534332	147.000000
284.627441	146.060000
284.720520	145.980000
284.813599	145.760000
284.906708	145.880000
284.999786	145.480000
285.092896	145.020000
285.185974	146.100000
285.279053	145.880000
285.372192	145.960000
285.465240	146.660000
285.558380	147.140000
285.651459	146.380000
285.744568	147.300000
285.837677	146.840000
285.930756	146.740000
286.023865	146.680000
286.116943	146.420000
286.210052	146.280000
286.303162	146.260000
286.396240	146.220000
286.489349	146.260000
286.582458	146.480000
286.675568	146.020000
286.768646	146.380000
286.861755	146.580000
286.954865	147.320000
287.047974	146.940000
287.141083	147.060000
287.234161	146.500000
287.327271	146.240000
287.420380	146.420000
287.513519	146.480000
287.606598	146.440000
287.699738	147.160000
287.792816	147.060000
287.885956	146.380000
287.979034	146.580000
288.072174	146.600000
288.165283	146.280000
288.258392	146.460000
288.351501	146.140000
288.444611	146.040000
288.537720	146.140000
288.630859	146.060000
288.723969	145.900000
288.817078	146.300000
288.910187	146.520000
289.003296	145.900000
289.096436	145.540000
289.189545	145.340000
289.282654	145.120000
289.375763	145.460000
289.468903	146.060000
289.562012	146.760000
289.655121	147.360000
289.748260	147.400000
289.841400	147.420000
289.934509	147.540000
290.027649	147.500000
290.120728	147.040000
290.213898	147.200000
290.306976	146.740000
290.400146	146.840000
290.493256	146.400000
290.586395	146.560000
290.679535	146.660000
290.772644	146.440000
290.865784	145.620000
290.958893	145.480000
291.052032	145.340000
291.145172	144.980000
291.238281	145.000000
291.331421	145.120000
291.424561	145.680000
291.517670	145.400000
291.610809	146.000000
291.703949	145.940000
291.797089	146.180000
291.890228	145.800000
291.983337	145.880000
292.076477	145.280000
292.169617	145.860000
292.262756	145.780000
292.355927	145.580000
292.449036	145.480000
292.542206	145.720000
292.635315	145.680000
292.728485	145.900000
292.821625	145.760000
292.914764	147.000000
293.007904	147.000000
293.101044	146.820000
293.194183	146.700000
293.287323	147.080000
293.380463	146.140000
293.473602	145.800000
293.566742	146.060000
293.659882	146.480000
293.753021	146.680000
293.846191	146.700000
293.939331	146.100000
294.032471	145.860000
294.125610	145.320000
294.218781	145.760000
294.311920	146.060000
294.405060	146.800000
294.498230	146.740000
294.591370	146.920000
294.684540	145.940000
294.777679	145.440000
294.870850	146.000000
294.963959	145.980000
295.057159	145.760000
295.150299	146.220000
295.243469	146.460000
295.336609	145.400000
295.429779	145.400000
295.522919	145.860000
295.616089	146.080000
295.709229	146.480000
295.802399	146.920000
295.895569	146.600000
295.988708	146.460000
296.081879	146.300000
296.175018	145.840000
296.268188	145.860000
296.361359	146.540000
296.454529	146.400000
296.547668	146.100000
296.640839	146.160000
296.734009	145.840000
296.827179	146.080000
296.920319	146.420000
297.013519	146.560000
297.106659	146.720000
297.199860	147.000000
297.292999	146.480000
297.386200	146.120000
297.479309	145.900000
297.572510	145.740000
297.665680	145.280000
297.758850	145.420000
297.852020	145.240000
297.945190	145.240000
298.038361	144.980000
298.131531	146.140000
298.224701	145.660000
298.317871	145.560000
298.411072	145.060000
298.504242	145.220000
298.597412	144.580000
298.690582	145.280000
298.783752	145.460000
298.876923	146.520000
298.970093	146.480000
299.063293	146.660000
299.156464	146.620000
299.249634	146.780000
299.342834	146.600000
299.436005	147.120000
299.529205	147.040000
299.622345	146.940000
299.715576	146.100000
299.808716	145.780000
299.901917	145.460000
299.995117	145.780000
300.088287	145.640000
300.181488	145.800000
300.274658	146.020000
300.367828	145.980000
300.461029	145.740000
300.554199	145.980000
300.647400	146.260000
300.740601	146.660000
300.833771	146.620000
300.926971	146.960000
301.020142	146.340000
301.113342	146.520000
301.206512	146.200000
301.299713	146.000000
301.392914	145.780000
301.486084	146.220000
301.579285	146.180000
301.672516	146.600000
301.765686	146.800000
301.858887	146.480000
301.952057	146.460000
302.045288	146.700000
302.138458	146.160000
302.231659	145.900000
302.324860	145.840000
302.418060	145.480000
302.511261	145.200000
302.604462	145.720000
302.697662	145.760000
302.790863	145.820000
302.884064	145.820000
302.977264	145.860000
303.070465	145.720000
303.163666	146.360000
303.256866	146.740000
303.350067	147.020000
303.443268	147.120000
303.536469	147.020000
303.629669	146.640000
303.722870	146.640000
303.816071	146.200000
303.909271	146.440000
304.002472	145.720000
304.095673	145.460000
304.188934	144.840000
304.282104	146.040000
304.375336	145.640000
304.468506	145.720000
304.561768	145.580000
304.654968	146.180000
304.748169	145.520000
304.841370	145.660000
304.934601	146.280000
305.027802	146.040000
305.121002	145.680000
305.214233	145.780000
305.307434	145.660000
305.400665	145.960000
305.493866	146.080000
