Model Number: SPM-002-B   
Serial Number: 70087108
Firmware Version: 004.15.4
Exposure Time: 100000.000000us
Data Taken on: 11-12-2020 19:29:46.042
Wavelength	Amplitude
221.570786	0.000000
221.663406	0.000000
221.756027	0.000000
221.848648	0.000000
221.941269	0.000000
222.033905	0.000000
222.126526	0.000000
222.219162	0.000000
222.311798	0.000000
222.404419	0.000000
222.497055	0.000000
222.589676	0.000000
222.682312	0.000000
222.774933	0.000000
222.867569	0.000000
222.960205	0.000000
223.052841	0.000000
223.145462	0.000000
223.238098	0.000000
223.330734	0.000000
223.423386	0.000000
223.516022	0.000000
223.608658	0.000000
223.701309	0.000000
223.793945	0.000000
223.886581	0.000000
223.979218	0.000000
224.071869	0.000000
224.164505	0.000000
224.257156	0.000000
224.349792	0.000000
224.442444	0.000000
224.535095	0.000000
224.627747	0.000000
224.720398	0.000000
224.813034	0.000000
224.905685	0.000000
224.998337	145.500000
225.090988	145.200000
225.183640	145.380000
225.276291	145.140000
225.368942	145.720000
225.461594	146.480000
225.554245	146.860000
225.646912	146.860000
225.739578	147.320000
225.832230	147.440000
225.924896	146.640000
226.017548	146.880000
226.110199	147.280000
226.202866	146.620000
226.295532	146.320000
226.388184	146.400000
226.480850	146.040000
226.573517	145.640000
226.666168	146.240000
226.758835	146.480000
226.851501	146.740000
226.944183	146.640000
227.036850	146.120000
227.129517	145.860000
227.222183	145.940000
227.314850	145.640000
227.407516	145.940000
227.500198	146.560000
227.592865	146.700000
227.685532	146.280000
227.778214	146.080000
227.870880	146.360000
227.963562	147.120000
228.056229	147.240000
228.148926	147.340000
228.241592	148.260000
228.334274	147.860000
228.426956	147.120000
228.519638	146.980000
228.612305	146.540000
228.704987	146.560000
228.797668	146.620000
228.890350	146.420000
228.983032	146.040000
229.075714	147.120000
229.168396	146.500000
229.261108	146.180000
229.353790	146.260000
229.446472	146.480000
229.539169	145.900000
229.631851	145.540000
229.724533	145.800000
229.817230	145.800000
229.909912	146.580000
230.002609	146.660000
230.095306	147.060000
230.187988	146.900000
230.280685	146.880000
230.373383	145.980000
230.466095	146.000000
230.558792	146.240000
230.651474	146.180000
230.744171	146.340000
230.836868	146.060000
230.929581	146.280000
231.022278	146.300000
231.114975	146.640000
231.207672	146.500000
231.300369	147.340000
231.393082	147.400000
231.485779	147.020000
231.578506	146.680000
231.671204	146.520000
231.763916	146.000000
231.856613	145.640000
231.949326	145.940000
232.042023	146.060000
232.134735	146.140000
232.227448	146.020000
232.320160	146.380000
232.412872	146.260000
232.505585	146.700000
232.598297	147.040000
232.691010	147.260000
232.783722	146.660000
232.876450	147.240000
232.969162	146.660000
233.061874	146.140000
233.154587	145.940000
233.247314	146.360000
233.340027	145.700000
233.432739	146.300000
233.525467	146.300000
233.618179	146.380000
233.710907	146.300000
233.803635	146.840000
233.896347	146.540000
233.989090	147.500000
234.081818	147.520000
234.174545	147.400000
234.267258	146.740000
234.359985	146.940000
234.452713	146.200000
234.545441	146.120000
234.638168	146.120000
234.730896	146.680000
234.823639	146.620000
234.916367	147.040000
235.009094	147.160000
235.101822	147.140000
235.194580	146.940000
235.287308	146.640000
235.380051	146.180000
235.472778	146.400000
235.565521	146.800000
235.658249	146.400000
235.750992	146.600000
235.843719	146.440000
235.936462	146.440000
236.029205	146.000000
236.121948	145.880000
236.214691	146.140000
236.307449	147.040000
236.400192	146.820000
236.492935	146.420000
236.585678	146.840000
236.678421	146.700000
236.771164	146.360000
236.863907	146.820000
236.956665	147.420000
237.049408	148.860000
237.142151	148.400000
237.234909	148.900000
237.327652	148.660000
237.420410	148.220000
237.513153	147.120000
237.605927	147.280000
237.698669	146.620000
237.791428	145.980000
237.884186	146.520000
237.976944	146.000000
238.069702	146.580000
238.162445	146.220000
238.255203	146.720000
238.347961	146.940000
238.440720	146.880000
238.533478	146.320000
238.626266	146.200000
238.719025	146.200000
238.811783	145.760000
238.904541	145.880000
238.997314	145.820000
239.090073	145.760000
239.182831	145.920000
239.275604	146.720000
239.368362	146.580000
239.461136	146.580000
239.553909	146.360000
239.646667	146.320000
239.739441	145.920000
239.832214	146.320000
239.925003	146.680000
240.017761	147.520000
240.110535	147.780000
240.203308	147.140000
240.296082	146.880000
240.388855	146.540000
240.481628	146.400000
240.574417	146.300000
240.667191	146.680000
240.759964	146.700000
240.852737	146.680000
240.945526	146.620000
241.038315	146.440000
241.131088	146.360000
241.223877	146.180000
241.316650	146.140000
241.409439	146.200000
241.502228	145.800000
241.595001	146.120000
241.687790	146.120000
241.780579	146.120000
241.873367	146.500000
241.966141	146.920000
242.058929	146.360000
242.151718	146.560000
242.244507	146.840000
242.337311	145.860000
242.430099	146.140000
242.522903	146.420000
242.615692	146.300000
242.708481	146.280000
242.801270	146.860000
242.894073	146.800000
242.986862	146.920000
243.079651	147.340000
243.172455	146.980000
243.265244	146.800000
243.358063	146.300000
243.450867	146.580000
243.543655	146.180000
243.636459	146.420000
243.729263	146.760000
243.822067	147.280000
243.914856	147.300000
244.007660	147.480000
244.100464	147.460000
244.193268	147.160000
244.286072	146.900000
244.378876	146.120000
244.471680	145.800000
244.564499	146.080000
244.657318	146.560000
244.750122	146.600000
244.842926	146.300000
244.935745	146.760000
245.028549	146.400000
245.121368	146.140000
245.214172	145.940000
245.306992	146.560000
245.399796	146.240000
245.492615	146.580000
245.585434	146.480000
245.678253	146.580000
245.771072	146.560000
245.863892	146.800000
245.956711	146.960000
246.049530	146.960000
246.142349	146.900000
246.235168	146.900000
246.327988	147.300000
246.420807	146.760000
246.513626	146.780000
246.606445	146.500000
246.699280	146.400000
246.792099	145.640000
246.884918	145.480000
246.977753	145.160000
247.070587	145.340000
247.163422	145.420000
247.256241	145.800000
247.349075	146.360000
247.441895	146.280000
247.534729	146.380000
247.627563	146.200000
247.720383	146.720000
247.813217	146.240000
247.906052	146.280000
247.998886	146.500000
248.091736	146.520000
248.184570	145.940000
248.277405	146.280000
248.370239	147.260000
248.463074	147.860000
248.555908	148.280000
248.648743	148.160000
248.741592	148.100000
248.834427	147.360000
248.927261	146.120000
249.020111	146.280000
249.112946	147.200000
249.205795	146.720000
249.298630	146.700000
249.391495	146.960000
249.484344	146.300000
249.577179	145.680000
249.670029	146.360000
249.762878	147.060000
249.855728	147.360000
249.948563	147.500000
250.041412	146.900000
250.134262	146.540000
250.227112	145.960000
250.319962	145.800000
250.412827	145.860000
250.505692	145.840000
250.598541	145.880000
250.691391	145.720000
250.784241	145.860000
250.877106	145.860000
250.969955	145.620000
251.062805	146.160000
251.155670	146.720000
251.248520	146.560000
251.341385	147.020000
251.434235	147.200000
251.527100	146.840000
251.619965	146.340000
251.712814	146.800000
251.805695	146.420000
251.898560	146.920000
251.991425	147.020000
252.084290	147.440000
252.177155	146.800000
252.270020	146.780000
252.362885	146.680000
252.455750	146.740000
252.548615	146.240000
252.641479	146.480000
252.734360	146.400000
252.827240	146.280000
252.920105	146.300000
253.012970	146.240000
253.105850	146.020000
253.198715	145.980000
253.291595	146.000000
253.384460	145.600000
253.477341	145.640000
253.570221	146.260000
253.663086	145.960000
253.755966	146.480000
253.848846	146.500000
253.941727	146.900000
254.034592	146.640000
254.127472	146.440000
254.220367	146.380000
254.313248	146.300000
254.406128	145.980000
254.499008	146.060000
254.591904	147.040000
254.684784	147.200000
254.777664	147.380000
254.870544	147.280000
254.963440	147.200000
255.056335	147.160000
255.149216	146.940000
255.242111	147.520000
255.334991	147.720000
255.427887	147.880000
255.520767	147.680000
255.613663	147.380000
255.706558	146.680000
255.799438	146.640000
255.892334	146.300000
255.985229	146.200000
256.078125	146.460000
256.171021	146.600000
256.263916	146.920000
256.356812	147.060000
256.449707	147.100000
256.542603	146.640000
256.635498	147.380000
256.728394	147.180000
256.821289	146.760000
256.914215	147.000000
257.007080	147.360000
257.100006	147.060000
257.192932	147.280000
257.285828	147.640000
257.378723	147.600000
257.471619	147.500000
257.564545	146.840000
257.657440	146.660000
257.750336	147.280000
257.843262	146.960000
257.936157	148.040000
258.029053	148.480000
258.121979	148.580000
258.214874	147.920000
258.307800	147.840000
258.400696	146.720000
258.493622	146.660000
258.586517	146.280000
258.679443	146.640000
258.772339	146.140000
258.865265	145.980000
258.958160	145.160000
259.051086	145.940000
259.144012	145.640000
259.236938	146.660000
259.329834	147.040000
259.422791	147.440000
259.515717	146.460000
259.608612	146.560000
259.701538	146.460000
259.794464	145.880000
259.887390	145.940000
259.980316	146.080000
260.073212	145.540000
260.166138	144.580000
260.259064	145.300000
260.351990	145.780000
260.444916	145.920000
260.537842	146.420000
260.630768	147.140000
260.723694	146.720000
260.816620	146.600000
260.909546	146.520000
261.002472	146.100000
261.095398	145.600000
261.188354	145.540000
261.281281	145.280000
261.374207	145.420000
261.467133	146.480000
261.560089	147.060000
261.653015	147.360000
261.745972	147.860000
261.838867	148.140000
261.931824	147.740000
262.024780	147.320000
262.117706	147.560000
262.210663	147.600000
262.303589	147.180000
262.396515	147.260000
262.489471	148.120000
262.582397	147.540000
262.675354	146.920000
262.768280	147.240000
262.861237	147.360000
262.954163	146.940000
263.047119	146.960000
263.140045	146.760000
263.233002	146.540000
263.325958	145.960000
263.418884	145.120000
263.511841	145.260000
263.604797	145.640000
263.697723	145.480000
263.790680	145.380000
263.883636	146.180000
263.976593	146.120000
264.069550	146.060000
264.162476	146.180000
264.255463	146.440000
264.348419	146.140000
264.441376	146.320000
264.534332	145.860000
264.627289	145.840000
264.720245	146.260000
264.813202	146.060000
264.906158	146.340000
264.999115	147.340000
265.092072	147.320000
265.185028	147.500000
265.277985	147.740000
265.370941	147.320000
265.463898	146.620000
265.556854	146.340000
265.649811	145.160000
265.742798	145.180000
265.835754	145.400000
265.928711	145.840000
266.021667	146.060000
266.114655	146.500000
266.207611	146.880000
266.300568	146.240000
266.393585	145.900000
266.486511	146.200000
266.579498	145.640000
266.672485	145.440000
266.765442	145.700000
266.858429	146.040000
266.951385	145.640000
267.044342	146.080000
267.137329	145.920000
267.230316	146.320000
267.323273	146.080000
267.416260	146.660000
267.509216	146.440000
267.602203	146.520000
267.695160	146.760000
267.788147	146.900000
267.881134	146.120000
267.974091	146.700000
268.067078	146.420000
268.160065	146.100000
268.253052	145.620000
268.346008	146.000000
268.438995	145.600000
268.531982	145.860000
268.624969	145.560000
268.717987	146.260000
268.810944	146.160000
268.903961	146.460000
268.996948	145.940000
269.089905	146.500000
269.182892	146.300000
269.275879	146.580000
269.368866	145.980000
269.461853	146.720000
269.554871	146.600000
269.647858	146.500000
269.740845	146.680000
269.833832	147.240000
269.926819	146.660000
270.019806	146.480000
270.112793	146.060000
270.205811	145.900000
270.298798	145.820000
270.391785	146.440000
270.484772	146.140000
270.577789	146.340000
270.670776	145.760000
270.763763	145.820000
270.856750	145.920000
270.949768	145.980000
271.042786	146.380000
271.135773	146.780000
271.228790	146.880000
271.321808	146.380000
271.414795	146.060000
271.507782	145.800000
271.600800	145.140000
271.693817	145.080000
271.786804	145.680000
271.879822	146.180000
271.972809	146.200000
272.065826	147.220000
272.158844	146.860000
272.251831	147.000000
272.344849	146.920000
272.437866	146.600000
272.530853	146.300000
272.623871	146.820000
272.716888	145.700000
272.809906	146.000000
272.902893	145.960000
272.995911	145.620000
273.088928	145.300000
273.181946	145.720000
273.274963	145.280000
273.367981	145.480000
273.460999	145.460000
273.554047	146.100000
273.647003	146.740000
273.740051	146.800000
273.833069	147.080000
273.926086	147.420000
274.019135	146.700000
274.112152	146.320000
274.205170	146.440000
274.298187	146.720000
274.391205	146.540000
274.484222	146.760000
274.577240	146.680000
274.670258	146.580000
274.763306	146.180000
274.856323	146.400000
274.949341	146.520000
275.042358	147.140000
275.135406	147.100000
275.228424	147.120000
275.321442	147.260000
275.414490	146.840000
275.507507	146.700000
275.600525	147.200000
275.693573	146.880000
275.786591	146.620000
275.879669	146.920000
275.972656	146.300000
276.065735	146.060000
276.158752	146.860000
276.251801	147.540000
276.344818	147.500000
276.437866	147.720000
276.530884	147.220000
276.623932	146.180000
276.716980	145.800000
276.809998	145.860000
276.903046	145.820000
276.996094	146.960000
277.089111	147.780000
277.182159	148.060000
277.275208	147.680000
277.368256	147.560000
277.461304	147.040000
277.554321	146.240000
277.647369	146.220000
277.740417	146.360000
277.833466	146.360000
277.926514	146.060000
278.019562	146.880000
278.112610	146.240000
278.205688	146.400000
278.298706	146.280000
278.391785	146.360000
278.484833	145.700000
278.577881	145.740000
278.670929	146.060000
278.763977	146.360000
278.857025	146.820000
278.950073	146.960000
279.043121	146.880000
279.136169	146.620000
279.229248	146.460000
279.322296	146.160000
279.415344	145.900000
279.508392	145.880000
279.601440	145.860000
279.694519	145.760000
279.787567	145.640000
279.880615	145.800000
279.973694	145.980000
280.066742	146.080000
280.159790	146.260000
280.252869	145.820000
280.345917	146.180000
280.438995	146.260000
280.532074	145.840000
280.625122	146.020000
280.718201	147.140000
280.811279	146.660000
280.904327	146.780000
280.997406	147.180000
281.090454	147.100000
281.183533	146.340000
281.276581	146.560000
281.369659	145.940000
281.462738	145.840000
281.555786	146.100000
281.648865	146.220000
281.741943	146.220000
281.835022	147.060000
281.928070	146.880000
282.021149	146.340000
282.114227	146.340000
282.207306	146.400000
282.300385	146.400000
282.393433	146.720000
282.486511	146.980000
282.579590	147.140000
282.672668	147.340000
282.765747	146.680000
282.858856	146.460000
282.951904	146.380000
283.045013	146.520000
283.138062	146.540000
283.231171	146.980000
283.324249	147.380000
283.417328	147.580000
283.510406	147.260000
283.603485	147.180000
283.696564	146.940000
283.789642	146.660000
283.882751	146.340000
283.975830	146.820000
284.068909	146.620000
284.161987	147.340000
284.255066	147.060000
284.348175	147.300000
284.441254	146.780000
284.534332	147.040000
284.627441	146.220000
284.720520	145.800000
284.813599	145.800000
284.906708	146.060000
284.999786	145.500000
285.092896	145.640000
285.185974	146.780000
285.279053	146.180000
285.372192	146.180000
285.465240	146.920000
285.558380	146.680000
285.651459	146.160000
285.744568	146.900000
285.837677	146.460000
285.930756	146.120000
286.023865	146.220000
286.116943	146.120000
286.210052	146.180000
286.303162	146.140000
286.396240	146.220000
286.489349	146.140000
286.582458	146.340000
286.675568	146.000000
286.768646	146.280000
286.861755	146.440000
286.954865	146.980000
287.047974	146.740000
287.141083	146.480000
287.234161	146.400000
287.327271	146.060000
287.420380	146.180000
287.513519	146.040000
287.606598	146.380000
287.699738	146.680000
287.792816	146.880000
287.885956	146.540000
287.979034	146.560000
288.072174	146.540000
288.165283	146.140000
288.258392	146.140000
288.351501	145.840000
288.444611	146.140000
288.537720	146.260000
288.630859	146.200000
288.723969	146.220000
288.817078	146.520000
288.910187	146.320000
289.003296	145.540000
289.096436	145.400000
289.189545	145.000000
289.282654	144.440000
289.375763	144.800000
289.468903	145.740000
289.562012	146.000000
289.655121	146.260000
289.748260	146.840000
289.841400	147.000000
289.934509	146.500000
290.027649	146.880000
290.120728	146.980000
290.213898	146.960000
290.306976	146.420000
290.400146	147.100000
290.493256	146.340000
290.586395	146.600000
290.679535	146.820000
290.772644	146.980000
290.865784	146.020000
290.958893	146.300000
291.052032	145.920000
291.145172	145.760000
291.238281	145.220000
291.331421	145.480000
291.424561	145.980000
291.517670	145.780000
291.610809	145.940000
291.703949	146.340000
291.797089	146.700000
291.890228	145.960000
291.983337	146.240000
292.076477	145.820000
292.169617	146.060000
292.262756	145.620000
292.355927	146.060000
292.449036	145.680000
292.542206	145.760000
292.635315	145.960000
292.728485	146.560000
292.821625	146.020000
292.914764	147.300000
293.007904	147.480000
293.101044	147.200000
293.194183	146.860000
293.287323	147.360000
293.380463	146.440000
293.473602	146.160000
293.566742	146.400000
293.659882	146.800000
293.753021	146.800000
293.846191	146.600000
293.939331	146.260000
294.032471	145.840000
294.125610	145.360000
294.218781	145.880000
294.311920	146.680000
294.405060	147.300000
294.498230	147.280000
294.591370	147.380000
294.684540	146.340000
294.777679	145.500000
294.870850	145.620000
294.963959	145.900000
295.057159	146.040000
295.150299	146.600000
295.243469	146.940000
295.336609	146.320000
295.429779	146.380000
295.522919	146.460000
295.616089	146.380000
295.709229	146.780000
295.802399	147.180000
295.895569	146.780000
295.988708	146.960000
296.081879	147.000000
296.175018	146.160000
296.268188	146.340000
296.361359	146.880000
296.454529	146.720000
296.547668	146.760000
296.640839	147.500000
296.734009	147.100000
296.827179	147.140000
296.920319	147.500000
297.013519	147.160000
297.106659	147.080000
297.199860	147.100000
297.292999	146.860000
297.386200	146.400000
297.479309	146.640000
297.572510	146.320000
297.665680	146.240000
297.758850	146.300000
297.852020	146.040000
297.945190	145.780000
298.038361	145.940000
298.131531	146.940000
298.224701	146.900000
298.317871	146.620000
298.411072	146.400000
298.504242	145.960000
298.597412	144.980000
298.690582	145.160000
298.783752	145.760000
298.876923	146.240000
298.970093	146.440000
299.063293	146.860000
299.156464	147.020000
299.249634	147.120000
299.342834	147.240000
299.436005	147.500000
299.529205	147.480000
299.622345	147.180000
299.715576	146.280000
299.808716	145.920000
299.901917	145.880000
299.995117	145.900000
300.088287	146.220000
300.181488	146.400000
300.274658	146.360000
300.367828	146.480000
300.461029	146.440000
300.554199	146.440000
300.647400	146.760000
300.740601	147.380000
300.833771	146.960000
300.926971	147.140000
301.020142	146.280000
301.113342	146.360000
301.206512	146.020000
301.299713	146.520000
301.392914	146.400000
301.486084	146.880000
301.579285	146.660000
301.672516	146.920000
301.765686	146.780000
301.858887	146.940000
301.952057	146.820000
302.045288	146.900000
302.138458	146.820000
302.231659	146.280000
302.324860	146.080000
302.418060	145.840000
302.511261	145.820000
302.604462	145.900000
302.697662	145.920000
302.790863	145.820000
302.884064	145.640000
302.977264	145.920000
303.070465	145.880000
303.163666	146.860000
303.256866	147.120000
303.350067	147.500000
303.443268	146.980000
303.536469	147.420000
303.629669	146.600000
303.722870	146.620000
303.816071	146.340000
303.909271	146.380000
304.002472	145.220000
304.095673	145.160000
304.188934	144.200000
304.282104	145.320000
304.375336	145.480000
304.468506	145.860000
304.561768	145.740000
304.654968	146.540000
304.748169	145.700000
304.841370	145.500000
304.934601	145.960000
305.027802	146.120000
305.121002	145.920000
305.214233	146.200000
305.307434	146.500000
305.400665	146.740000
305.493866	146.660000
