Model Number: SPM-002-B   
Serial Number: 70087108
Firmware Version: 004.15.4
Exposure Time: 100000.000000us
Data Taken on: 11-12-2020 19:30:14.411
Wavelength	Amplitude
221.570786	0.000000
221.663406	0.000000
221.756027	0.000000
221.848648	0.000000
221.941269	0.000000
222.033905	0.000000
222.126526	0.000000
222.219162	0.000000
222.311798	0.000000
222.404419	0.000000
222.497055	0.000000
222.589676	0.000000
222.682312	0.000000
222.774933	0.000000
222.867569	0.000000
222.960205	0.000000
223.052841	0.000000
223.145462	0.000000
223.238098	0.000000
223.330734	0.000000
223.423386	0.000000
223.516022	0.000000
223.608658	0.000000
223.701309	0.000000
223.793945	0.000000
223.886581	0.000000
223.979218	0.000000
224.071869	0.000000
224.164505	0.000000
224.257156	0.000000
224.349792	0.000000
224.442444	0.000000
224.535095	0.000000
224.627747	0.000000
224.720398	0.000000
224.813034	0.000000
224.905685	0.000000
224.998337	145.700000
225.090988	145.240000
225.183640	145.260000
225.276291	145.320000
225.368942	145.800000
225.461594	146.420000
225.554245	146.640000
225.646912	146.800000
225.739578	147.000000
225.832230	147.440000
225.924896	146.720000
226.017548	147.300000
226.110199	147.680000
226.202866	146.980000
226.295532	146.520000
226.388184	146.460000
226.480850	145.760000
226.573517	145.340000
226.666168	145.600000
226.758835	145.880000
226.851501	146.480000
226.944183	146.820000
227.036850	146.340000
227.129517	146.340000
227.222183	146.340000
227.314850	146.020000
227.407516	146.120000
227.500198	146.680000
227.592865	146.380000
227.685532	146.160000
227.778214	145.980000
227.870880	146.000000
227.963562	146.660000
228.056229	146.860000
228.148926	146.580000
228.241592	147.240000
228.334274	146.780000
228.426956	146.400000
228.519638	146.560000
228.612305	146.360000
228.704987	146.180000
228.797668	146.560000
228.890350	146.300000
228.983032	146.000000
229.075714	146.540000
229.168396	146.240000
229.261108	145.860000
229.353790	145.880000
229.446472	145.900000
229.539169	145.660000
229.631851	145.340000
229.724533	145.500000
229.817230	145.800000
229.909912	146.920000
230.002609	146.980000
230.095306	146.960000
230.187988	147.120000
230.280685	146.600000
230.373383	145.260000
230.466095	145.260000
230.558792	145.440000
230.651474	145.320000
230.744171	145.440000
230.836868	145.640000
230.929581	145.720000
231.022278	146.080000
231.114975	145.920000
231.207672	145.820000
231.300369	146.440000
231.393082	146.440000
231.485779	146.120000
231.578506	146.420000
231.671204	146.540000
231.763916	146.240000
231.856613	146.060000
231.949326	146.420000
232.042023	146.000000
232.134735	146.060000
232.227448	145.940000
232.320160	146.220000
232.412872	145.860000
232.505585	146.800000
232.598297	147.100000
232.691010	146.720000
232.783722	146.280000
232.876450	146.900000
232.969162	146.080000
233.061874	145.500000
233.154587	145.420000
233.247314	145.680000
233.340027	145.260000
233.432739	145.980000
233.525467	145.980000
233.618179	146.500000
233.710907	146.380000
233.803635	146.660000
233.896347	145.980000
233.989090	146.620000
234.081818	146.520000
234.174545	146.800000
234.267258	146.180000
234.359985	146.620000
234.452713	146.300000
234.545441	146.120000
234.638168	145.880000
234.730896	146.540000
234.823639	146.480000
234.916367	147.040000
235.009094	147.080000
235.101822	146.880000
235.194580	146.600000
235.287308	146.340000
235.380051	145.480000
235.472778	145.700000
235.565521	146.080000
235.658249	145.740000
235.750992	145.580000
235.843719	145.760000
235.936462	145.920000
236.029205	145.620000
236.121948	145.660000
236.214691	146.160000
236.307449	146.720000
236.400192	146.440000
236.492935	146.220000
236.585678	146.380000
236.678421	146.260000
236.771164	146.000000
236.863907	146.620000
236.956665	147.020000
237.049408	148.540000
237.142151	148.180000
237.234909	148.560000
237.327652	148.320000
237.420410	148.140000
237.513153	146.980000
237.605927	146.960000
237.698669	146.400000
237.791428	145.720000
237.884186	146.160000
237.976944	146.040000
238.069702	146.460000
238.162445	146.160000
238.255203	146.280000
238.347961	146.420000
238.440720	146.220000
238.533478	146.000000
238.626266	146.020000
238.719025	146.200000
238.811783	145.960000
238.904541	145.680000
238.997314	145.680000
239.090073	145.420000
239.182831	145.740000
239.275604	146.080000
239.368362	145.920000
239.461136	146.040000
239.553909	146.200000
239.646667	145.960000
239.739441	145.820000
239.832214	146.140000
239.925003	146.180000
240.017761	146.920000
240.110535	147.280000
240.203308	146.620000
240.296082	146.680000
240.388855	146.480000
240.481628	146.140000
240.574417	146.100000
240.667191	146.480000
240.759964	146.260000
240.852737	146.360000
240.945526	146.060000
241.038315	145.760000
241.131088	145.680000
241.223877	145.960000
241.316650	145.780000
241.409439	146.320000
241.502228	146.040000
241.595001	146.460000
241.687790	146.420000
241.780579	146.440000
241.873367	146.440000
241.966141	146.680000
242.058929	146.200000
242.151718	146.280000
242.244507	146.560000
242.337311	145.800000
242.430099	146.140000
242.522903	146.120000
242.615692	145.680000
242.708481	145.480000
242.801270	146.120000
242.894073	145.880000
242.986862	146.140000
243.079651	146.600000
243.172455	146.480000
243.265244	146.420000
243.358063	145.940000
243.450867	146.260000
243.543655	146.080000
243.636459	146.340000
243.729263	146.580000
243.822067	147.440000
243.914856	147.480000
244.007660	147.680000
244.100464	147.580000
244.193268	147.140000
244.286072	146.660000
244.378876	146.180000
244.471680	146.180000
244.564499	146.400000
244.657318	147.080000
244.750122	147.300000
244.842926	146.940000
244.935745	146.900000
245.028549	146.440000
245.121368	146.080000
245.214172	145.820000
245.306992	146.320000
245.399796	146.120000
245.492615	146.340000
245.585434	146.060000
245.678253	146.340000
245.771072	146.080000
245.863892	146.460000
245.956711	146.760000
246.049530	146.820000
246.142349	146.400000
246.235168	146.420000
246.327988	146.620000
246.420807	146.460000
246.513626	146.340000
246.606445	146.500000
246.699280	146.620000
246.792099	146.340000
246.884918	145.920000
246.977753	145.880000
247.070587	146.100000
247.163422	146.140000
247.256241	145.860000
247.349075	146.060000
247.441895	145.940000
247.534729	145.660000
247.627563	145.440000
247.720383	146.220000
247.813217	146.040000
247.906052	145.940000
247.998886	146.120000
248.091736	146.120000
248.184570	145.540000
248.277405	145.760000
248.370239	146.980000
248.463074	147.840000
248.555908	148.040000
248.648743	148.020000
248.741592	148.180000
248.834427	147.440000
248.927261	146.140000
249.020111	146.540000
249.112946	147.140000
249.205795	146.640000
249.298630	146.740000
249.391495	147.060000
249.484344	146.620000
249.577179	146.120000
249.670029	146.500000
249.762878	146.660000
249.855728	146.720000
249.948563	146.880000
250.041412	146.460000
250.134262	146.580000
250.227112	146.360000
250.319962	146.560000
250.412827	146.540000
250.505692	146.380000
250.598541	146.180000
250.691391	146.140000
250.784241	145.860000
250.877106	145.900000
250.969955	146.020000
251.062805	146.520000
251.155670	147.000000
251.248520	147.060000
251.341385	147.300000
251.434235	147.520000
251.527100	147.340000
251.619965	146.860000
251.712814	147.380000
251.805695	147.240000
251.898560	147.200000
251.991425	147.040000
252.084290	147.300000
252.177155	146.600000
252.270020	146.100000
252.362885	146.140000
252.455750	146.360000
252.548615	146.000000
252.641479	146.040000
252.734360	146.000000
252.827240	145.960000
252.920105	145.680000
253.012970	145.680000
253.105850	145.680000
253.198715	145.720000
253.291595	145.900000
253.384460	145.900000
253.477341	146.000000
253.570221	146.220000
253.663086	146.420000
253.755966	146.960000
253.848846	147.000000
253.941727	147.260000
254.034592	147.340000
254.127472	146.620000
254.220367	146.400000
254.313248	146.560000
254.406128	146.060000
254.499008	146.380000
254.591904	147.600000
254.684784	147.960000
254.777664	147.780000
254.870544	147.680000
254.963440	147.260000
255.056335	147.040000
255.149216	146.340000
255.242111	146.800000
255.334991	147.320000
255.427887	147.300000
255.520767	147.480000
255.613663	147.620000
255.706558	146.920000
255.799438	146.420000
255.892334	146.460000
255.985229	146.040000
256.078125	146.140000
256.171021	146.520000
256.263916	147.120000
256.356812	147.400000
256.449707	147.660000
256.542603	147.460000
256.635498	147.940000
256.728394	147.720000
256.821289	147.320000
256.914215	147.380000
257.007080	147.440000
257.100006	146.980000
257.192932	147.280000
257.285828	147.240000
257.378723	146.720000
257.471619	146.500000
257.564545	146.000000
257.657440	145.620000
257.750336	146.220000
257.843262	146.300000
257.936157	147.500000
258.029053	147.880000
258.121979	148.060000
258.214874	147.760000
258.307800	147.700000
258.400696	146.280000
258.493622	146.420000
258.586517	145.400000
258.679443	145.640000
258.772339	145.380000
258.865265	145.640000
258.958160	145.000000
259.051086	146.300000
259.144012	145.840000
259.236938	146.840000
259.329834	147.100000
259.422791	147.180000
259.515717	146.100000
259.608612	146.040000
259.701538	145.680000
259.794464	145.660000
259.887390	146.020000
259.980316	146.240000
260.073212	146.260000
260.166138	144.960000
260.259064	144.920000
260.351990	145.160000
260.444916	145.520000
260.537842	145.760000
260.630768	147.020000
260.723694	146.960000
260.816620	146.940000
260.909546	146.580000
261.002472	146.000000
261.095398	145.740000
261.188354	145.840000
261.281281	145.340000
261.374207	145.820000
261.467133	146.680000
261.560089	146.480000
261.653015	146.300000
261.745972	147.020000
261.838867	147.220000
261.931824	146.900000
262.024780	146.660000
262.117706	146.940000
262.210663	146.980000
262.303589	146.680000
262.396515	146.680000
262.489471	147.700000
262.582397	147.420000
262.675354	146.740000
262.768280	146.600000
262.861237	146.580000
262.954163	146.280000
263.047119	146.300000
263.140045	146.140000
263.233002	146.360000
263.325958	146.260000
263.418884	145.740000
263.511841	145.840000
263.604797	146.020000
263.697723	145.680000
263.790680	145.720000
263.883636	145.980000
263.976593	145.540000
264.069550	145.520000
264.162476	145.560000
264.255463	145.660000
264.348419	145.460000
264.441376	145.980000
264.534332	145.740000
264.627289	145.920000
264.720245	146.120000
264.813202	146.020000
264.906158	146.020000
264.999115	146.760000
265.092072	146.580000
265.185028	146.980000
265.277985	147.280000
265.370941	147.400000
265.463898	146.960000
265.556854	146.720000
265.649811	145.680000
265.742798	145.580000
265.835754	145.360000
265.928711	146.020000
266.021667	146.380000
266.114655	146.620000
266.207611	146.980000
266.300568	146.480000
266.393585	146.020000
266.486511	146.380000
266.579498	145.940000
266.672485	145.860000
266.765442	145.860000
266.858429	146.120000
266.951385	145.460000
267.044342	145.820000
267.137329	145.460000
267.230316	145.940000
267.323273	145.580000
267.416260	146.500000
267.509216	146.580000
267.602203	146.740000
267.695160	147.160000
267.788147	147.260000
267.881134	146.500000
267.974091	146.780000
268.067078	146.640000
268.160065	146.120000
268.253052	146.020000
268.346008	146.160000
268.438995	145.840000
268.531982	146.000000
268.624969	145.940000
268.717987	146.400000
268.810944	146.480000
268.903961	146.620000
268.996948	146.620000
269.089905	147.400000
269.182892	147.220000
269.275879	147.380000
269.368866	146.820000
269.461853	146.660000
269.554871	146.260000
269.647858	146.020000
269.740845	146.100000
269.833832	146.780000
269.926819	146.780000
270.019806	146.460000
270.112793	146.280000
270.205811	146.560000
270.298798	146.220000
270.391785	147.020000
270.484772	146.860000
270.577789	147.140000
270.670776	146.460000
270.763763	146.740000
270.856750	146.320000
270.949768	146.120000
271.042786	146.280000
271.135773	146.260000
271.228790	146.320000
271.321808	145.880000
271.414795	145.880000
271.507782	145.400000
271.600800	145.440000
271.693817	145.460000
271.786804	145.940000
271.879822	146.600000
271.972809	146.780000
272.065826	147.220000
272.158844	146.480000
272.251831	146.740000
272.344849	146.440000
272.437866	145.980000
272.530853	145.780000
272.623871	146.560000
272.716888	145.580000
272.809906	145.720000
272.902893	145.860000
272.995911	145.220000
273.088928	144.900000
273.181946	145.340000
273.274963	144.840000
273.367981	145.060000
273.460999	145.480000
273.554047	145.920000
273.647003	146.420000
273.740051	146.680000
273.833069	147.040000
273.926086	147.100000
274.019135	146.540000
274.112152	145.860000
274.205170	145.920000
274.298187	145.980000
274.391205	145.720000
274.484222	145.940000
274.577240	146.200000
274.670258	146.160000
274.763306	145.760000
274.856323	146.260000
274.949341	146.180000
275.042358	146.500000
275.135406	146.340000
275.228424	146.300000
275.321442	146.180000
275.414490	145.880000
275.507507	145.880000
275.600525	146.400000
275.693573	146.380000
275.786591	146.020000
275.879669	146.620000
275.972656	146.280000
276.065735	146.000000
276.158752	146.480000
276.251801	147.200000
276.344818	146.980000
276.437866	147.440000
276.530884	147.320000
276.623932	146.560000
276.716980	146.240000
276.809998	146.380000
276.903046	146.220000
276.996094	147.020000
277.089111	147.640000
277.182159	148.240000
277.275208	147.800000
277.368256	147.560000
277.461304	147.020000
277.554321	146.340000
277.647369	145.720000
277.740417	145.800000
277.833466	145.740000
277.926514	145.200000
278.019562	146.060000
278.112610	145.540000
278.205688	145.900000
278.298706	146.180000
278.391785	146.460000
278.484833	145.940000
278.577881	146.000000
278.670929	146.440000
278.763977	146.220000
278.857025	146.600000
278.950073	146.540000
279.043121	146.440000
279.136169	146.120000
279.229248	145.740000
279.322296	145.680000
279.415344	145.540000
279.508392	145.880000
279.601440	145.540000
279.694519	145.820000
279.787567	145.540000
279.880615	145.460000
279.973694	145.480000
280.066742	145.600000
280.159790	145.760000
280.252869	145.600000
280.345917	145.960000
280.438995	145.720000
280.532074	145.800000
280.625122	145.800000
280.718201	146.840000
280.811279	146.880000
280.904327	147.120000
280.997406	146.980000
281.090454	147.080000
281.183533	146.400000
281.276581	146.240000
281.369659	146.060000
281.462738	146.500000
281.555786	146.620000
281.648865	146.440000
281.741943	146.480000
281.835022	147.440000
281.928070	147.040000
282.021149	146.900000
282.114227	146.980000
282.207306	147.120000
282.300385	146.680000
282.393433	147.160000
282.486511	147.140000
282.579590	147.620000
282.672668	147.800000
282.765747	147.500000
282.858856	146.880000
282.951904	146.860000
283.045013	146.920000
283.138062	147.200000
283.231171	147.080000
283.324249	147.380000
283.417328	147.500000
283.510406	147.080000
283.603485	146.660000
283.696564	146.760000
283.789642	146.720000
283.882751	146.280000
283.975830	146.620000
284.068909	146.340000
284.161987	146.920000
284.255066	146.560000
284.348175	146.680000
284.441254	146.440000
284.534332	146.920000
284.627441	146.300000
284.720520	146.200000
284.813599	146.560000
284.906708	146.360000
284.999786	145.600000
285.092896	145.480000
285.185974	146.240000
285.279053	145.460000
285.372192	145.480000
285.465240	146.420000
285.558380	146.340000
285.651459	146.000000
285.744568	147.220000
285.837677	147.360000
285.930756	147.100000
286.023865	147.580000
286.116943	147.120000
286.210052	147.040000
286.303162	146.700000
286.396240	146.540000
286.489349	146.100000
286.582458	146.400000
286.675568	145.980000
286.768646	146.340000
286.861755	146.700000
286.954865	147.360000
287.047974	147.140000
287.141083	146.860000
287.234161	146.460000
287.327271	146.060000
287.420380	146.200000
287.513519	146.040000
287.606598	146.300000
287.699738	146.820000
287.792816	146.920000
287.885956	146.600000
287.979034	146.600000
288.072174	146.700000
288.165283	146.260000
288.258392	146.440000
288.351501	145.700000
288.444611	146.280000
288.537720	146.380000
288.630859	146.320000
288.723969	146.240000
288.817078	146.760000
288.910187	146.580000
289.003296	145.960000
289.096436	145.920000
289.189545	145.620000
289.282654	145.240000
289.375763	145.480000
289.468903	145.960000
289.562012	146.180000
289.655121	146.440000
289.748260	146.740000
289.841400	147.140000
289.934509	147.160000
290.027649	147.260000
290.120728	147.060000
290.213898	147.040000
290.306976	146.340000
290.400146	145.920000
290.493256	145.560000
290.586395	145.640000
290.679535	146.120000
290.772644	145.880000
290.865784	145.460000
290.958893	145.440000
291.052032	145.320000
291.145172	145.160000
291.238281	145.100000
291.331421	145.460000
291.424561	146.000000
291.517670	145.800000
291.610809	145.680000
291.703949	145.920000
291.797089	146.280000
291.890228	145.620000
291.983337	145.880000
292.076477	145.600000
292.169617	145.760000
292.262756	145.700000
292.355927	145.760000
292.449036	145.340000
292.542206	145.740000
292.635315	145.900000
292.728485	146.180000
292.821625	146.060000
292.914764	147.380000
293.007904	147.280000
293.101044	147.140000
293.194183	146.740000
293.287323	147.120000
293.380463	146.380000
293.473602	146.220000
293.566742	146.300000
293.659882	146.660000
293.753021	147.120000
293.846191	146.940000
293.939331	146.740000
294.032471	146.620000
294.125610	146.300000
294.218781	146.340000
294.311920	146.900000
294.405060	146.960000
294.498230	147.040000
294.591370	146.960000
294.684540	146.160000
294.777679	145.520000
294.870850	146.120000
294.963959	145.900000
295.057159	146.080000
295.150299	146.600000
295.243469	146.520000
295.336609	145.740000
295.429779	145.700000
295.522919	145.860000
295.616089	145.920000
295.709229	146.540000
295.802399	146.780000
295.895569	146.960000
295.988708	146.860000
296.081879	146.740000
296.175018	145.980000
296.268188	146.220000
296.361359	146.460000
296.454529	146.360000
296.547668	146.140000
296.640839	146.620000
296.734009	146.120000
296.827179	145.860000
296.920319	146.280000
297.013519	146.300000
297.106659	146.520000
297.199860	146.700000
297.292999	146.720000
297.386200	146.100000
297.479309	145.840000
297.572510	145.820000
297.665680	145.760000
297.758850	145.900000
297.852020	146.220000
297.945190	146.280000
298.038361	145.740000
298.131531	146.500000
298.224701	146.200000
298.317871	145.700000
298.411072	145.560000
298.504242	145.560000
298.597412	145.020000
298.690582	145.540000
298.783752	145.820000
298.876923	146.360000
298.970093	146.480000
299.063293	146.740000
299.156464	146.680000
299.249634	146.860000
299.342834	146.540000
299.436005	146.920000
299.529205	146.600000
299.622345	146.740000
299.715576	146.200000
299.808716	146.080000
299.901917	146.040000
299.995117	146.680000
300.088287	146.660000
300.181488	146.680000
300.274658	146.820000
300.367828	146.600000
300.461029	146.120000
300.554199	146.260000
300.647400	146.080000
300.740601	146.840000
300.833771	146.720000
300.926971	147.060000
301.020142	146.380000
301.113342	146.660000
301.206512	145.940000
301.299713	146.120000
301.392914	146.020000
301.486084	146.560000
301.579285	146.680000
301.672516	147.280000
301.765686	147.220000
301.858887	146.900000
301.952057	146.420000
302.045288	146.720000
302.138458	146.500000
302.231659	146.260000
302.324860	146.540000
302.418060	146.320000
302.511261	145.920000
302.604462	146.120000
302.697662	146.000000
302.790863	145.900000
302.884064	145.980000
302.977264	146.160000
303.070465	146.200000
303.163666	147.020000
303.256866	146.940000
303.350067	146.800000
303.443268	146.680000
303.536469	146.640000
303.629669	146.200000
303.722870	146.120000
303.816071	146.280000
303.909271	146.420000
304.002472	145.720000
304.095673	145.520000
304.188934	144.960000
304.282104	145.800000
304.375336	145.840000
304.468506	145.940000
304.561768	146.000000
304.654968	146.740000
304.748169	146.360000
304.841370	146.120000
304.934601	146.620000
305.027802	146.160000
305.121002	146.000000
305.214233	145.720000
305.307434	145.760000
305.400665	145.880000
305.493866	146.020000
