Model Number: SPM-002-B   
Serial Number: 70087108
Firmware Version: 004.15.4
Exposure Time: 100000.000000us
Data Taken on: 11-12-2020 19:30:21.080
Wavelength	Amplitude
221.570786	0.000000
221.663406	0.000000
221.756027	0.000000
221.848648	0.000000
221.941269	0.000000
222.033905	0.000000
222.126526	0.000000
222.219162	0.000000
222.311798	0.000000
222.404419	0.000000
222.497055	0.000000
222.589676	0.000000
222.682312	0.000000
222.774933	0.000000
222.867569	0.000000
222.960205	0.000000
223.052841	0.000000
223.145462	0.000000
223.238098	0.000000
223.330734	0.000000
223.423386	0.000000
223.516022	0.000000
223.608658	0.000000
223.701309	0.000000
223.793945	0.000000
223.886581	0.000000
223.979218	0.000000
224.071869	0.000000
224.164505	0.000000
224.257156	0.000000
224.349792	0.000000
224.442444	0.000000
224.535095	0.000000
224.627747	0.000000
224.720398	0.000000
224.813034	0.000000
224.905685	0.000000
224.998337	145.680000
225.090988	145.220000
225.183640	145.260000
225.276291	144.820000
225.368942	145.320000
225.461594	145.760000
225.554245	145.940000
225.646912	145.900000
225.739578	146.460000
225.832230	146.560000
225.924896	145.880000
226.017548	146.160000
226.110199	146.540000
226.202866	145.920000
226.295532	145.660000
226.388184	145.620000
226.480850	145.180000
226.573517	144.560000
226.666168	144.900000
226.758835	145.460000
226.851501	145.860000
226.944183	146.080000
227.036850	145.860000
227.129517	145.760000
227.222183	145.880000
227.314850	145.780000
227.407516	145.880000
227.500198	146.860000
227.592865	146.720000
227.685532	146.260000
227.778214	146.000000
227.870880	146.300000
227.963562	146.560000
228.056229	147.000000
228.148926	146.900000
228.241592	147.900000
228.334274	147.300000
228.426956	146.720000
228.519638	146.600000
228.612305	146.520000
228.704987	146.160000
228.797668	146.300000
228.890350	145.940000
228.983032	145.500000
229.075714	146.100000
229.168396	145.760000
229.261108	145.320000
229.353790	145.600000
229.446472	145.840000
229.539169	145.400000
229.631851	144.900000
229.724533	145.240000
229.817230	145.280000
229.909912	146.080000
230.002609	146.360000
230.095306	146.760000
230.187988	146.880000
230.280685	147.020000
230.373383	146.100000
230.466095	145.780000
230.558792	146.020000
230.651474	146.140000
230.744171	145.800000
230.836868	145.720000
230.929581	146.340000
231.022278	146.180000
231.114975	146.240000
231.207672	146.120000
231.300369	146.460000
231.393082	146.200000
231.485779	146.440000
231.578506	146.340000
231.671204	146.540000
231.763916	146.700000
231.856613	146.600000
231.949326	146.460000
232.042023	146.260000
232.134735	146.060000
232.227448	145.580000
232.320160	145.880000
232.412872	145.880000
232.505585	146.620000
232.598297	147.300000
232.691010	147.320000
232.783722	146.560000
232.876450	147.200000
232.969162	146.520000
233.061874	145.920000
233.154587	145.640000
233.247314	146.200000
233.340027	145.600000
233.432739	146.100000
233.525467	146.060000
233.618179	146.780000
233.710907	146.340000
233.803635	146.620000
233.896347	146.480000
233.989090	147.120000
234.081818	146.920000
234.174545	147.580000
234.267258	146.900000
234.359985	147.080000
234.452713	146.600000
234.545441	146.540000
234.638168	145.820000
234.730896	146.440000
234.823639	146.120000
234.916367	146.840000
235.009094	147.000000
235.101822	147.220000
235.194580	147.040000
235.287308	147.080000
235.380051	146.380000
235.472778	146.380000
235.565521	146.840000
235.658249	146.640000
235.750992	146.840000
235.843719	146.680000
235.936462	146.940000
236.029205	146.320000
236.121948	146.080000
236.214691	146.340000
236.307449	147.040000
236.400192	146.440000
236.492935	146.500000
236.585678	146.660000
236.678421	146.240000
236.771164	145.980000
236.863907	146.660000
236.956665	146.880000
237.049408	148.440000
237.142151	147.820000
237.234909	148.240000
237.327652	147.880000
237.420410	147.420000
237.513153	146.340000
237.605927	146.680000
237.698669	146.060000
237.791428	145.500000
237.884186	146.340000
237.976944	145.500000
238.069702	146.060000
238.162445	145.780000
238.255203	146.220000
238.347961	146.180000
238.440720	146.860000
238.533478	146.260000
238.626266	146.140000
238.719025	146.220000
238.811783	145.800000
238.904541	145.600000
238.997314	145.780000
239.090073	145.740000
239.182831	145.960000
239.275604	146.840000
239.368362	146.420000
239.461136	146.260000
239.553909	146.480000
239.646667	146.100000
239.739441	145.540000
239.832214	145.920000
239.925003	146.080000
240.017761	146.600000
240.110535	147.220000
240.203308	146.660000
240.296082	146.720000
240.388855	146.660000
240.481628	146.380000
240.574417	146.320000
240.667191	146.560000
240.759964	146.320000
240.852737	146.480000
240.945526	146.200000
241.038315	145.560000
241.131088	145.760000
241.223877	146.220000
241.316650	145.980000
241.409439	146.340000
241.502228	146.320000
241.595001	146.820000
241.687790	146.520000
241.780579	146.380000
241.873367	146.680000
241.966141	147.140000
242.058929	146.260000
242.151718	146.620000
242.244507	147.360000
242.337311	146.540000
242.430099	146.660000
242.522903	147.280000
242.615692	146.740000
242.708481	146.200000
242.801270	146.900000
242.894073	146.580000
242.986862	146.160000
243.079651	146.780000
243.172455	146.620000
243.265244	146.380000
243.358063	145.880000
243.450867	146.140000
243.543655	145.860000
243.636459	146.220000
243.729263	146.500000
243.822067	147.060000
243.914856	147.580000
244.007660	147.700000
244.100464	147.460000
244.193268	147.220000
244.286072	147.400000
244.378876	146.500000
244.471680	146.120000
244.564499	146.540000
244.657318	147.060000
244.750122	147.160000
244.842926	146.780000
244.935745	147.160000
245.028549	146.620000
245.121368	146.180000
245.214172	145.920000
245.306992	146.800000
245.399796	146.620000
245.492615	146.820000
245.585434	146.600000
245.678253	146.580000
245.771072	146.120000
245.863892	146.600000
245.956711	146.820000
246.049530	146.460000
246.142349	146.080000
246.235168	146.260000
246.327988	146.320000
246.420807	146.140000
246.513626	146.600000
246.606445	146.760000
246.699280	146.760000
246.792099	146.300000
246.884918	145.880000
246.977753	145.580000
247.070587	145.840000
247.163422	145.840000
247.256241	146.000000
247.349075	146.600000
247.441895	146.820000
247.534729	146.540000
247.627563	146.120000
247.720383	146.240000
247.813217	146.080000
247.906052	146.020000
247.998886	145.980000
248.091736	146.200000
248.184570	146.000000
248.277405	146.100000
248.370239	146.840000
248.463074	147.880000
248.555908	148.020000
248.648743	147.820000
248.741592	147.800000
248.834427	147.200000
248.927261	145.880000
249.020111	146.220000
249.112946	146.700000
249.205795	146.500000
249.298630	146.700000
249.391495	146.880000
249.484344	146.640000
249.577179	146.380000
249.670029	146.300000
249.762878	146.800000
249.855728	147.320000
249.948563	147.160000
250.041412	146.540000
250.134262	147.000000
250.227112	146.500000
250.319962	146.380000
250.412827	146.600000
250.505692	146.760000
250.598541	146.520000
250.691391	146.080000
250.784241	145.820000
250.877106	146.100000
250.969955	145.880000
251.062805	146.240000
251.155670	146.800000
251.248520	146.600000
251.341385	146.360000
251.434235	146.780000
251.527100	146.300000
251.619965	145.820000
251.712814	146.480000
251.805695	146.600000
251.898560	146.640000
251.991425	147.020000
252.084290	147.020000
252.177155	146.280000
252.270020	145.760000
252.362885	145.580000
252.455750	145.560000
252.548615	145.620000
252.641479	145.780000
252.734360	145.900000
252.827240	145.940000
252.920105	145.780000
253.012970	145.500000
253.105850	145.580000
253.198715	145.480000
253.291595	145.620000
253.384460	145.180000
253.477341	145.460000
253.570221	145.460000
253.663086	145.360000
253.755966	145.980000
253.848846	146.060000
253.941727	146.580000
254.034592	146.660000
254.127472	146.320000
254.220367	146.020000
254.313248	146.700000
254.406128	145.700000
254.499008	146.100000
254.591904	147.160000
254.684784	147.340000
254.777664	147.020000
254.870544	147.000000
254.963440	146.700000
255.056335	146.560000
255.149216	146.000000
255.242111	146.240000
255.334991	146.660000
255.427887	146.580000
255.520767	146.460000
255.613663	146.620000
255.706558	145.820000
255.799438	145.680000
255.892334	145.560000
255.985229	145.280000
256.078125	145.300000
256.171021	145.560000
256.263916	146.360000
256.356812	146.620000
256.449707	146.840000
256.542603	146.600000
256.635498	147.220000
256.728394	146.680000
256.821289	146.280000
256.914215	146.440000
257.007080	146.860000
257.100006	146.920000
257.192932	147.140000
257.285828	147.660000
257.378723	147.460000
257.471619	147.240000
257.564545	146.540000
257.657440	146.620000
257.750336	146.720000
257.843262	146.440000
257.936157	147.500000
258.029053	148.020000
258.121979	147.940000
258.214874	147.740000
258.307800	147.840000
258.400696	146.500000
258.493622	146.220000
258.586517	145.520000
258.679443	145.680000
258.772339	145.160000
258.865265	145.240000
258.958160	145.260000
259.051086	146.060000
259.144012	145.840000
259.236938	146.880000
259.329834	147.300000
259.422791	147.020000
259.515717	146.380000
259.608612	146.160000
259.701538	146.000000
259.794464	145.460000
259.887390	145.260000
259.980316	145.240000
260.073212	145.180000
260.166138	144.460000
260.259064	144.840000
260.351990	145.520000
260.444916	145.940000
260.537842	146.300000
260.630768	147.020000
260.723694	147.120000
260.816620	147.120000
260.909546	146.860000
261.002472	146.600000
261.095398	145.980000
261.188354	146.080000
261.281281	145.500000
261.374207	145.480000
261.467133	146.240000
261.560089	146.600000
261.653015	146.040000
261.745972	146.880000
261.838867	147.160000
261.931824	146.920000
262.024780	146.520000
262.117706	146.960000
262.210663	146.520000
262.303589	146.560000
262.396515	146.680000
262.489471	147.360000
262.582397	147.300000
262.675354	146.740000
262.768280	146.680000
262.861237	146.360000
262.954163	146.180000
263.047119	146.240000
263.140045	146.460000
263.233002	146.420000
263.325958	146.340000
263.418884	145.980000
263.511841	145.780000
263.604797	145.800000
263.697723	146.180000
263.790680	146.120000
263.883636	146.520000
263.976593	146.160000
264.069550	146.620000
264.162476	145.900000
264.255463	146.020000
264.348419	146.000000
264.441376	146.800000
264.534332	146.140000
264.627289	146.440000
264.720245	146.700000
264.813202	145.980000
264.906158	146.020000
264.999115	146.660000
265.092072	146.700000
265.185028	147.340000
265.277985	147.980000
265.370941	147.660000
265.463898	147.280000
265.556854	147.000000
265.649811	145.660000
265.742798	145.560000
265.835754	145.580000
265.928711	146.280000
266.021667	146.300000
266.114655	146.640000
266.207611	146.840000
266.300568	146.600000
266.393585	145.580000
266.486511	146.220000
266.579498	145.820000
266.672485	145.520000
266.765442	145.240000
266.858429	146.300000
266.951385	145.600000
267.044342	145.880000
267.137329	145.820000
267.230316	146.380000
267.323273	145.800000
267.416260	146.480000
267.509216	146.260000
267.602203	146.520000
267.695160	146.680000
267.788147	146.620000
267.881134	146.080000
267.974091	146.360000
268.067078	146.080000
268.160065	146.060000
268.253052	145.860000
268.346008	145.780000
268.438995	145.580000
268.531982	145.660000
268.624969	145.080000
268.717987	145.780000
268.810944	145.940000
268.903961	146.080000
268.996948	145.860000
269.089905	146.660000
269.182892	146.460000
269.275879	146.980000
269.368866	146.660000
269.461853	147.160000
269.554871	146.900000
269.647858	146.780000
269.740845	146.360000
269.833832	146.820000
269.926819	146.540000
270.019806	146.380000
270.112793	146.300000
270.205811	146.500000
270.298798	146.300000
270.391785	146.980000
270.484772	146.660000
270.577789	146.720000
270.670776	146.540000
270.763763	146.440000
270.856750	145.880000
270.949768	145.700000
271.042786	145.740000
271.135773	145.340000
271.228790	145.820000
271.321808	145.760000
271.414795	145.700000
271.507782	145.580000
271.600800	145.480000
271.693817	145.320000
271.786804	145.440000
271.879822	145.720000
271.972809	145.320000
272.065826	146.200000
272.158844	146.080000
272.251831	146.560000
272.344849	146.640000
272.437866	146.720000
272.530853	146.360000
272.623871	146.620000
272.716888	145.480000
272.809906	145.660000
272.902893	145.820000
272.995911	145.180000
273.088928	145.000000
273.181946	145.400000
273.274963	145.180000
273.367981	144.860000
273.460999	145.320000
273.554047	145.820000
273.647003	146.320000
273.740051	146.160000
273.833069	146.780000
273.926086	146.980000
274.019135	146.460000
274.112152	146.280000
274.205170	146.520000
274.298187	146.940000
274.391205	146.460000
274.484222	146.380000
274.577240	146.480000
274.670258	146.700000
274.763306	146.160000
274.856323	146.560000
274.949341	146.840000
275.042358	147.420000
275.135406	147.080000
275.228424	147.000000
275.321442	147.040000
275.414490	146.660000
275.507507	146.340000
275.600525	146.820000
275.693573	146.660000
275.786591	146.160000
275.879669	146.320000
275.972656	146.000000
276.065735	145.600000
276.158752	146.100000
276.251801	147.020000
276.344818	147.240000
276.437866	147.220000
276.530884	147.120000
276.623932	146.380000
276.716980	146.260000
276.809998	146.140000
276.903046	146.240000
276.996094	147.020000
277.089111	147.600000
277.182159	147.900000
277.275208	147.480000
277.368256	147.580000
277.461304	147.100000
277.554321	146.580000
277.647369	146.140000
277.740417	146.360000
277.833466	145.720000
277.926514	145.740000
278.019562	146.520000
278.112610	146.000000
278.205688	145.940000
278.298706	146.400000
278.391785	146.000000
278.484833	145.300000
278.577881	145.540000
278.670929	146.040000
278.763977	146.420000
278.857025	147.120000
278.950073	147.140000
279.043121	147.100000
279.136169	146.820000
279.229248	146.060000
279.322296	145.840000
279.415344	146.240000
279.508392	145.980000
279.601440	145.900000
279.694519	146.380000
279.787567	146.040000
279.880615	145.600000
279.973694	145.980000
280.066742	145.960000
280.159790	146.040000
280.252869	146.080000
280.345917	146.360000
280.438995	146.160000
280.532074	146.260000
280.625122	146.160000
280.718201	147.120000
280.811279	147.280000
280.904327	147.040000
280.997406	147.080000
281.090454	147.180000
281.183533	146.100000
281.276581	145.820000
281.369659	146.040000
281.462738	146.140000
281.555786	146.120000
281.648865	146.440000
281.741943	146.240000
281.835022	146.760000
281.928070	146.600000
282.021149	146.460000
282.114227	146.500000
282.207306	146.560000
282.300385	146.880000
282.393433	146.920000
282.486511	147.000000
282.579590	147.100000
282.672668	147.720000
282.765747	146.840000
282.858856	146.500000
282.951904	146.500000
283.045013	146.760000
283.138062	146.640000
283.231171	147.020000
283.324249	147.480000
283.417328	147.480000
283.510406	146.920000
283.603485	146.640000
283.696564	146.560000
283.789642	146.780000
283.882751	146.380000
283.975830	147.260000
284.068909	147.180000
284.161987	147.600000
284.255066	147.060000
284.348175	147.440000
284.441254	146.920000
284.534332	147.340000
284.627441	146.920000
284.720520	146.800000
284.813599	146.640000
284.906708	146.520000
284.999786	146.200000
285.092896	145.740000
285.185974	147.080000
285.279053	146.800000
285.372192	146.800000
285.465240	147.300000
285.558380	147.440000
285.651459	146.340000
285.744568	147.180000
285.837677	146.980000
285.930756	146.580000
286.023865	146.920000
286.116943	146.760000
286.210052	146.420000
286.303162	146.620000
286.396240	146.760000
286.489349	146.320000
286.582458	146.740000
286.675568	146.600000
286.768646	146.540000
286.861755	146.680000
286.954865	147.500000
287.047974	147.000000
287.141083	146.860000
287.234161	146.600000
287.327271	146.280000
287.420380	146.380000
287.513519	146.540000
287.606598	146.860000
287.699738	147.200000
287.792816	147.060000
287.885956	146.600000
287.979034	146.660000
288.072174	146.540000
288.165283	146.500000
288.258392	146.880000
288.351501	146.680000
288.444611	146.860000
288.537720	147.220000
288.630859	146.840000
288.723969	146.660000
288.817078	146.920000
288.910187	146.820000
289.003296	146.160000
289.096436	145.980000
289.189545	145.720000
289.282654	145.220000
289.375763	145.660000
289.468903	146.140000
289.562012	146.860000
289.655121	147.320000
289.748260	147.520000
289.841400	147.500000
289.934509	147.420000
290.027649	147.520000
290.120728	147.100000
290.213898	147.380000
290.306976	146.980000
290.400146	147.120000
290.493256	146.620000
290.586395	146.580000
290.679535	146.880000
290.772644	146.880000
290.865784	145.920000
290.958893	145.660000
291.052032	145.660000
291.145172	145.140000
291.238281	144.680000
291.331421	145.460000
291.424561	146.160000
291.517670	146.380000
291.610809	146.480000
291.703949	146.580000
291.797089	146.620000
291.890228	146.180000
291.983337	146.240000
292.076477	146.140000
292.169617	146.640000
292.262756	146.500000
292.355927	146.160000
292.449036	145.740000
292.542206	146.000000
292.635315	145.980000
292.728485	146.120000
292.821625	146.000000
292.914764	147.300000
293.007904	147.300000
293.101044	146.960000
293.194183	146.760000
293.287323	147.260000
293.380463	146.320000
293.473602	145.980000
293.566742	146.420000
293.659882	146.960000
293.753021	147.340000
293.846191	147.640000
293.939331	147.720000
294.032471	147.700000
294.125610	146.980000
294.218781	147.120000
294.311920	147.300000
294.405060	147.620000
294.498230	147.500000
294.591370	148.000000
294.684540	147.300000
294.777679	146.660000
294.870850	146.680000
294.963959	146.540000
295.057159	146.160000
295.150299	146.500000
295.243469	146.680000
295.336609	146.220000
295.429779	146.140000
295.522919	146.660000
295.616089	146.360000
295.709229	147.100000
295.802399	147.700000
295.895569	147.580000
295.988708	147.360000
296.081879	147.760000
296.175018	146.800000
296.268188	146.240000
296.361359	146.820000
296.454529	146.800000
296.547668	146.400000
296.640839	146.960000
296.734009	147.000000
296.827179	146.880000
296.920319	147.060000
297.013519	147.200000
297.106659	147.000000
297.199860	147.020000
297.292999	146.900000
297.386200	146.560000
297.479309	146.360000
297.572510	146.240000
297.665680	145.960000
297.758850	145.960000
297.852020	145.920000
297.945190	145.880000
298.038361	145.680000
298.131531	147.020000
298.224701	146.780000
298.317871	146.760000
298.411072	146.660000
298.504242	146.440000
298.597412	145.460000
298.690582	145.880000
298.783752	145.760000
298.876923	146.200000
298.970093	146.540000
299.063293	146.740000
299.156464	146.920000
299.249634	147.560000
299.342834	147.660000
299.436005	148.040000
299.529205	148.080000
299.622345	147.940000
299.715576	147.140000
299.808716	146.860000
299.901917	146.500000
299.995117	146.680000
300.088287	146.840000
300.181488	146.680000
300.274658	146.640000
300.367828	146.780000
300.461029	146.300000
300.554199	146.260000
300.647400	146.400000
300.740601	146.920000
300.833771	146.880000
300.926971	147.060000
301.020142	146.620000
301.113342	146.740000
301.206512	146.420000
301.299713	146.540000
301.392914	146.340000
301.486084	146.580000
301.579285	146.560000
301.672516	147.220000
301.765686	147.180000
301.858887	147.320000
301.952057	147.260000
302.045288	147.280000
302.138458	146.400000
302.231659	145.980000
302.324860	146.120000
302.418060	145.680000
302.511261	145.760000
302.604462	146.420000
302.697662	146.500000
302.790863	146.080000
302.884064	146.100000
302.977264	146.100000
303.070465	145.860000
303.163666	146.420000
303.256866	146.880000
303.350067	146.740000
303.443268	146.680000
303.536469	146.840000
303.629669	146.420000
303.722870	146.640000
303.816071	146.680000
303.909271	146.640000
304.002472	146.000000
304.095673	145.800000
304.188934	144.960000
304.282104	145.800000
304.375336	145.780000
304.468506	145.840000
304.561768	145.680000
304.654968	146.600000
304.748169	146.360000
304.841370	146.400000
304.934601	146.640000
305.027802	146.720000
305.121002	146.080000
305.214233	145.900000
305.307434	145.780000
305.400665	146.220000
305.493866	146.140000
