Model Number: SPM-002-B   
Serial Number: 70087108
Firmware Version: 004.15.4
Exposure Time: 100000.000000us
Data Taken on: 11-12-2020 19:30:02.920
Wavelength	Amplitude
221.570786	0.000000
221.663406	0.000000
221.756027	0.000000
221.848648	0.000000
221.941269	0.000000
222.033905	0.000000
222.126526	0.000000
222.219162	0.000000
222.311798	0.000000
222.404419	0.000000
222.497055	0.000000
222.589676	0.000000
222.682312	0.000000
222.774933	0.000000
222.867569	0.000000
222.960205	0.000000
223.052841	0.000000
223.145462	0.000000
223.238098	0.000000
223.330734	0.000000
223.423386	0.000000
223.516022	0.000000
223.608658	0.000000
223.701309	0.000000
223.793945	0.000000
223.886581	0.000000
223.979218	0.000000
224.071869	0.000000
224.164505	0.000000
224.257156	0.000000
224.349792	0.000000
224.442444	0.000000
224.535095	0.000000
224.627747	0.000000
224.720398	0.000000
224.813034	0.000000
224.905685	0.000000
224.998337	145.900000
225.090988	145.500000
225.183640	145.500000
225.276291	145.440000
225.368942	145.400000
225.461594	145.880000
225.554245	146.180000
225.646912	146.300000
225.739578	146.980000
225.832230	147.560000
225.924896	146.800000
226.017548	147.120000
226.110199	147.520000
226.202866	146.560000
226.295532	146.240000
226.388184	146.400000
226.480850	145.560000
226.573517	144.920000
226.666168	145.380000
226.758835	145.620000
226.851501	146.220000
226.944183	146.720000
227.036850	146.480000
227.129517	146.480000
227.222183	146.560000
227.314850	146.420000
227.407516	146.360000
227.500198	147.200000
227.592865	146.660000
227.685532	146.080000
227.778214	145.620000
227.870880	146.220000
227.963562	146.340000
228.056229	146.940000
228.148926	146.920000
228.241592	147.920000
228.334274	147.140000
228.426956	146.580000
228.519638	146.620000
228.612305	146.540000
228.704987	146.380000
228.797668	146.580000
228.890350	146.580000
228.983032	145.820000
229.075714	146.720000
229.168396	146.320000
229.261108	146.160000
229.353790	146.360000
229.446472	146.800000
229.539169	146.200000
229.631851	145.760000
229.724533	145.760000
229.817230	145.480000
229.909912	146.580000
230.002609	146.500000
230.095306	146.660000
230.187988	146.820000
230.280685	146.980000
230.373383	145.620000
230.466095	146.000000
230.558792	146.140000
230.651474	146.040000
230.744171	145.720000
230.836868	146.020000
230.929581	145.940000
231.022278	145.980000
231.114975	146.060000
231.207672	146.060000
231.300369	146.280000
231.393082	146.120000
231.485779	145.620000
231.578506	145.480000
231.671204	145.660000
231.763916	145.640000
231.856613	145.820000
231.949326	146.300000
232.042023	146.100000
232.134735	145.980000
232.227448	145.700000
232.320160	145.780000
232.412872	145.720000
232.505585	146.700000
232.598297	147.340000
232.691010	147.420000
232.783722	146.940000
232.876450	147.360000
232.969162	146.820000
233.061874	146.220000
233.154587	145.960000
233.247314	146.500000
233.340027	145.780000
233.432739	146.080000
233.525467	145.800000
233.618179	146.100000
233.710907	145.620000
233.803635	146.380000
233.896347	145.760000
233.989090	146.780000
234.081818	146.760000
234.174545	147.020000
234.267258	146.340000
234.359985	146.700000
234.452713	145.900000
234.545441	145.880000
234.638168	146.020000
234.730896	146.340000
234.823639	146.320000
234.916367	147.000000
235.009094	146.880000
235.101822	146.680000
235.194580	146.920000
235.287308	146.960000
235.380051	146.300000
235.472778	146.660000
235.565521	146.960000
235.658249	146.560000
235.750992	146.320000
235.843719	146.660000
235.936462	146.720000
236.029205	146.020000
236.121948	145.660000
236.214691	145.980000
236.307449	146.480000
236.400192	146.100000
236.492935	146.000000
236.585678	146.480000
236.678421	146.540000
236.771164	145.980000
236.863907	146.480000
236.956665	146.940000
237.049408	148.320000
237.142151	147.720000
237.234909	148.520000
237.327652	147.920000
237.420410	147.660000
237.513153	146.600000
237.605927	146.680000
237.698669	145.980000
237.791428	145.660000
237.884186	146.460000
237.976944	145.800000
238.069702	146.220000
238.162445	145.820000
238.255203	146.320000
238.347961	146.060000
238.440720	146.280000
238.533478	146.120000
238.626266	145.920000
238.719025	145.900000
238.811783	145.820000
238.904541	145.820000
238.997314	145.620000
239.090073	145.860000
239.182831	146.060000
239.275604	146.480000
239.368362	146.300000
239.461136	146.620000
239.553909	146.620000
239.646667	146.520000
239.739441	146.120000
239.832214	146.480000
239.925003	146.620000
240.017761	147.340000
240.110535	147.700000
240.203308	147.240000
240.296082	147.340000
240.388855	146.880000
240.481628	146.580000
240.574417	146.620000
240.667191	147.460000
240.759964	147.100000
240.852737	147.240000
240.945526	146.880000
241.038315	146.640000
241.131088	146.360000
241.223877	146.840000
241.316650	146.640000
241.409439	146.940000
241.502228	146.460000
241.595001	146.780000
241.687790	146.380000
241.780579	146.480000
241.873367	146.480000
241.966141	146.900000
242.058929	146.180000
242.151718	146.400000
242.244507	146.940000
242.337311	146.000000
242.430099	146.140000
242.522903	146.280000
242.615692	145.880000
242.708481	145.560000
242.801270	146.420000
242.894073	146.180000
242.986862	146.560000
243.079651	147.000000
243.172455	146.880000
243.265244	147.200000
243.358063	146.800000
243.450867	146.660000
243.543655	146.440000
243.636459	146.400000
243.729263	145.980000
243.822067	146.300000
243.914856	146.800000
244.007660	146.700000
244.100464	146.980000
244.193268	146.840000
244.286072	146.700000
244.378876	146.040000
244.471680	145.840000
244.564499	145.740000
244.657318	146.580000
244.750122	146.740000
244.842926	146.220000
244.935745	146.600000
245.028549	146.240000
245.121368	145.500000
245.214172	145.440000
245.306992	146.020000
245.399796	145.700000
245.492615	146.100000
245.585434	146.000000
245.678253	146.120000
245.771072	145.940000
245.863892	146.500000
245.956711	146.660000
246.049530	146.460000
246.142349	146.400000
246.235168	146.540000
246.327988	147.020000
246.420807	146.580000
246.513626	146.760000
246.606445	146.800000
246.699280	146.580000
246.792099	145.940000
246.884918	145.600000
246.977753	145.280000
247.070587	145.360000
247.163422	145.400000
247.256241	145.500000
247.349075	146.120000
247.441895	146.440000
247.534729	146.220000
247.627563	146.320000
247.720383	146.920000
247.813217	146.900000
247.906052	146.860000
247.998886	146.940000
248.091736	146.600000
248.184570	145.840000
248.277405	145.660000
248.370239	146.640000
248.463074	147.320000
248.555908	147.760000
248.648743	147.780000
248.741592	147.760000
248.834427	147.120000
248.927261	146.140000
249.020111	146.480000
249.112946	146.900000
249.205795	146.680000
249.298630	146.580000
249.391495	146.780000
249.484344	146.260000
249.577179	145.880000
249.670029	146.260000
249.762878	146.740000
249.855728	147.020000
249.948563	147.040000
250.041412	146.320000
250.134262	146.400000
250.227112	146.240000
250.319962	146.060000
250.412827	145.960000
250.505692	146.060000
250.598541	145.920000
250.691391	145.580000
250.784241	145.680000
250.877106	145.960000
250.969955	146.100000
251.062805	146.600000
251.155670	147.040000
251.248520	146.700000
251.341385	146.860000
251.434235	146.920000
251.527100	146.680000
251.619965	146.300000
251.712814	146.880000
251.805695	146.780000
251.898560	147.000000
251.991425	147.080000
252.084290	147.220000
252.177155	146.700000
252.270020	146.420000
252.362885	146.640000
252.455750	146.260000
252.548615	145.980000
252.641479	145.880000
252.734360	145.600000
252.827240	145.180000
252.920105	145.480000
253.012970	145.320000
253.105850	145.480000
253.198715	145.580000
253.291595	145.980000
253.384460	145.620000
253.477341	145.780000
253.570221	146.000000
253.663086	146.040000
253.755966	146.520000
253.848846	146.460000
253.941727	146.640000
254.034592	146.500000
254.127472	146.240000
254.220367	145.920000
254.313248	145.840000
254.406128	145.500000
254.499008	145.640000
254.591904	146.700000
254.684784	147.000000
254.777664	147.440000
254.870544	147.340000
254.963440	147.120000
255.056335	146.880000
255.149216	146.520000
255.242111	146.940000
255.334991	147.420000
255.427887	147.860000
255.520767	147.880000
255.613663	147.840000
255.706558	147.220000
255.799438	146.980000
255.892334	146.500000
255.985229	146.140000
256.078125	145.900000
256.171021	146.040000
256.263916	146.360000
256.356812	146.560000
256.449707	146.820000
256.542603	146.780000
256.635498	147.200000
256.728394	147.020000
256.821289	146.680000
256.914215	146.820000
257.007080	147.020000
257.100006	146.640000
257.192932	147.080000
257.285828	147.420000
257.378723	147.000000
257.471619	147.040000
257.564545	146.700000
257.657440	146.180000
257.750336	146.740000
257.843262	146.640000
257.936157	147.560000
258.029053	148.000000
258.121979	148.240000
258.214874	147.620000
258.307800	147.640000
258.400696	146.740000
258.493622	146.280000
258.586517	145.220000
258.679443	145.880000
258.772339	145.300000
258.865265	145.040000
258.958160	144.640000
259.051086	145.880000
259.144012	145.220000
259.236938	146.560000
259.329834	146.540000
259.422791	147.020000
259.515717	146.260000
259.608612	146.400000
259.701538	146.200000
259.794464	146.280000
259.887390	146.160000
259.980316	146.280000
260.073212	145.880000
260.166138	144.920000
260.259064	145.200000
260.351990	146.000000
260.444916	146.000000
260.537842	146.680000
260.630768	147.380000
260.723694	147.440000
260.816620	146.980000
260.909546	147.080000
261.002472	146.400000
261.095398	145.860000
261.188354	145.580000
261.281281	145.180000
261.374207	145.440000
261.467133	146.180000
261.560089	146.440000
261.653015	146.360000
261.745972	147.140000
261.838867	147.340000
261.931824	147.500000
262.024780	146.840000
262.117706	146.920000
262.210663	146.660000
262.303589	146.320000
262.396515	145.900000
262.489471	147.160000
262.582397	147.140000
262.675354	146.800000
262.768280	146.960000
262.861237	147.200000
262.954163	147.180000
263.047119	147.360000
263.140045	147.160000
263.233002	147.180000
263.325958	147.060000
263.418884	146.200000
263.511841	146.040000
263.604797	146.360000
263.697723	146.120000
263.790680	145.960000
263.883636	146.660000
263.976593	146.460000
264.069550	146.340000
264.162476	146.140000
264.255463	146.080000
264.348419	145.720000
264.441376	146.260000
264.534332	145.840000
264.627289	146.180000
264.720245	146.540000
264.813202	146.280000
264.906158	146.300000
264.999115	147.160000
265.092072	147.060000
265.185028	147.240000
265.277985	147.400000
265.370941	147.380000
265.463898	146.920000
265.556854	146.780000
265.649811	145.980000
265.742798	146.240000
265.835754	146.280000
265.928711	146.700000
266.021667	146.760000
266.114655	147.460000
266.207611	147.600000
266.300568	146.800000
266.393585	146.320000
266.486511	146.760000
266.579498	146.000000
266.672485	145.740000
266.765442	146.040000
266.858429	146.580000
266.951385	145.960000
267.044342	146.220000
267.137329	146.080000
267.230316	146.400000
267.323273	145.940000
267.416260	146.680000
267.509216	146.580000
267.602203	146.580000
267.695160	146.680000
267.788147	146.560000
267.881134	145.620000
267.974091	145.920000
268.067078	145.960000
268.160065	145.660000
268.253052	145.680000
268.346008	146.040000
268.438995	145.780000
268.531982	145.860000
268.624969	145.780000
268.717987	146.100000
268.810944	146.100000
268.903961	146.200000
268.996948	145.740000
269.089905	145.960000
269.182892	146.140000
269.275879	146.420000
269.368866	146.240000
269.461853	146.880000
269.554871	146.860000
269.647858	146.580000
269.740845	146.920000
269.833832	147.340000
269.926819	147.080000
270.019806	147.120000
270.112793	146.880000
270.205811	146.720000
270.298798	146.360000
270.391785	146.840000
270.484772	146.660000
270.577789	146.800000
270.670776	146.520000
270.763763	146.440000
270.856750	146.140000
270.949768	146.100000
271.042786	146.280000
271.135773	146.140000
271.228790	146.600000
271.321808	145.980000
271.414795	145.640000
271.507782	145.260000
271.600800	144.900000
271.693817	144.980000
271.786804	145.740000
271.879822	146.300000
271.972809	146.460000
272.065826	147.180000
272.158844	146.540000
272.251831	146.880000
272.344849	146.720000
272.437866	146.280000
272.530853	146.380000
272.623871	146.640000
272.716888	145.660000
272.809906	146.120000
272.902893	146.300000
272.995911	145.500000
273.088928	145.420000
273.181946	145.680000
273.274963	144.880000
273.367981	145.260000
273.460999	145.880000
273.554047	146.340000
273.647003	147.160000
273.740051	147.460000
273.833069	147.700000
273.926086	147.820000
274.019135	147.560000
274.112152	146.720000
274.205170	146.640000
274.298187	146.600000
274.391205	145.960000
274.484222	145.980000
274.577240	146.380000
274.670258	146.380000
274.763306	145.980000
274.856323	146.680000
274.949341	146.620000
275.042358	146.620000
275.135406	146.680000
275.228424	146.900000
275.321442	146.460000
275.414490	146.020000
275.507507	146.320000
275.600525	146.840000
275.693573	146.520000
275.786591	146.300000
275.879669	147.000000
275.972656	146.280000
276.065735	145.800000
276.158752	146.600000
276.251801	147.400000
276.344818	147.160000
276.437866	147.540000
276.530884	147.380000
276.623932	146.600000
276.716980	146.300000
276.809998	146.480000
276.903046	146.440000
276.996094	147.260000
277.089111	147.940000
277.182159	148.540000
277.275208	148.200000
277.368256	148.240000
277.461304	148.000000
277.554321	147.300000
277.647369	146.740000
277.740417	146.880000
277.833466	146.560000
277.926514	146.020000
278.019562	146.500000
278.112610	146.060000
278.205688	146.040000
278.298706	146.380000
278.391785	146.520000
278.484833	146.180000
278.577881	146.200000
278.670929	146.500000
278.763977	146.380000
278.857025	146.900000
278.950073	147.160000
279.043121	147.140000
279.136169	146.920000
279.229248	146.600000
279.322296	146.500000
279.415344	146.020000
279.508392	146.100000
279.601440	146.120000
279.694519	146.300000
279.787567	145.840000
279.880615	145.940000
279.973694	146.000000
280.066742	145.960000
280.159790	146.160000
280.252869	145.880000
280.345917	146.100000
280.438995	146.120000
280.532074	145.960000
280.625122	146.240000
280.718201	147.220000
280.811279	147.220000
280.904327	147.300000
280.997406	147.460000
281.090454	147.260000
281.183533	146.520000
281.276581	146.280000
281.369659	146.100000
281.462738	146.080000
281.555786	145.980000
281.648865	146.500000
281.741943	146.520000
281.835022	147.220000
281.928070	146.900000
282.021149	146.580000
282.114227	146.160000
282.207306	146.340000
282.300385	146.240000
282.393433	146.820000
282.486511	147.340000
282.579590	147.620000
282.672668	147.760000
282.765747	147.000000
282.858856	146.760000
282.951904	146.580000
283.045013	146.680000
283.138062	147.080000
283.231171	147.680000
283.324249	147.840000
283.417328	147.900000
283.510406	147.340000
283.603485	146.820000
283.696564	146.520000
283.789642	146.540000
283.882751	146.000000
283.975830	146.880000
284.068909	146.740000
284.161987	147.380000
284.255066	147.040000
284.348175	147.480000
284.441254	147.220000
284.534332	147.700000
284.627441	147.040000
284.720520	146.840000
284.813599	146.960000
284.906708	146.680000
284.999786	146.020000
285.092896	145.620000
285.185974	146.660000
285.279053	146.220000
285.372192	146.380000
285.465240	147.180000
285.558380	147.400000
285.651459	146.760000
285.744568	147.880000
285.837677	147.460000
285.930756	147.240000
286.023865	147.400000
286.116943	147.200000
286.210052	146.720000
286.303162	146.780000
286.396240	146.740000
286.489349	146.680000
286.582458	146.920000
286.675568	146.280000
286.768646	146.320000
286.861755	146.540000
286.954865	147.080000
287.047974	146.320000
287.141083	146.520000
287.234161	146.400000
287.327271	146.200000
287.420380	146.240000
287.513519	146.660000
287.606598	146.640000
287.699738	146.860000
287.792816	146.500000
287.885956	146.360000
287.979034	146.380000
288.072174	146.500000
288.165283	146.420000
288.258392	146.680000
288.351501	146.140000
288.444611	146.300000
288.537720	146.560000
288.630859	146.360000
288.723969	146.600000
288.817078	147.160000
288.910187	147.260000
289.003296	146.840000
289.096436	147.040000
289.189545	146.820000
289.282654	146.060000
289.375763	146.280000
289.468903	146.720000
289.562012	146.980000
289.655121	146.760000
289.748260	147.060000
289.841400	147.420000
289.934509	147.220000
290.027649	147.300000
290.120728	147.260000
290.213898	147.360000
290.306976	146.740000
290.400146	146.780000
290.493256	146.000000
290.586395	146.280000
290.679535	146.540000
290.772644	146.320000
290.865784	145.520000
290.958893	145.720000
291.052032	145.520000
291.145172	145.200000
291.238281	145.020000
291.331421	145.440000
291.424561	146.060000
291.517670	145.820000
291.610809	146.160000
291.703949	146.260000
291.797089	146.660000
291.890228	145.900000
291.983337	146.380000
292.076477	146.220000
292.169617	146.540000
292.262756	146.240000
292.355927	146.480000
292.449036	146.080000
292.542206	146.120000
292.635315	146.340000
292.728485	146.420000
292.821625	146.140000
292.914764	147.120000
293.007904	147.020000
293.101044	146.700000
293.194183	146.760000
293.287323	146.960000
293.380463	146.180000
293.473602	146.260000
293.566742	146.600000
293.659882	147.000000
293.753021	147.200000
293.846191	146.960000
293.939331	146.480000
294.032471	146.040000
294.125610	145.780000
294.218781	146.300000
294.311920	147.000000
294.405060	147.380000
294.498230	147.300000
294.591370	147.280000
294.684540	146.260000
294.777679	145.480000
294.870850	145.560000
294.963959	145.400000
295.057159	145.180000
295.150299	145.440000
295.243469	145.660000
295.336609	145.260000
295.429779	145.480000
295.522919	145.800000
295.616089	146.040000
295.709229	146.420000
295.802399	146.500000
295.895569	146.320000
295.988708	146.320000
296.081879	146.540000
296.175018	146.020000
296.268188	146.060000
296.361359	146.620000
296.454529	146.700000
296.547668	146.400000
296.640839	146.860000
296.734009	146.980000
296.827179	146.800000
296.920319	146.940000
297.013519	146.740000
297.106659	146.640000
297.199860	146.720000
297.292999	146.720000
297.386200	146.200000
297.479309	146.200000
297.572510	146.080000
297.665680	145.800000
297.758850	145.920000
297.852020	145.940000
297.945190	145.920000
298.038361	145.580000
298.131531	146.600000
298.224701	146.400000
298.317871	146.260000
298.411072	146.000000
298.504242	146.140000
298.597412	145.220000
298.690582	145.440000
298.783752	145.640000
298.876923	146.220000
298.970093	146.360000
299.063293	146.780000
299.156464	146.880000
299.249634	147.220000
299.342834	147.420000
299.436005	147.720000
299.529205	147.420000
299.622345	147.400000
299.715576	146.360000
299.808716	146.180000
299.901917	146.260000
299.995117	146.580000
300.088287	146.620000
300.181488	146.740000
300.274658	146.480000
300.367828	146.080000
300.461029	145.800000
300.554199	145.880000
300.647400	146.260000
300.740601	146.760000
300.833771	146.500000
300.926971	146.840000
301.020142	146.020000
301.113342	145.900000
301.206512	145.520000
301.299713	145.960000
301.392914	145.820000
301.486084	146.320000
301.579285	146.620000
301.672516	147.320000
301.765686	147.160000
301.858887	146.820000
301.952057	146.800000
302.045288	146.740000
302.138458	146.360000
302.231659	146.260000
302.324860	146.260000
302.418060	146.180000
302.511261	146.200000
302.604462	146.060000
302.697662	146.180000
302.790863	146.100000
302.884064	145.680000
302.977264	145.780000
303.070465	146.180000
303.163666	146.840000
303.256866	146.960000
303.350067	147.340000
303.443268	147.420000
303.536469	147.160000
303.629669	146.380000
303.722870	146.500000
303.816071	146.520000
303.909271	146.260000
304.002472	145.540000
304.095673	145.540000
304.188934	144.760000
304.282104	145.280000
304.375336	145.400000
304.468506	145.640000
304.561768	145.440000
304.654968	146.680000
304.748169	146.180000
304.841370	145.800000
304.934601	146.300000
305.027802	146.300000
305.121002	145.660000
305.214233	145.780000
305.307434	146.040000
305.400665	146.520000
305.493866	146.320000
