Model Number: SPM-002-B   
Serial Number: 70087108
Firmware Version: 004.15.4
Exposure Time: 100000.000000us
Data Taken on: 11-12-2020 19:30:34.190
Wavelength	Amplitude
221.570786	0.000000
221.663406	0.000000
221.756027	0.000000
221.848648	0.000000
221.941269	0.000000
222.033905	0.000000
222.126526	0.000000
222.219162	0.000000
222.311798	0.000000
222.404419	0.000000
222.497055	0.000000
222.589676	0.000000
222.682312	0.000000
222.774933	0.000000
222.867569	0.000000
222.960205	0.000000
223.052841	0.000000
223.145462	0.000000
223.238098	0.000000
223.330734	0.000000
223.423386	0.000000
223.516022	0.000000
223.608658	0.000000
223.701309	0.000000
223.793945	0.000000
223.886581	0.000000
223.979218	0.000000
224.071869	0.000000
224.164505	0.000000
224.257156	0.000000
224.349792	0.000000
224.442444	0.000000
224.535095	0.000000
224.627747	0.000000
224.720398	0.000000
224.813034	0.000000
224.905685	0.000000
224.998337	145.140000
225.090988	144.880000
225.183640	144.720000
225.276291	144.460000
225.368942	144.900000
225.461594	145.000000
225.554245	145.140000
225.646912	145.180000
225.739578	145.580000
225.832230	146.180000
225.924896	145.500000
226.017548	146.180000
226.110199	146.620000
226.202866	146.220000
226.295532	145.820000
226.388184	145.940000
226.480850	145.040000
226.573517	144.720000
226.666168	144.900000
226.758835	145.060000
226.851501	145.700000
226.944183	146.000000
227.036850	145.800000
227.129517	145.760000
227.222183	145.700000
227.314850	145.520000
227.407516	145.860000
227.500198	146.760000
227.592865	146.460000
227.685532	146.100000
227.778214	145.920000
227.870880	146.000000
227.963562	146.220000
228.056229	146.760000
228.148926	146.860000
228.241592	147.540000
228.334274	147.260000
228.426956	146.640000
228.519638	146.460000
228.612305	146.280000
228.704987	146.020000
228.797668	145.980000
228.890350	145.680000
228.983032	145.220000
229.075714	145.900000
229.168396	145.540000
229.261108	145.500000
229.353790	145.580000
229.446472	145.760000
229.539169	145.220000
229.631851	144.880000
229.724533	144.720000
229.817230	145.220000
229.909912	146.280000
230.002609	146.160000
230.095306	146.320000
230.187988	146.620000
230.280685	145.940000
230.373383	144.580000
230.466095	144.760000
230.558792	145.080000
230.651474	145.120000
230.744171	145.340000
230.836868	145.460000
230.929581	145.520000
231.022278	145.500000
231.114975	145.400000
231.207672	145.200000
231.300369	145.580000
231.393082	145.760000
231.485779	145.520000
231.578506	145.280000
231.671204	145.480000
231.763916	145.240000
231.856613	145.140000
231.949326	145.620000
232.042023	145.660000
232.134735	145.480000
232.227448	145.500000
232.320160	145.720000
232.412872	145.540000
232.505585	146.160000
232.598297	146.680000
232.691010	146.560000
232.783722	146.380000
232.876450	146.680000
232.969162	146.180000
233.061874	145.440000
233.154587	145.320000
233.247314	145.300000
233.340027	144.780000
233.432739	145.040000
233.525467	145.160000
233.618179	145.740000
233.710907	145.460000
233.803635	146.300000
233.896347	146.180000
233.989090	147.000000
234.081818	146.780000
234.174545	147.280000
234.267258	146.360000
234.359985	146.580000
234.452713	146.280000
234.545441	145.960000
234.638168	145.600000
234.730896	146.180000
234.823639	146.080000
234.916367	146.240000
235.009094	146.460000
235.101822	146.500000
235.194580	146.280000
235.287308	146.100000
235.380051	145.400000
235.472778	145.720000
235.565521	146.120000
235.658249	145.600000
235.750992	145.700000
235.843719	145.600000
235.936462	145.700000
236.029205	145.220000
236.121948	144.940000
236.214691	145.220000
236.307449	146.140000
236.400192	145.600000
236.492935	145.460000
236.585678	146.180000
236.678421	145.900000
236.771164	145.440000
236.863907	146.020000
236.956665	146.140000
237.049408	147.320000
237.142151	146.820000
237.234909	147.420000
237.327652	147.220000
237.420410	147.120000
237.513153	146.280000
237.605927	146.580000
237.698669	145.900000
237.791428	145.300000
237.884186	145.800000
237.976944	144.940000
238.069702	145.120000
238.162445	144.880000
238.255203	145.140000
238.347961	145.280000
238.440720	145.640000
238.533478	145.380000
238.626266	145.400000
238.719025	145.840000
238.811783	145.660000
238.904541	145.560000
238.997314	145.520000
239.090073	145.440000
239.182831	145.420000
239.275604	145.900000
239.368362	145.760000
239.461136	146.220000
239.553909	146.100000
239.646667	145.740000
239.739441	144.980000
239.832214	145.420000
239.925003	145.200000
240.017761	145.660000
240.110535	146.240000
240.203308	146.060000
240.296082	146.040000
240.388855	146.100000
240.481628	146.480000
240.574417	146.480000
240.667191	146.760000
240.759964	146.320000
240.852737	146.240000
240.945526	145.880000
241.038315	145.420000
241.131088	145.380000
241.223877	146.000000
241.316650	145.380000
241.409439	145.440000
241.502228	145.240000
241.595001	145.620000
241.687790	144.940000
241.780579	145.280000
241.873367	145.360000
241.966141	145.960000
242.058929	145.440000
242.151718	145.900000
242.244507	146.420000
242.337311	145.740000
242.430099	145.640000
242.522903	146.020000
242.615692	145.540000
242.708481	145.500000
242.801270	146.180000
242.894073	146.260000
242.986862	146.100000
243.079651	146.620000
243.172455	146.200000
243.265244	146.140000
243.358063	145.440000
243.450867	145.860000
243.543655	145.980000
243.636459	146.240000
243.729263	146.580000
243.822067	147.180000
243.914856	147.260000
244.007660	146.960000
244.100464	146.740000
244.193268	145.980000
244.286072	145.580000
244.378876	144.880000
244.471680	144.600000
244.564499	145.080000
244.657318	145.780000
244.750122	146.040000
244.842926	145.460000
244.935745	146.200000
245.028549	145.400000
245.121368	145.000000
245.214172	144.940000
245.306992	145.600000
245.399796	144.920000
245.492615	145.360000
245.585434	145.320000
245.678253	145.260000
245.771072	145.160000
245.863892	145.600000
245.956711	145.740000
246.049530	145.700000
246.142349	145.760000
246.235168	145.960000
246.327988	146.460000
246.420807	146.300000
246.513626	146.420000
246.606445	146.160000
246.699280	146.280000
246.792099	145.560000
246.884918	145.220000
246.977753	144.840000
247.070587	145.200000
247.163422	144.840000
247.256241	144.960000
247.349075	145.440000
247.441895	145.700000
247.534729	145.420000
247.627563	145.320000
247.720383	145.720000
247.813217	145.560000
247.906052	145.520000
247.998886	145.380000
248.091736	145.740000
248.184570	145.420000
248.277405	145.420000
248.370239	146.440000
248.463074	147.540000
248.555908	147.540000
248.648743	147.420000
248.741592	147.760000
248.834427	146.940000
248.927261	145.700000
249.020111	146.000000
249.112946	146.700000
249.205795	146.080000
249.298630	145.980000
249.391495	146.360000
249.484344	146.220000
249.577179	145.900000
249.670029	146.220000
249.762878	146.900000
249.855728	146.900000
249.948563	146.600000
250.041412	146.280000
250.134262	146.460000
250.227112	146.240000
250.319962	146.420000
250.412827	146.580000
250.505692	146.240000
250.598541	146.220000
250.691391	145.680000
250.784241	145.700000
250.877106	145.680000
250.969955	145.680000
251.062805	146.000000
251.155670	146.840000
251.248520	146.580000
251.341385	146.720000
251.434235	146.860000
251.527100	146.300000
251.619965	145.620000
251.712814	146.160000
251.805695	146.260000
251.898560	146.620000
251.991425	146.940000
252.084290	147.560000
252.177155	146.960000
252.270020	146.880000
252.362885	146.620000
252.455750	146.680000
252.548615	145.860000
252.641479	145.940000
252.734360	145.600000
252.827240	145.520000
252.920105	145.580000
253.012970	145.800000
253.105850	145.840000
253.198715	145.800000
253.291595	146.080000
253.384460	145.800000
253.477341	145.860000
253.570221	145.760000
253.663086	145.440000
253.755966	145.720000
253.848846	145.560000
253.941727	145.620000
254.034592	145.640000
254.127472	145.620000
254.220367	145.520000
254.313248	146.040000
254.406128	145.460000
254.499008	145.820000
254.591904	146.520000
254.684784	146.760000
254.777664	146.380000
254.870544	146.400000
254.963440	145.960000
255.056335	146.020000
255.149216	145.740000
255.242111	146.420000
255.334991	146.720000
255.427887	146.920000
255.520767	146.560000
255.613663	146.380000
255.706558	145.620000
255.799438	145.640000
255.892334	145.340000
255.985229	145.420000
256.078125	145.580000
256.171021	145.700000
256.263916	145.800000
256.356812	145.960000
256.449707	146.100000
256.542603	145.660000
256.635498	146.020000
256.728394	145.980000
256.821289	145.700000
256.914215	145.760000
257.007080	146.140000
257.100006	146.000000
257.192932	146.440000
257.285828	147.020000
257.378723	146.620000
257.471619	146.240000
257.564545	145.780000
257.657440	145.640000
257.750336	146.120000
257.843262	146.060000
257.936157	147.080000
258.029053	147.460000
258.121979	147.200000
258.214874	146.360000
258.307800	146.420000
258.400696	145.320000
258.493622	145.360000
258.586517	144.740000
258.679443	145.000000
258.772339	144.780000
258.865265	144.620000
258.958160	144.160000
259.051086	145.020000
259.144012	145.200000
259.236938	146.020000
259.329834	146.740000
259.422791	146.800000
259.515717	146.220000
259.608612	145.780000
259.701538	145.460000
259.794464	145.060000
259.887390	145.020000
259.980316	145.120000
260.073212	144.920000
260.166138	144.120000
260.259064	144.340000
260.351990	144.840000
260.444916	144.800000
260.537842	145.360000
260.630768	146.260000
260.723694	146.180000
260.816620	146.100000
260.909546	146.320000
261.002472	145.740000
261.095398	145.200000
261.188354	145.180000
261.281281	144.760000
261.374207	145.020000
261.467133	145.860000
261.560089	146.080000
261.653015	145.940000
261.745972	146.620000
261.838867	146.640000
261.931824	146.700000
262.024780	146.060000
262.117706	146.200000
262.210663	145.980000
262.303589	145.840000
262.396515	145.680000
262.489471	146.760000
262.582397	146.640000
262.675354	146.300000
262.768280	146.060000
262.861237	146.060000
262.954163	145.800000
263.047119	145.960000
263.140045	146.000000
263.233002	146.060000
263.325958	146.040000
263.418884	145.760000
263.511841	145.780000
263.604797	145.640000
263.697723	145.780000
263.790680	145.500000
263.883636	146.220000
263.976593	146.100000
264.069550	145.940000
264.162476	145.600000
264.255463	145.500000
264.348419	144.800000
264.441376	144.840000
264.534332	144.860000
264.627289	145.200000
264.720245	145.920000
264.813202	145.880000
264.906158	146.240000
264.999115	146.760000
265.092072	146.540000
265.185028	146.660000
265.277985	146.520000
265.370941	146.240000
265.463898	146.000000
265.556854	145.780000
265.649811	144.660000
265.742798	144.860000
265.835754	144.660000
265.928711	144.940000
266.021667	145.060000
266.114655	145.460000
266.207611	145.720000
266.300568	145.220000
266.393585	144.760000
266.486511	144.980000
266.579498	144.280000
266.672485	144.140000
266.765442	144.300000
266.858429	144.620000
266.951385	144.160000
267.044342	144.620000
267.137329	144.720000
267.230316	145.280000
267.323273	145.000000
267.416260	146.120000
267.509216	146.060000
267.602203	145.980000
267.695160	146.300000
267.788147	146.500000
267.881134	145.560000
267.974091	145.800000
268.067078	145.720000
268.160065	145.480000
268.253052	145.220000
268.346008	145.500000
268.438995	145.300000
268.531982	145.560000
268.624969	145.100000
268.717987	145.620000
268.810944	145.240000
268.903961	145.480000
268.996948	144.920000
269.089905	145.320000
269.182892	145.200000
269.275879	145.720000
269.368866	144.960000
269.461853	145.260000
269.554871	145.420000
269.647858	145.200000
269.740845	145.300000
269.833832	146.000000
269.926819	146.020000
270.019806	145.980000
270.112793	145.600000
270.205811	145.500000
270.298798	145.400000
270.391785	145.740000
270.484772	145.360000
270.577789	145.720000
270.670776	145.320000
270.763763	145.240000
270.856750	145.000000
270.949768	144.700000
271.042786	144.660000
271.135773	144.820000
271.228790	145.060000
271.321808	144.760000
271.414795	144.580000
271.507782	144.360000
271.600800	144.060000
271.693817	144.220000
271.786804	144.760000
271.879822	145.440000
271.972809	145.520000
272.065826	146.040000
272.158844	145.540000
272.251831	145.740000
272.344849	145.760000
272.437866	145.500000
272.530853	145.700000
272.623871	145.900000
272.716888	144.940000
272.809906	144.740000
272.902893	144.980000
272.995911	144.400000
273.088928	144.520000
273.181946	144.900000
273.274963	144.660000
273.367981	144.880000
273.460999	144.940000
273.554047	145.100000
273.647003	145.760000
273.740051	146.160000
273.833069	146.400000
273.926086	146.560000
274.019135	146.240000
274.112152	145.700000
274.205170	145.740000
274.298187	145.820000
274.391205	145.460000
274.484222	145.660000
274.577240	145.720000
274.670258	145.300000
274.763306	145.060000
274.856323	145.640000
274.949341	145.560000
275.042358	145.940000
275.135406	146.140000
275.228424	145.880000
275.321442	145.560000
275.414490	145.440000
275.507507	145.560000
275.600525	145.840000
275.693573	145.820000
275.786591	145.720000
275.879669	146.020000
275.972656	145.320000
276.065735	145.380000
276.158752	146.060000
276.251801	147.020000
276.344818	146.740000
276.437866	147.000000
276.530884	146.540000
276.623932	145.720000
276.716980	145.140000
276.809998	145.340000
276.903046	145.640000
276.996094	146.680000
277.089111	147.520000
277.182159	147.880000
277.275208	147.560000
277.368256	147.340000
277.461304	146.500000
277.554321	145.580000
277.647369	145.440000
277.740417	145.540000
277.833466	145.320000
277.926514	145.240000
278.019562	145.960000
278.112610	145.420000
278.205688	145.600000
278.298706	146.140000
278.391785	146.120000
278.484833	145.640000
278.577881	145.460000
278.670929	145.480000
278.763977	145.120000
278.857025	145.400000
278.950073	145.500000
279.043121	145.540000
279.136169	145.580000
279.229248	145.400000
279.322296	145.320000
279.415344	145.160000
279.508392	145.240000
279.601440	144.840000
279.694519	144.640000
279.787567	144.360000
279.880615	143.940000
279.973694	143.840000
280.066742	144.160000
280.159790	144.240000
280.252869	144.120000
280.345917	144.840000
280.438995	145.000000
280.532074	145.220000
280.625122	145.700000
280.718201	146.760000
280.811279	146.620000
280.904327	146.640000
280.997406	146.620000
281.090454	146.700000
281.183533	146.020000
281.276581	146.000000
281.369659	145.620000
281.462738	145.680000
281.555786	145.500000
281.648865	145.720000
281.741943	145.860000
281.835022	146.660000
281.928070	146.260000
282.021149	145.960000
282.114227	145.360000
282.207306	145.200000
282.300385	145.200000
282.393433	145.480000
282.486511	145.700000
282.579590	146.700000
282.672668	146.860000
282.765747	146.360000
282.858856	146.040000
282.951904	145.900000
283.045013	145.560000
283.138062	145.660000
283.231171	146.200000
283.324249	146.420000
283.417328	146.540000
283.510406	146.220000
283.603485	145.880000
283.696564	145.520000
283.789642	145.660000
283.882751	145.560000
283.975830	146.040000
284.068909	146.040000
284.161987	146.460000
284.255066	145.780000
284.348175	146.100000
284.441254	145.740000
284.534332	146.240000
284.627441	145.660000
284.720520	145.760000
284.813599	145.520000
284.906708	145.100000
284.999786	144.300000
285.092896	144.220000
285.185974	145.140000
285.279053	144.480000
285.372192	145.000000
285.465240	146.080000
285.558380	146.300000
285.651459	145.880000
285.744568	147.100000
285.837677	146.660000
285.930756	145.960000
286.023865	145.900000
286.116943	145.440000
286.210052	145.460000
286.303162	145.660000
286.396240	145.660000
286.489349	145.500000
286.582458	146.120000
286.675568	145.440000
286.768646	145.580000
286.861755	146.060000
286.954865	146.860000
287.047974	146.260000
287.141083	146.240000
287.234161	145.820000
287.327271	145.660000
287.420380	145.920000
287.513519	145.900000
287.606598	146.200000
287.699738	146.680000
287.792816	146.240000
287.885956	145.620000
287.979034	145.520000
288.072174	145.320000
288.165283	145.020000
288.258392	145.520000
288.351501	144.920000
288.444611	145.560000
288.537720	145.920000
288.630859	146.040000
288.723969	146.060000
288.817078	146.740000
288.910187	146.520000
289.003296	145.720000
289.096436	145.720000
289.189545	145.460000
289.282654	145.000000
289.375763	145.540000
289.468903	146.480000
289.562012	146.560000
289.655121	146.720000
289.748260	146.600000
289.841400	146.320000
289.934509	145.900000
290.027649	146.040000
290.120728	145.820000
290.213898	146.000000
290.306976	145.800000
290.400146	145.540000
290.493256	145.260000
290.586395	145.320000
290.679535	145.700000
290.772644	145.560000
290.865784	145.140000
290.958893	144.820000
291.052032	145.040000
291.145172	144.580000
291.238281	144.460000
291.331421	144.760000
291.424561	145.480000
291.517670	144.920000
291.610809	145.500000
291.703949	145.220000
291.797089	145.720000
291.890228	145.280000
291.983337	145.280000
292.076477	144.760000
292.169617	145.520000
292.262756	145.340000
292.355927	145.360000
292.449036	145.300000
292.542206	145.460000
292.635315	145.380000
292.728485	145.600000
292.821625	145.240000
292.914764	146.300000
293.007904	146.420000
293.101044	146.100000
293.194183	146.000000
293.287323	146.340000
293.380463	145.400000
293.473602	145.020000
293.566742	145.320000
293.659882	145.580000
293.753021	145.660000
293.846191	145.580000
293.939331	145.520000
294.032471	145.480000
294.125610	144.940000
294.218781	145.480000
294.311920	145.880000
294.405060	145.960000
294.498230	145.780000
294.591370	145.900000
294.684540	145.120000
294.777679	144.780000
294.870850	145.320000
294.963959	145.260000
295.057159	144.900000
295.150299	145.500000
295.243469	145.400000
295.336609	144.760000
295.429779	144.940000
295.522919	145.460000
295.616089	145.220000
295.709229	146.200000
295.802399	146.240000
295.895569	146.000000
295.988708	145.860000
296.081879	145.900000
296.175018	145.380000
296.268188	145.760000
296.361359	146.040000
296.454529	145.940000
296.547668	145.660000
296.640839	145.940000
296.734009	145.760000
296.827179	145.660000
296.920319	145.760000
297.013519	145.900000
297.106659	145.840000
297.199860	145.740000
297.292999	145.820000
297.386200	145.960000
297.479309	145.640000
297.572510	145.520000
297.665680	145.520000
297.758850	145.320000
297.852020	145.300000
297.945190	145.240000
298.038361	144.680000
298.131531	145.700000
298.224701	145.520000
298.317871	144.980000
298.411072	144.920000
298.504242	145.140000
298.597412	144.120000
298.690582	144.400000
298.783752	144.580000
298.876923	144.980000
298.970093	145.040000
299.063293	145.500000
299.156464	145.720000
299.249634	145.820000
299.342834	145.960000
299.436005	146.260000
299.529205	146.000000
299.622345	146.040000
299.715576	145.700000
299.808716	145.260000
299.901917	145.260000
299.995117	145.460000
300.088287	145.400000
300.181488	145.620000
300.274658	145.640000
300.367828	145.480000
300.461029	145.280000
300.554199	145.460000
300.647400	145.340000
300.740601	145.840000
300.833771	145.580000
300.926971	145.980000
301.020142	145.520000
301.113342	145.700000
301.206512	145.280000
301.299713	145.760000
301.392914	145.460000
301.486084	145.680000
301.579285	145.660000
301.672516	146.320000
301.765686	145.820000
301.858887	145.700000
301.952057	145.620000
302.045288	145.700000
302.138458	145.520000
302.231659	145.560000
302.324860	145.420000
302.418060	145.260000
302.511261	145.000000
302.604462	145.080000
302.697662	144.980000
302.790863	145.040000
302.884064	144.820000
302.977264	145.100000
303.070465	145.100000
303.163666	145.840000
303.256866	146.420000
303.350067	146.600000
303.443268	146.760000
303.536469	146.540000
303.629669	146.040000
303.722870	145.740000
303.816071	145.660000
303.909271	145.400000
304.002472	145.000000
304.095673	144.840000
304.188934	144.100000
304.282104	145.000000
304.375336	145.180000
304.468506	145.360000
304.561768	145.220000
304.654968	145.840000
304.748169	145.160000
304.841370	144.760000
304.934601	144.800000
305.027802	144.860000
305.121002	144.680000
305.214233	144.880000
305.307434	145.100000
305.400665	145.640000
305.493866	145.540000
