Model Number: SPM-002-B   
Serial Number: 70087108
Firmware Version: 004.15.4
Exposure Time: 100000.000000us
Data Taken on: 11-12-2020 19:31:07.645
Wavelength	Amplitude
221.570786	0.000000
221.663406	0.000000
221.756027	0.000000
221.848648	0.000000
221.941269	0.000000
222.033905	0.000000
222.126526	0.000000
222.219162	0.000000
222.311798	0.000000
222.404419	0.000000
222.497055	0.000000
222.589676	0.000000
222.682312	0.000000
222.774933	0.000000
222.867569	0.000000
222.960205	0.000000
223.052841	0.000000
223.145462	0.000000
223.238098	0.000000
223.330734	0.000000
223.423386	0.000000
223.516022	0.000000
223.608658	0.000000
223.701309	0.000000
223.793945	0.000000
223.886581	0.000000
223.979218	0.000000
224.071869	0.000000
224.164505	0.000000
224.257156	0.000000
224.349792	0.000000
224.442444	0.000000
224.535095	0.000000
224.627747	0.000000
224.720398	0.000000
224.813034	0.000000
224.905685	0.000000
224.998337	145.860000
225.090988	145.640000
225.183640	145.640000
225.276291	145.520000
225.368942	145.580000
225.461594	146.060000
225.554245	146.500000
225.646912	146.140000
225.739578	146.900000
225.832230	147.440000
225.924896	146.460000
226.017548	146.800000
226.110199	147.480000
226.202866	146.500000
226.295532	146.080000
226.388184	146.100000
226.480850	145.180000
226.573517	144.600000
226.666168	144.860000
226.758835	145.000000
226.851501	145.740000
226.944183	146.220000
227.036850	145.840000
227.129517	146.000000
227.222183	146.280000
227.314850	145.980000
227.407516	146.520000
227.500198	147.640000
227.592865	147.040000
227.685532	146.620000
227.778214	146.640000
227.870880	146.660000
227.963562	146.760000
228.056229	147.700000
228.148926	147.680000
228.241592	148.360000
228.334274	147.980000
228.426956	147.560000
228.519638	146.800000
228.612305	146.620000
228.704987	146.320000
228.797668	145.920000
228.890350	145.700000
228.983032	145.640000
229.075714	146.360000
229.168396	145.940000
229.261108	145.800000
229.353790	145.960000
229.446472	146.420000
229.539169	146.200000
229.631851	146.080000
229.724533	146.460000
229.817230	146.660000
229.909912	147.540000
230.002609	147.480000
230.095306	147.560000
230.187988	147.800000
230.280685	147.920000
230.373383	146.340000
230.466095	146.260000
230.558792	146.500000
230.651474	146.020000
230.744171	145.480000
230.836868	145.680000
230.929581	145.840000
231.022278	145.740000
231.114975	145.880000
231.207672	145.660000
231.300369	146.420000
231.393082	146.240000
231.485779	146.380000
231.578506	146.300000
231.671204	146.580000
231.763916	146.240000
231.856613	146.200000
231.949326	146.340000
232.042023	146.380000
232.134735	146.280000
232.227448	145.840000
232.320160	145.860000
232.412872	145.520000
232.505585	146.320000
232.598297	146.680000
232.691010	146.940000
232.783722	146.920000
232.876450	147.480000
232.969162	147.000000
233.061874	146.680000
233.154587	146.300000
233.247314	146.600000
233.340027	145.780000
233.432739	146.140000
233.525467	145.980000
233.618179	146.800000
233.710907	146.280000
233.803635	147.160000
233.896347	146.680000
233.989090	147.420000
234.081818	147.060000
234.174545	147.260000
234.267258	146.240000
234.359985	146.380000
234.452713	145.920000
234.545441	145.580000
234.638168	145.680000
234.730896	146.420000
234.823639	146.300000
234.916367	146.760000
235.009094	147.120000
235.101822	147.020000
235.194580	147.100000
235.287308	147.120000
235.380051	146.440000
235.472778	146.640000
235.565521	147.020000
235.658249	146.440000
235.750992	146.600000
235.843719	146.880000
235.936462	147.080000
236.029205	146.520000
236.121948	146.220000
236.214691	146.220000
236.307449	146.640000
236.400192	145.860000
236.492935	145.700000
236.585678	146.100000
236.678421	145.960000
236.771164	145.440000
236.863907	146.200000
236.956665	146.820000
237.049408	148.200000
237.142151	148.080000
237.234909	148.920000
237.327652	148.300000
237.420410	147.680000
237.513153	146.680000
237.605927	146.420000
237.698669	145.780000
237.791428	145.400000
237.884186	146.040000
237.976944	145.560000
238.069702	146.160000
238.162445	145.840000
238.255203	146.560000
238.347961	147.000000
238.440720	146.980000
238.533478	146.920000
238.626266	146.660000
238.719025	146.780000
238.811783	146.200000
238.904541	146.280000
238.997314	145.780000
239.090073	145.720000
239.182831	145.960000
239.275604	146.720000
239.368362	146.520000
239.461136	146.860000
239.553909	147.040000
239.646667	146.640000
239.739441	146.060000
239.832214	146.520000
239.925003	146.740000
240.017761	147.440000
240.110535	147.800000
240.203308	147.500000
240.296082	147.540000
240.388855	147.420000
240.481628	147.440000
240.574417	147.620000
240.667191	147.980000
240.759964	147.640000
240.852737	147.540000
240.945526	146.960000
241.038315	146.660000
241.131088	146.360000
241.223877	146.940000
241.316650	146.560000
241.409439	146.960000
241.502228	146.160000
241.595001	146.500000
241.687790	145.920000
241.780579	146.040000
241.873367	146.040000
241.966141	146.640000
242.058929	146.120000
242.151718	146.500000
242.244507	146.780000
242.337311	145.940000
242.430099	146.520000
242.522903	146.820000
242.615692	146.680000
242.708481	146.800000
242.801270	147.700000
242.894073	147.220000
242.986862	147.260000
243.079651	147.720000
243.172455	147.120000
243.265244	146.980000
243.358063	146.540000
243.450867	146.780000
243.543655	146.280000
243.636459	147.020000
243.729263	147.160000
243.822067	147.740000
243.914856	148.320000
244.007660	148.360000
244.100464	147.800000
244.193268	147.480000
244.286072	146.980000
244.378876	145.920000
244.471680	145.820000
244.564499	146.220000
244.657318	146.900000
244.750122	147.340000
244.842926	147.020000
244.935745	147.440000
245.028549	147.060000
245.121368	146.440000
245.214172	146.160000
245.306992	146.900000
245.399796	146.420000
245.492615	146.440000
245.585434	146.320000
245.678253	146.220000
245.771072	145.720000
245.863892	145.940000
245.956711	146.200000
246.049530	146.120000
246.142349	146.240000
246.235168	146.640000
246.327988	147.260000
246.420807	147.100000
246.513626	147.260000
246.606445	147.000000
246.699280	146.820000
246.792099	146.480000
246.884918	146.060000
246.977753	145.640000
247.070587	145.920000
247.163422	146.160000
247.256241	146.000000
247.349075	146.660000
247.441895	146.980000
247.534729	147.040000
247.627563	146.480000
247.720383	146.720000
247.813217	146.420000
247.906052	146.260000
247.998886	146.240000
248.091736	146.420000
248.184570	146.100000
248.277405	146.380000
248.370239	147.260000
248.463074	147.940000
248.555908	148.300000
248.648743	148.320000
248.741592	148.180000
248.834427	147.500000
248.927261	146.520000
249.020111	146.700000
249.112946	147.060000
249.205795	146.780000
249.298630	146.780000
249.391495	146.920000
249.484344	146.380000
249.577179	146.060000
249.670029	146.340000
249.762878	146.700000
249.855728	146.580000
249.948563	146.660000
250.041412	146.380000
250.134262	146.720000
250.227112	146.720000
250.319962	147.140000
250.412827	147.100000
250.505692	146.900000
250.598541	146.540000
250.691391	146.420000
250.784241	146.120000
250.877106	146.560000
250.969955	146.580000
251.062805	147.160000
251.155670	147.700000
251.248520	147.440000
251.341385	147.240000
251.434235	147.080000
251.527100	146.480000
251.619965	145.640000
251.712814	146.560000
251.805695	146.480000
251.898560	147.060000
251.991425	147.360000
252.084290	147.460000
252.177155	146.620000
252.270020	146.400000
252.362885	146.260000
252.455750	146.180000
252.548615	146.120000
252.641479	146.240000
252.734360	146.300000
252.827240	146.100000
252.920105	146.160000
253.012970	146.300000
253.105850	146.100000
253.198715	145.720000
253.291595	145.900000
253.384460	145.600000
253.477341	145.200000
253.570221	145.500000
253.663086	145.600000
253.755966	146.180000
253.848846	146.060000
253.941727	146.600000
254.034592	146.520000
254.127472	146.240000
254.220367	145.860000
254.313248	146.080000
254.406128	145.660000
254.499008	146.020000
254.591904	146.960000
254.684784	147.480000
254.777664	147.520000
254.870544	147.420000
254.963440	147.380000
255.056335	146.920000
255.149216	146.220000
255.242111	146.500000
255.334991	146.820000
255.427887	146.880000
255.520767	147.180000
255.613663	147.380000
255.706558	146.640000
255.799438	146.360000
255.892334	145.880000
255.985229	145.600000
256.078125	145.540000
256.171021	145.760000
256.263916	146.220000
256.356812	146.780000
256.449707	146.980000
256.542603	146.500000
256.635498	146.880000
256.728394	146.920000
256.821289	146.260000
256.914215	146.520000
257.007080	147.320000
257.100006	147.580000
257.192932	147.620000
257.285828	147.840000
257.378723	147.300000
257.471619	146.860000
257.564545	146.200000
257.657440	146.240000
257.750336	146.540000
257.843262	146.520000
257.936157	147.460000
258.029053	148.100000
258.121979	147.960000
258.214874	147.560000
258.307800	147.480000
258.400696	146.480000
258.493622	146.080000
258.586517	145.460000
258.679443	145.700000
258.772339	145.180000
258.865265	145.040000
258.958160	144.840000
259.051086	145.560000
259.144012	145.380000
259.236938	146.580000
259.329834	146.940000
259.422791	146.680000
259.515717	146.060000
259.608612	146.220000
259.701538	146.200000
259.794464	145.680000
259.887390	145.900000
259.980316	145.720000
260.073212	145.300000
260.166138	144.200000
260.259064	144.760000
260.351990	145.460000
260.444916	145.740000
260.537842	146.260000
260.630768	147.180000
260.723694	147.000000
260.816620	146.280000
260.909546	146.640000
261.002472	146.120000
261.095398	145.720000
261.188354	145.680000
261.281281	145.480000
261.374207	145.280000
261.467133	146.380000
261.560089	146.640000
261.653015	146.620000
261.745972	147.380000
261.838867	147.820000
261.931824	147.540000
262.024780	147.000000
262.117706	147.180000
262.210663	147.280000
262.303589	147.240000
262.396515	147.040000
262.489471	148.100000
262.582397	147.960000
262.675354	147.260000
262.768280	147.060000
262.861237	147.140000
262.954163	146.560000
263.047119	146.800000
263.140045	147.000000
263.233002	146.800000
263.325958	146.460000
263.418884	146.100000
263.511841	146.020000
263.604797	145.980000
263.697723	145.920000
263.790680	145.920000
263.883636	146.600000
263.976593	146.480000
264.069550	146.500000
264.162476	146.580000
264.255463	146.640000
264.348419	146.060000
264.441376	146.360000
264.534332	146.140000
264.627289	146.360000
264.720245	147.040000
264.813202	146.740000
264.906158	146.580000
264.999115	146.900000
265.092072	146.760000
265.185028	146.740000
265.277985	147.200000
265.370941	147.240000
265.463898	147.160000
265.556854	146.760000
265.649811	145.920000
265.742798	145.920000
265.835754	145.800000
265.928711	146.140000
266.021667	146.660000
266.114655	146.900000
266.207611	147.500000
266.300568	146.980000
266.393585	146.280000
266.486511	146.320000
266.579498	145.480000
266.672485	144.980000
266.765442	145.320000
266.858429	146.080000
266.951385	145.600000
267.044342	146.400000
267.137329	146.060000
267.230316	146.400000
267.323273	145.540000
267.416260	146.160000
267.509216	146.020000
267.602203	146.140000
267.695160	146.260000
267.788147	146.800000
267.881134	146.480000
267.974091	146.900000
268.067078	146.940000
268.160065	146.740000
268.253052	146.660000
268.346008	146.760000
268.438995	146.360000
268.531982	146.760000
268.624969	146.520000
268.717987	146.920000
268.810944	146.400000
268.903961	146.380000
268.996948	145.740000
269.089905	146.220000
269.182892	146.240000
269.275879	146.740000
269.368866	146.480000
269.461853	146.560000
269.554871	146.460000
269.647858	146.240000
269.740845	146.340000
269.833832	146.920000
269.926819	146.820000
270.019806	146.440000
270.112793	145.960000
270.205811	146.040000
270.298798	145.600000
270.391785	146.420000
270.484772	146.240000
270.577789	146.560000
270.670776	146.180000
270.763763	146.200000
270.856750	146.000000
270.949768	146.000000
271.042786	146.000000
271.135773	146.120000
271.228790	146.720000
271.321808	146.020000
271.414795	145.900000
271.507782	145.640000
271.600800	145.540000
271.693817	145.460000
271.786804	146.140000
271.879822	146.320000
271.972809	146.500000
272.065826	146.640000
272.158844	146.080000
272.251831	146.580000
272.344849	146.880000
272.437866	146.240000
272.530853	146.080000
272.623871	146.360000
272.716888	145.520000
272.809906	145.480000
272.902893	145.760000
272.995911	145.640000
273.088928	145.700000
273.181946	145.820000
273.274963	145.460000
273.367981	145.760000
273.460999	146.020000
273.554047	146.340000
273.647003	146.600000
273.740051	146.660000
273.833069	146.980000
273.926086	147.060000
274.019135	146.580000
274.112152	146.240000
274.205170	146.520000
274.298187	146.700000
274.391205	146.020000
274.484222	146.180000
274.577240	146.260000
274.670258	145.840000
274.763306	145.340000
274.856323	146.300000
274.949341	146.220000
275.042358	146.620000
275.135406	146.900000
275.228424	147.020000
275.321442	146.740000
275.414490	146.360000
275.507507	146.520000
275.600525	146.960000
275.693573	146.760000
275.786591	146.400000
275.879669	147.060000
275.972656	146.600000
276.065735	146.480000
276.158752	147.020000
276.251801	147.820000
276.344818	147.540000
276.437866	147.580000
276.530884	147.020000
276.623932	146.020000
276.716980	146.060000
276.809998	146.200000
276.903046	146.320000
276.996094	147.320000
277.089111	148.340000
277.182159	148.300000
277.275208	148.120000
277.368256	148.180000
277.461304	147.500000
277.554321	146.620000
277.647369	146.400000
277.740417	146.220000
277.833466	146.060000
277.926514	146.160000
278.019562	146.860000
278.112610	146.400000
278.205688	146.520000
278.298706	146.520000
278.391785	146.100000
278.484833	145.460000
278.577881	145.380000
278.670929	145.440000
278.763977	145.420000
278.857025	145.880000
278.950073	146.600000
279.043121	146.580000
279.136169	146.560000
279.229248	146.040000
279.322296	146.040000
279.415344	145.400000
279.508392	145.480000
279.601440	145.540000
279.694519	145.860000
279.787567	145.480000
279.880615	145.620000
279.973694	145.560000
280.066742	145.500000
280.159790	145.900000
280.252869	145.860000
280.345917	145.940000
280.438995	146.020000
280.532074	146.080000
280.625122	146.160000
280.718201	147.000000
280.811279	147.120000
280.904327	147.060000
280.997406	147.440000
281.090454	146.980000
281.183533	146.620000
281.276581	146.460000
281.369659	146.080000
281.462738	145.740000
281.555786	145.960000
281.648865	145.880000
281.741943	145.760000
281.835022	146.840000
281.928070	146.880000
282.021149	146.780000
282.114227	146.700000
282.207306	146.980000
282.300385	147.080000
282.393433	146.960000
282.486511	146.820000
282.579590	147.160000
282.672668	147.260000
282.765747	146.440000
282.858856	146.160000
282.951904	146.440000
283.045013	146.440000
283.138062	146.740000
283.231171	147.280000
283.324249	147.980000
283.417328	147.880000
283.510406	147.480000
283.603485	146.960000
283.696564	146.540000
283.789642	146.500000
283.882751	146.360000
283.975830	147.000000
284.068909	146.700000
284.161987	147.280000
284.255066	146.820000
284.348175	147.140000
284.441254	146.880000
284.534332	147.560000
284.627441	147.100000
284.720520	146.920000
284.813599	146.760000
284.906708	146.780000
284.999786	145.960000
285.092896	145.660000
285.185974	146.640000
285.279053	146.500000
285.372192	146.380000
285.465240	147.360000
285.558380	147.260000
285.651459	146.620000
285.744568	147.000000
285.837677	146.620000
285.930756	146.200000
286.023865	146.680000
286.116943	146.320000
286.210052	146.580000
286.303162	146.640000
286.396240	146.480000
286.489349	146.260000
286.582458	146.960000
286.675568	146.140000
286.768646	146.040000
286.861755	146.600000
286.954865	147.220000
287.047974	146.320000
287.141083	146.380000
287.234161	146.260000
287.327271	145.740000
287.420380	145.800000
287.513519	145.840000
287.606598	145.800000
287.699738	146.360000
287.792816	146.380000
287.885956	145.940000
287.979034	146.140000
288.072174	146.320000
288.165283	146.020000
288.258392	146.320000
288.351501	145.660000
288.444611	146.120000
288.537720	146.720000
288.630859	146.540000
288.723969	146.640000
288.817078	147.480000
288.910187	147.080000
289.003296	146.380000
289.096436	146.200000
289.189545	145.740000
289.282654	145.240000
289.375763	145.600000
289.468903	146.180000
289.562012	146.600000
289.655121	146.740000
289.748260	147.040000
289.841400	147.240000
289.934509	146.920000
290.027649	147.060000
290.120728	146.880000
290.213898	146.680000
290.306976	146.480000
290.400146	146.500000
290.493256	146.100000
290.586395	146.340000
290.679535	146.800000
290.772644	146.380000
290.865784	145.840000
290.958893	145.980000
291.052032	145.820000
291.145172	145.380000
291.238281	145.400000
291.331421	145.680000
291.424561	145.840000
291.517670	145.740000
291.610809	146.260000
291.703949	146.180000
291.797089	146.560000
291.890228	146.180000
291.983337	146.180000
292.076477	145.440000
292.169617	145.860000
292.262756	145.680000
292.355927	145.860000
292.449036	145.700000
292.542206	146.200000
292.635315	146.520000
292.728485	146.580000
292.821625	146.220000
292.914764	147.180000
293.007904	147.140000
293.101044	146.580000
293.194183	146.620000
293.287323	146.940000
293.380463	146.140000
293.473602	145.780000
293.566742	146.380000
293.659882	146.500000
293.753021	146.700000
293.846191	146.820000
293.939331	146.700000
294.032471	146.340000
294.125610	146.160000
294.218781	146.340000
294.311920	146.520000
294.405060	147.000000
294.498230	146.900000
294.591370	146.860000
294.684540	146.400000
294.777679	146.000000
294.870850	146.100000
294.963959	145.880000
295.057159	145.660000
295.150299	146.100000
295.243469	146.480000
295.336609	145.980000
295.429779	146.300000
295.522919	146.880000
295.616089	146.860000
295.709229	147.280000
295.802399	147.500000
295.895569	147.280000
295.988708	147.100000
296.081879	147.040000
296.175018	146.360000
296.268188	146.320000
296.361359	146.820000
296.454529	146.740000
296.547668	146.380000
296.640839	146.700000
296.734009	146.400000
296.827179	146.180000
296.920319	146.420000
297.013519	146.440000
297.106659	146.620000
297.199860	146.840000
297.292999	146.700000
297.386200	146.220000
297.479309	146.420000
297.572510	146.160000
297.665680	145.980000
297.758850	146.120000
297.852020	146.300000
297.945190	146.120000
298.038361	145.680000
298.131531	146.680000
298.224701	146.440000
298.317871	146.020000
298.411072	145.460000
298.504242	145.420000
298.597412	144.780000
298.690582	144.940000
298.783752	144.980000
298.876923	145.840000
298.970093	146.120000
299.063293	146.140000
299.156464	146.500000
299.249634	146.940000
299.342834	146.980000
299.436005	147.400000
299.529205	147.360000
299.622345	147.440000
299.715576	146.900000
299.808716	146.340000
299.901917	146.160000
299.995117	146.260000
300.088287	145.940000
300.181488	146.160000
300.274658	146.180000
300.367828	146.060000
300.461029	146.100000
300.554199	146.540000
300.647400	146.560000
300.740601	147.360000
300.833771	147.300000
300.926971	147.360000
301.020142	146.500000
301.113342	146.360000
301.206512	145.900000
301.299713	146.140000
301.392914	146.160000
301.486084	146.920000
301.579285	146.960000
301.672516	147.340000
301.765686	147.060000
301.858887	146.860000
301.952057	146.600000
302.045288	146.740000
302.138458	146.380000
302.231659	146.500000
302.324860	146.400000
302.418060	145.860000
302.511261	145.520000
302.604462	145.820000
302.697662	145.700000
302.790863	145.680000
302.884064	145.860000
302.977264	146.160000
303.070465	146.120000
303.163666	146.700000
303.256866	147.100000
303.350067	147.560000
303.443268	147.500000
303.536469	147.880000
303.629669	147.180000
303.722870	147.180000
303.816071	146.560000
303.909271	146.680000
304.002472	145.680000
304.095673	145.740000
304.188934	144.960000
304.282104	145.860000
304.375336	145.520000
304.468506	145.820000
304.561768	145.720000
304.654968	146.260000
304.748169	145.920000
304.841370	146.040000
304.934601	146.200000
305.027802	145.780000
305.121002	145.580000
305.214233	145.220000
305.307434	145.520000
305.400665	146.220000
305.493866	146.320000
