Model Number: SPM-002-B   
Serial Number: 70087108
Firmware Version: 004.15.4
Exposure Time: 100000.000000us
Data Taken on: 11-12-2020 19:30:56.975
Wavelength	Amplitude
221.570786	0.000000
221.663406	0.000000
221.756027	0.000000
221.848648	0.000000
221.941269	0.000000
222.033905	0.000000
222.126526	0.000000
222.219162	0.000000
222.311798	0.000000
222.404419	0.000000
222.497055	0.000000
222.589676	0.000000
222.682312	0.000000
222.774933	0.000000
222.867569	0.000000
222.960205	0.000000
223.052841	0.000000
223.145462	0.000000
223.238098	0.000000
223.330734	0.000000
223.423386	0.000000
223.516022	0.000000
223.608658	0.000000
223.701309	0.000000
223.793945	0.000000
223.886581	0.000000
223.979218	0.000000
224.071869	0.000000
224.164505	0.000000
224.257156	0.000000
224.349792	0.000000
224.442444	0.000000
224.535095	0.000000
224.627747	0.000000
224.720398	0.000000
224.813034	0.000000
224.905685	0.000000
224.998337	146.060000
225.090988	145.620000
225.183640	145.340000
225.276291	145.540000
225.368942	145.620000
225.461594	146.080000
225.554245	146.420000
225.646912	146.460000
225.739578	146.900000
225.832230	147.240000
225.924896	146.440000
226.017548	146.680000
226.110199	147.340000
226.202866	146.500000
226.295532	146.040000
226.388184	146.120000
226.480850	145.620000
226.573517	145.100000
226.666168	145.540000
226.758835	146.140000
226.851501	146.840000
226.944183	146.960000
227.036850	146.660000
227.129517	146.440000
227.222183	146.200000
227.314850	146.060000
227.407516	146.620000
227.500198	147.400000
227.592865	147.260000
227.685532	146.840000
227.778214	146.360000
227.870880	146.080000
227.963562	146.240000
228.056229	146.560000
228.148926	146.540000
228.241592	147.460000
228.334274	147.020000
228.426956	146.700000
228.519638	146.660000
228.612305	146.360000
228.704987	146.160000
228.797668	146.480000
228.890350	146.080000
228.983032	145.340000
229.075714	146.480000
229.168396	146.000000
229.261108	145.480000
229.353790	145.560000
229.446472	146.180000
229.539169	145.440000
229.631851	145.040000
229.724533	145.400000
229.817230	145.580000
229.909912	146.320000
230.002609	146.540000
230.095306	146.720000
230.187988	146.580000
230.280685	146.460000
230.373383	145.420000
230.466095	145.420000
230.558792	145.760000
230.651474	146.060000
230.744171	146.000000
230.836868	145.840000
230.929581	146.080000
231.022278	146.120000
231.114975	146.080000
231.207672	146.180000
231.300369	146.800000
231.393082	146.360000
231.485779	146.240000
231.578506	146.220000
231.671204	146.120000
231.763916	146.180000
231.856613	146.120000
231.949326	145.820000
232.042023	145.760000
232.134735	145.640000
232.227448	145.140000
232.320160	145.380000
232.412872	145.700000
232.505585	146.260000
232.598297	146.640000
232.691010	146.860000
232.783722	146.680000
232.876450	147.100000
232.969162	146.600000
233.061874	146.080000
233.154587	145.580000
233.247314	146.080000
233.340027	145.640000
233.432739	146.040000
233.525467	146.200000
233.618179	146.520000
233.710907	145.740000
233.803635	146.140000
233.896347	145.760000
233.989090	146.720000
234.081818	146.700000
234.174545	147.180000
234.267258	146.540000
234.359985	146.880000
234.452713	146.440000
234.545441	146.500000
234.638168	146.420000
234.730896	146.980000
234.823639	146.740000
234.916367	147.040000
235.009094	147.180000
235.101822	147.040000
235.194580	146.920000
235.287308	146.820000
235.380051	146.060000
235.472778	146.260000
235.565521	146.400000
235.658249	145.920000
235.750992	145.880000
235.843719	145.980000
235.936462	145.980000
236.029205	145.740000
236.121948	145.920000
236.214691	146.460000
236.307449	147.240000
236.400192	146.580000
236.492935	146.440000
236.585678	146.340000
236.678421	146.040000
236.771164	145.600000
236.863907	146.380000
236.956665	146.640000
237.049408	148.400000
237.142151	147.920000
237.234909	148.300000
237.327652	148.320000
237.420410	148.320000
237.513153	147.060000
237.605927	147.040000
237.698669	146.680000
237.791428	146.180000
237.884186	146.580000
237.976944	145.840000
238.069702	146.220000
238.162445	145.640000
238.255203	145.380000
238.347961	145.440000
238.440720	146.000000
238.533478	145.840000
238.626266	145.580000
238.719025	146.080000
238.811783	145.900000
238.904541	145.480000
238.997314	145.440000
239.090073	145.720000
239.182831	145.800000
239.275604	146.300000
239.368362	146.440000
239.461136	146.580000
239.553909	146.460000
239.646667	146.420000
239.739441	145.720000
239.832214	146.000000
239.925003	146.260000
240.017761	147.220000
240.110535	147.540000
240.203308	147.640000
240.296082	147.720000
240.388855	147.380000
240.481628	147.160000
240.574417	146.960000
240.667191	146.980000
240.759964	146.520000
240.852737	146.660000
240.945526	145.840000
241.038315	145.740000
241.131088	145.620000
241.223877	145.860000
241.316650	145.480000
241.409439	146.200000
241.502228	145.860000
241.595001	146.440000
241.687790	146.520000
241.780579	146.640000
241.873367	146.740000
241.966141	147.220000
242.058929	146.480000
242.151718	146.580000
242.244507	147.260000
242.337311	146.400000
242.430099	146.580000
242.522903	146.740000
242.615692	145.860000
242.708481	145.520000
242.801270	146.300000
242.894073	146.160000
242.986862	146.460000
243.079651	147.500000
243.172455	147.180000
243.265244	147.320000
243.358063	146.720000
243.450867	146.700000
243.543655	146.380000
243.636459	146.540000
243.729263	146.500000
243.822067	146.860000
243.914856	147.140000
244.007660	147.420000
244.100464	147.300000
244.193268	146.840000
244.286072	147.000000
244.378876	146.160000
244.471680	145.580000
244.564499	145.960000
244.657318	146.600000
244.750122	146.680000
244.842926	146.420000
244.935745	147.000000
245.028549	146.340000
245.121368	145.920000
245.214172	145.860000
245.306992	146.360000
245.399796	146.220000
245.492615	146.660000
245.585434	146.480000
245.678253	146.440000
245.771072	146.360000
245.863892	146.560000
245.956711	146.720000
246.049530	146.660000
246.142349	146.340000
246.235168	146.380000
246.327988	146.780000
246.420807	146.440000
246.513626	146.280000
246.606445	146.240000
246.699280	146.520000
246.792099	145.960000
246.884918	145.660000
246.977753	145.660000
247.070587	145.700000
247.163422	145.760000
247.256241	145.900000
247.349075	146.140000
247.441895	146.260000
247.534729	146.320000
247.627563	146.100000
247.720383	146.580000
247.813217	146.680000
247.906052	146.620000
247.998886	146.720000
248.091736	146.700000
248.184570	145.920000
248.277405	145.840000
248.370239	146.740000
248.463074	147.620000
248.555908	147.840000
248.648743	147.840000
248.741592	148.020000
248.834427	147.160000
248.927261	146.300000
249.020111	146.700000
249.112946	147.180000
249.205795	146.660000
249.298630	146.660000
249.391495	146.420000
249.484344	145.680000
249.577179	145.320000
249.670029	145.960000
249.762878	146.480000
249.855728	146.780000
249.948563	146.820000
250.041412	146.320000
250.134262	146.560000
250.227112	146.740000
250.319962	146.500000
250.412827	146.820000
250.505692	146.700000
250.598541	146.240000
250.691391	145.920000
250.784241	146.120000
250.877106	145.960000
250.969955	146.060000
251.062805	146.920000
251.155670	147.240000
251.248520	146.860000
251.341385	147.220000
251.434235	147.480000
251.527100	146.680000
251.619965	146.120000
251.712814	147.080000
251.805695	146.620000
251.898560	146.560000
251.991425	146.660000
252.084290	147.160000
252.177155	146.240000
252.270020	146.040000
252.362885	146.100000
252.455750	145.960000
252.548615	145.380000
252.641479	145.380000
252.734360	145.260000
252.827240	145.140000
252.920105	145.360000
253.012970	145.360000
253.105850	145.240000
253.198715	145.360000
253.291595	145.620000
253.384460	145.160000
253.477341	145.200000
253.570221	145.740000
253.663086	145.960000
253.755966	146.240000
253.848846	146.520000
253.941727	146.900000
254.034592	146.560000
254.127472	146.020000
254.220367	146.120000
254.313248	146.340000
254.406128	145.960000
254.499008	146.060000
254.591904	147.260000
254.684784	147.460000
254.777664	147.120000
254.870544	146.520000
254.963440	146.440000
255.056335	146.120000
255.149216	145.580000
255.242111	146.240000
255.334991	147.000000
255.427887	147.140000
255.520767	146.880000
255.613663	147.120000
255.706558	146.500000
255.799438	146.160000
255.892334	146.100000
255.985229	145.920000
256.078125	145.820000
256.171021	145.800000
256.263916	146.240000
256.356812	146.580000
256.449707	146.800000
256.542603	146.500000
256.635498	147.040000
256.728394	147.040000
256.821289	146.560000
256.914215	146.720000
257.007080	147.280000
257.100006	147.120000
257.192932	147.460000
257.285828	147.780000
257.378723	147.540000
257.471619	147.000000
257.564545	146.580000
257.657440	146.320000
257.750336	146.520000
257.843262	146.340000
257.936157	147.520000
258.029053	148.120000
258.121979	147.980000
258.214874	147.780000
258.307800	147.700000
258.400696	146.360000
258.493622	145.920000
258.586517	145.260000
258.679443	145.660000
258.772339	145.380000
258.865265	145.340000
258.958160	145.100000
259.051086	146.060000
259.144012	145.640000
259.236938	146.360000
259.329834	146.700000
259.422791	146.980000
259.515717	146.220000
259.608612	146.160000
259.701538	146.240000
259.794464	146.300000
259.887390	146.080000
259.980316	146.220000
260.073212	146.020000
260.166138	145.160000
260.259064	145.420000
260.351990	145.980000
260.444916	146.160000
260.537842	146.660000
260.630768	147.600000
260.723694	147.540000
260.816620	147.160000
260.909546	146.960000
261.002472	146.500000
261.095398	146.060000
261.188354	145.900000
261.281281	145.640000
261.374207	145.780000
261.467133	146.800000
261.560089	147.100000
261.653015	146.880000
261.745972	147.800000
261.838867	148.240000
261.931824	147.960000
262.024780	147.460000
262.117706	148.020000
262.210663	147.880000
262.303589	147.880000
262.396515	147.560000
262.489471	148.440000
262.582397	147.800000
262.675354	147.260000
262.768280	146.920000
262.861237	146.940000
262.954163	146.400000
263.047119	146.780000
263.140045	146.500000
263.233002	146.660000
263.325958	146.520000
263.418884	146.100000
263.511841	146.020000
263.604797	146.300000
263.697723	145.900000
263.790680	145.680000
263.883636	146.540000
263.976593	146.180000
264.069550	146.440000
264.162476	146.240000
264.255463	146.540000
264.348419	145.880000
264.441376	146.360000
264.534332	145.800000
264.627289	146.260000
264.720245	146.380000
264.813202	146.120000
264.906158	146.320000
264.999115	146.800000
265.092072	146.780000
265.185028	147.160000
265.277985	147.600000
265.370941	147.340000
265.463898	147.040000
265.556854	146.680000
265.649811	145.980000
265.742798	145.800000
265.835754	145.900000
265.928711	146.300000
266.021667	146.820000
266.114655	147.140000
266.207611	147.420000
266.300568	146.680000
266.393585	146.260000
266.486511	146.360000
266.579498	145.620000
266.672485	145.460000
266.765442	145.760000
266.858429	146.200000
266.951385	145.440000
267.044342	145.640000
267.137329	145.700000
267.230316	145.960000
267.323273	145.440000
267.416260	146.280000
267.509216	146.380000
267.602203	146.080000
267.695160	146.360000
267.788147	146.580000
267.881134	145.740000
267.974091	146.040000
268.067078	145.920000
268.160065	145.380000
268.253052	145.140000
268.346008	145.720000
268.438995	145.340000
268.531982	145.540000
268.624969	145.540000
268.717987	145.940000
268.810944	145.740000
268.903961	145.940000
268.996948	145.720000
269.089905	146.120000
269.182892	146.080000
269.275879	146.060000
269.368866	145.840000
269.461853	146.240000
269.554871	146.060000
269.647858	145.960000
269.740845	146.360000
269.833832	146.860000
269.926819	146.840000
270.019806	146.880000
270.112793	146.480000
270.205811	146.400000
270.298798	146.060000
270.391785	146.380000
270.484772	146.100000
270.577789	146.460000
270.670776	146.140000
270.763763	145.940000
270.856750	145.780000
270.949768	145.800000
271.042786	145.780000
271.135773	145.840000
271.228790	146.160000
271.321808	145.700000
271.414795	145.680000
271.507782	145.480000
271.600800	145.060000
271.693817	145.000000
271.786804	145.460000
271.879822	145.680000
271.972809	145.760000
272.065826	146.380000
272.158844	145.900000
272.251831	146.160000
272.344849	146.140000
272.437866	145.900000
272.530853	145.840000
272.623871	146.240000
272.716888	145.500000
272.809906	145.720000
272.902893	145.760000
272.995911	145.220000
273.088928	145.500000
273.181946	145.860000
273.274963	145.440000
273.367981	145.760000
273.460999	146.220000
273.554047	146.400000
273.647003	146.880000
273.740051	146.920000
273.833069	147.120000
273.926086	147.200000
274.019135	146.700000
274.112152	146.120000
274.205170	146.240000
274.298187	146.300000
274.391205	145.900000
274.484222	146.040000
274.577240	146.020000
274.670258	145.800000
274.763306	145.300000
274.856323	145.620000
274.949341	145.480000
275.042358	146.000000
275.135406	146.120000
275.228424	146.420000
275.321442	146.340000
275.414490	146.140000
275.507507	146.220000
275.600525	146.500000
275.693573	146.040000
275.786591	145.620000
275.879669	146.100000
275.972656	145.560000
276.065735	145.180000
276.158752	145.660000
276.251801	146.640000
276.344818	146.500000
276.437866	146.700000
276.530884	146.520000
276.623932	145.860000
276.716980	145.660000
276.809998	145.840000
276.903046	145.860000
276.996094	146.900000
277.089111	147.900000
277.182159	148.260000
277.275208	147.700000
277.368256	147.680000
277.461304	147.240000
277.554321	146.340000
277.647369	145.960000
277.740417	146.120000
277.833466	146.100000
277.926514	145.640000
278.019562	146.400000
278.112610	145.880000
278.205688	146.020000
278.298706	145.920000
278.391785	146.040000
278.484833	145.600000
278.577881	145.960000
278.670929	146.440000
278.763977	146.380000
278.857025	146.880000
278.950073	146.960000
279.043121	146.720000
279.136169	146.440000
279.229248	146.300000
279.322296	146.240000
279.415344	145.980000
279.508392	145.660000
279.601440	145.240000
279.694519	145.280000
279.787567	144.720000
279.880615	144.460000
279.973694	144.600000
280.066742	144.860000
280.159790	145.080000
280.252869	145.140000
280.345917	145.800000
280.438995	145.940000
280.532074	145.860000
280.625122	146.280000
280.718201	146.940000
280.811279	146.760000
280.904327	146.800000
280.997406	147.120000
281.090454	146.500000
281.183533	145.960000
281.276581	145.980000
281.369659	145.960000
281.462738	145.920000
281.555786	146.340000
281.648865	146.740000
281.741943	146.860000
281.835022	147.520000
281.928070	147.280000
282.021149	147.120000
282.114227	146.740000
282.207306	146.700000
282.300385	146.560000
282.393433	146.540000
282.486511	146.560000
282.579590	146.820000
282.672668	146.880000
282.765747	146.320000
282.858856	146.400000
282.951904	146.520000
283.045013	146.640000
283.138062	146.820000
283.231171	147.220000
283.324249	147.260000
283.417328	147.080000
283.510406	146.860000
283.603485	146.420000
283.696564	146.160000
283.789642	146.320000
283.882751	145.880000
283.975830	146.240000
284.068909	146.060000
284.161987	146.780000
284.255066	146.240000
284.348175	146.560000
284.441254	146.340000
284.534332	147.140000
284.627441	146.240000
284.720520	146.180000
284.813599	146.480000
284.906708	146.200000
284.999786	145.100000
285.092896	145.060000
285.185974	146.020000
285.279053	145.540000
285.372192	145.860000
285.465240	146.940000
285.558380	147.100000
285.651459	146.600000
285.744568	147.420000
285.837677	147.140000
285.930756	146.800000
286.023865	146.740000
286.116943	146.420000
286.210052	146.100000
286.303162	145.980000
286.396240	146.140000
286.489349	145.940000
286.582458	146.460000
286.675568	146.120000
286.768646	146.380000
286.861755	146.340000
286.954865	147.160000
287.047974	146.800000
287.141083	146.960000
287.234161	146.860000
287.327271	146.700000
287.420380	146.940000
287.513519	146.740000
287.606598	146.660000
287.699738	146.940000
287.792816	146.860000
287.885956	146.160000
287.979034	146.320000
288.072174	146.220000
288.165283	145.880000
288.258392	146.160000
288.351501	145.780000
288.444611	146.260000
288.537720	146.880000
288.630859	146.900000
288.723969	146.940000
288.817078	147.540000
288.910187	147.140000
289.003296	146.400000
289.096436	146.160000
289.189545	146.040000
289.282654	145.560000
289.375763	145.720000
289.468903	146.380000
289.562012	146.780000
289.655121	146.440000
289.748260	146.780000
289.841400	147.200000
289.934509	146.900000
290.027649	147.140000
290.120728	147.400000
290.213898	147.340000
290.306976	146.940000
290.400146	147.080000
290.493256	146.260000
290.586395	146.120000
290.679535	146.360000
290.772644	146.080000
290.865784	145.260000
290.958893	145.260000
291.052032	145.240000
291.145172	145.020000
291.238281	145.300000
291.331421	145.580000
291.424561	146.320000
291.517670	146.280000
291.610809	146.360000
291.703949	145.760000
291.797089	146.200000
291.890228	145.860000
291.983337	145.920000
292.076477	145.740000
292.169617	146.420000
292.262756	146.260000
292.355927	145.980000
292.449036	145.820000
292.542206	145.980000
292.635315	145.960000
292.728485	146.180000
292.821625	146.040000
292.914764	147.360000
293.007904	147.480000
293.101044	147.200000
293.194183	146.900000
293.287323	147.400000
293.380463	146.220000
293.473602	145.860000
293.566742	146.300000
293.659882	147.040000
293.753021	147.160000
293.846191	147.080000
293.939331	146.620000
294.032471	146.260000
294.125610	145.500000
294.218781	145.900000
294.311920	146.480000
294.405060	147.400000
294.498230	147.380000
294.591370	147.620000
294.684540	146.760000
294.777679	146.320000
294.870850	146.560000
294.963959	146.620000
295.057159	146.200000
295.150299	146.480000
295.243469	146.500000
295.336609	145.540000
295.429779	145.440000
295.522919	146.080000
295.616089	146.440000
295.709229	146.640000
295.802399	147.060000
295.895569	146.820000
295.988708	146.620000
296.081879	146.220000
296.175018	145.720000
296.268188	145.680000
296.361359	146.280000
296.454529	146.200000
296.547668	146.300000
296.640839	146.740000
296.734009	146.340000
296.827179	146.120000
296.920319	146.360000
297.013519	145.940000
297.106659	145.900000
297.199860	146.120000
297.292999	146.080000
297.386200	146.100000
297.479309	146.160000
297.572510	146.040000
297.665680	145.900000
297.758850	146.100000
297.852020	145.760000
297.945190	145.720000
298.038361	145.540000
298.131531	146.560000
298.224701	146.440000
298.317871	146.260000
298.411072	145.940000
298.504242	145.960000
298.597412	145.040000
298.690582	145.180000
298.783752	145.280000
298.876923	146.080000
298.970093	146.220000
299.063293	146.460000
299.156464	146.840000
299.249634	147.140000
299.342834	147.160000
299.436005	147.600000
299.529205	147.720000
299.622345	147.480000
299.715576	146.780000
299.808716	146.400000
299.901917	146.460000
299.995117	146.620000
300.088287	146.520000
300.181488	146.920000
300.274658	146.940000
300.367828	146.540000
300.461029	146.440000
300.554199	146.840000
300.647400	146.840000
300.740601	147.320000
300.833771	147.160000
300.926971	147.500000
301.020142	146.640000
301.113342	146.580000
301.206512	146.200000
301.299713	146.640000
301.392914	146.140000
301.486084	146.680000
301.579285	146.800000
301.672516	147.040000
301.765686	146.740000
301.858887	146.660000
301.952057	146.540000
302.045288	146.180000
302.138458	146.120000
302.231659	145.780000
302.324860	146.000000
302.418060	145.560000
302.511261	145.600000
302.604462	145.740000
302.697662	145.820000
302.790863	145.580000
302.884064	145.440000
302.977264	145.660000
303.070465	145.620000
303.163666	146.440000
303.256866	146.780000
303.350067	147.040000
303.443268	147.040000
303.536469	147.160000
303.629669	146.400000
303.722870	146.540000
303.816071	146.340000
303.909271	146.760000
304.002472	146.120000
304.095673	146.060000
304.188934	145.160000
304.282104	146.220000
304.375336	145.760000
304.468506	146.040000
304.561768	146.000000
304.654968	146.620000
304.748169	145.900000
304.841370	145.860000
304.934601	146.100000
305.027802	145.980000
305.121002	145.740000
305.214233	145.760000
305.307434	145.920000
305.400665	146.320000
305.493866	146.300000
