Model Number: SPM-002-B   
Serial Number: 70087108
Firmware Version: 004.15.4
Exposure Time: 100000.000000us
Data Taken on: 11-12-2020 19:31:12.964
Wavelength	Amplitude
221.570786	0.000000
221.663406	0.000000
221.756027	0.000000
221.848648	0.000000
221.941269	0.000000
222.033905	0.000000
222.126526	0.000000
222.219162	0.000000
222.311798	0.000000
222.404419	0.000000
222.497055	0.000000
222.589676	0.000000
222.682312	0.000000
222.774933	0.000000
222.867569	0.000000
222.960205	0.000000
223.052841	0.000000
223.145462	0.000000
223.238098	0.000000
223.330734	0.000000
223.423386	0.000000
223.516022	0.000000
223.608658	0.000000
223.701309	0.000000
223.793945	0.000000
223.886581	0.000000
223.979218	0.000000
224.071869	0.000000
224.164505	0.000000
224.257156	0.000000
224.349792	0.000000
224.442444	0.000000
224.535095	0.000000
224.627747	0.000000
224.720398	0.000000
224.813034	0.000000
224.905685	0.000000
224.998337	145.760000
225.090988	145.520000
225.183640	145.540000
225.276291	145.100000
225.368942	145.900000
225.461594	146.260000
225.554245	146.460000
225.646912	146.360000
225.739578	146.920000
225.832230	147.160000
225.924896	146.280000
226.017548	146.720000
226.110199	147.300000
226.202866	146.800000
226.295532	146.380000
226.388184	146.560000
226.480850	145.940000
226.573517	145.380000
226.666168	145.760000
226.758835	146.220000
226.851501	146.900000
226.944183	147.240000
227.036850	147.100000
227.129517	146.900000
227.222183	146.880000
227.314850	146.580000
227.407516	146.700000
227.500198	147.480000
227.592865	147.480000
227.685532	147.000000
227.778214	146.860000
227.870880	147.140000
227.963562	147.320000
228.056229	147.500000
228.148926	147.720000
228.241592	148.420000
228.334274	148.120000
228.426956	147.700000
228.519638	147.900000
228.612305	147.580000
228.704987	147.320000
228.797668	147.060000
228.890350	147.180000
228.983032	146.440000
229.075714	146.860000
229.168396	146.540000
229.261108	146.300000
229.353790	145.800000
229.446472	146.340000
229.539169	146.060000
229.631851	145.660000
229.724533	145.940000
229.817230	146.180000
229.909912	147.020000
230.002609	147.320000
230.095306	147.620000
230.187988	147.720000
230.280685	147.520000
230.373383	146.180000
230.466095	146.100000
230.558792	146.640000
230.651474	146.400000
230.744171	146.620000
230.836868	146.780000
230.929581	146.720000
231.022278	146.380000
231.114975	146.320000
231.207672	145.840000
231.300369	146.340000
231.393082	146.280000
231.485779	146.000000
231.578506	146.160000
231.671204	146.600000
231.763916	146.540000
231.856613	146.500000
231.949326	146.640000
232.042023	146.400000
232.134735	146.320000
232.227448	145.620000
232.320160	145.920000
232.412872	145.880000
232.505585	146.780000
232.598297	147.420000
232.691010	147.720000
232.783722	147.100000
232.876450	147.740000
232.969162	147.300000
233.061874	146.700000
233.154587	146.580000
233.247314	147.040000
233.340027	146.360000
233.432739	146.600000
233.525467	146.240000
233.618179	146.620000
233.710907	146.300000
233.803635	146.720000
233.896347	146.340000
233.989090	147.280000
234.081818	147.200000
234.174545	147.460000
234.267258	146.960000
234.359985	147.300000
234.452713	146.860000
234.545441	146.460000
234.638168	146.440000
234.730896	146.940000
234.823639	146.500000
234.916367	146.820000
235.009094	146.980000
235.101822	147.060000
235.194580	146.880000
235.287308	147.200000
235.380051	146.400000
235.472778	146.620000
235.565521	146.740000
235.658249	146.560000
235.750992	146.420000
235.843719	146.960000
235.936462	147.360000
236.029205	147.060000
236.121948	146.920000
236.214691	147.320000
236.307449	147.940000
236.400192	147.140000
236.492935	147.040000
236.585678	147.060000
236.678421	146.680000
236.771164	146.380000
236.863907	147.020000
236.956665	147.420000
237.049408	149.240000
237.142151	149.040000
237.234909	149.340000
237.327652	149.320000
237.420410	148.880000
237.513153	147.560000
237.605927	147.340000
237.698669	146.680000
237.791428	146.300000
237.884186	146.860000
237.976944	146.480000
238.069702	146.980000
238.162445	146.680000
238.255203	146.860000
238.347961	147.120000
238.440720	147.200000
238.533478	147.140000
238.626266	146.840000
238.719025	146.920000
238.811783	146.380000
238.904541	146.240000
238.997314	146.120000
239.090073	146.160000
239.182831	146.160000
239.275604	146.900000
239.368362	146.720000
239.461136	147.040000
239.553909	147.220000
239.646667	147.140000
239.739441	146.700000
239.832214	147.400000
239.925003	147.120000
240.017761	147.720000
240.110535	148.000000
240.203308	147.480000
240.296082	147.280000
240.388855	147.280000
240.481628	147.220000
240.574417	147.340000
240.667191	147.680000
240.759964	147.180000
240.852737	147.180000
240.945526	146.640000
241.038315	146.280000
241.131088	146.320000
241.223877	146.760000
241.316650	146.340000
241.409439	146.760000
241.502228	146.240000
241.595001	146.520000
241.687790	146.240000
241.780579	146.340000
241.873367	146.300000
241.966141	146.760000
242.058929	146.320000
242.151718	146.820000
242.244507	147.400000
242.337311	146.660000
242.430099	147.140000
242.522903	147.440000
242.615692	146.620000
242.708481	146.460000
242.801270	147.300000
242.894073	146.960000
242.986862	146.680000
243.079651	147.300000
243.172455	147.040000
243.265244	147.020000
243.358063	146.580000
243.450867	146.760000
243.543655	147.020000
243.636459	147.300000
243.729263	147.640000
243.822067	148.300000
243.914856	148.740000
244.007660	148.700000
244.100464	148.740000
244.193268	148.100000
244.286072	147.880000
244.378876	147.040000
244.471680	146.500000
244.564499	146.440000
244.657318	147.060000
244.750122	147.160000
244.842926	146.580000
244.935745	147.120000
245.028549	147.000000
245.121368	146.780000
245.214172	146.600000
245.306992	147.540000
245.399796	147.100000
245.492615	147.120000
245.585434	146.940000
245.678253	147.120000
245.771072	146.640000
245.863892	147.120000
245.956711	147.200000
246.049530	146.820000
246.142349	146.320000
246.235168	146.740000
246.327988	147.400000
246.420807	147.340000
246.513626	147.660000
246.606445	147.760000
246.699280	147.440000
246.792099	146.340000
246.884918	146.020000
246.977753	145.500000
247.070587	145.560000
247.163422	145.640000
247.256241	146.020000
247.349075	146.420000
247.441895	146.760000
247.534729	146.900000
247.627563	146.900000
247.720383	147.440000
247.813217	147.360000
247.906052	147.120000
247.998886	147.160000
248.091736	147.020000
248.184570	146.260000
248.277405	146.220000
248.370239	147.200000
248.463074	148.080000
248.555908	148.580000
248.648743	148.500000
248.741592	148.460000
248.834427	147.880000
248.927261	146.220000
249.020111	146.200000
249.112946	146.700000
249.205795	146.580000
249.298630	146.500000
249.391495	147.020000
249.484344	146.740000
249.577179	146.520000
249.670029	146.780000
249.762878	147.300000
249.855728	147.620000
249.948563	147.840000
250.041412	147.500000
250.134262	147.340000
250.227112	147.060000
250.319962	146.940000
250.412827	146.840000
250.505692	146.720000
250.598541	146.720000
250.691391	146.480000
250.784241	146.540000
250.877106	146.580000
250.969955	146.440000
251.062805	146.920000
251.155670	147.440000
251.248520	147.180000
251.341385	147.280000
251.434235	147.400000
251.527100	147.080000
251.619965	146.660000
251.712814	147.580000
251.805695	147.400000
251.898560	147.560000
251.991425	147.580000
252.084290	147.820000
252.177155	146.800000
252.270020	146.680000
252.362885	146.620000
252.455750	146.500000
252.548615	145.940000
252.641479	146.100000
252.734360	146.020000
252.827240	145.740000
252.920105	145.900000
253.012970	146.100000
253.105850	146.100000
253.198715	145.840000
253.291595	146.180000
253.384460	145.900000
253.477341	145.600000
253.570221	146.000000
253.663086	146.160000
253.755966	146.640000
253.848846	146.740000
253.941727	147.320000
254.034592	147.000000
254.127472	146.960000
254.220367	146.760000
254.313248	146.800000
254.406128	146.380000
254.499008	146.840000
254.591904	147.580000
254.684784	147.900000
254.777664	147.780000
254.870544	147.600000
254.963440	147.140000
255.056335	146.840000
255.149216	146.500000
255.242111	147.160000
255.334991	147.700000
255.427887	147.760000
255.520767	147.600000
255.613663	147.540000
255.706558	146.800000
255.799438	146.280000
255.892334	145.860000
255.985229	146.040000
256.078125	145.900000
256.171021	146.220000
256.263916	146.860000
256.356812	147.500000
256.449707	147.740000
256.542603	147.520000
256.635498	147.760000
256.728394	147.320000
256.821289	146.820000
256.914215	146.800000
257.007080	147.260000
257.100006	147.140000
257.192932	147.880000
257.285828	148.380000
257.378723	148.160000
257.471619	147.640000
257.564545	147.460000
257.657440	147.360000
257.750336	147.780000
257.843262	147.560000
257.936157	148.860000
258.029053	149.180000
258.121979	149.060000
258.214874	148.320000
258.307800	148.400000
258.400696	147.240000
258.493622	146.780000
258.586517	146.020000
258.679443	146.520000
258.772339	145.820000
258.865265	145.800000
258.958160	145.640000
259.051086	146.360000
259.144012	146.140000
259.236938	147.180000
259.329834	147.200000
259.422791	147.020000
259.515717	146.500000
259.608612	146.360000
259.701538	146.220000
259.794464	146.300000
259.887390	146.580000
259.980316	146.660000
260.073212	146.400000
260.166138	145.660000
260.259064	145.880000
260.351990	146.440000
260.444916	146.500000
260.537842	146.900000
260.630768	147.560000
260.723694	147.580000
260.816620	147.200000
260.909546	147.280000
261.002472	147.020000
261.095398	146.580000
261.188354	146.360000
261.281281	145.860000
261.374207	146.040000
261.467133	146.700000
261.560089	146.660000
261.653015	146.660000
261.745972	147.500000
261.838867	147.820000
261.931824	147.760000
262.024780	147.580000
262.117706	147.840000
262.210663	147.680000
262.303589	147.100000
262.396515	146.820000
262.489471	148.140000
262.582397	147.860000
262.675354	147.540000
262.768280	147.580000
262.861237	147.680000
262.954163	147.280000
263.047119	147.400000
263.140045	147.340000
263.233002	147.240000
263.325958	146.760000
263.418884	145.940000
263.511841	146.120000
263.604797	146.320000
263.697723	146.580000
263.790680	146.700000
263.883636	147.120000
263.976593	146.700000
264.069550	146.740000
264.162476	146.220000
264.255463	146.440000
264.348419	146.260000
264.441376	146.720000
264.534332	146.040000
264.627289	146.520000
264.720245	147.120000
264.813202	146.800000
264.906158	146.980000
264.999115	147.900000
265.092072	147.720000
265.185028	147.780000
265.277985	148.200000
265.370941	147.680000
265.463898	147.540000
265.556854	147.280000
265.649811	146.060000
265.742798	146.020000
265.835754	146.240000
265.928711	146.320000
266.021667	146.680000
266.114655	147.320000
266.207611	147.600000
266.300568	146.900000
266.393585	146.380000
266.486511	146.620000
266.579498	146.000000
266.672485	145.720000
266.765442	145.840000
266.858429	146.380000
266.951385	145.800000
267.044342	146.140000
267.137329	145.960000
267.230316	146.200000
267.323273	145.740000
267.416260	146.520000
267.509216	146.420000
267.602203	146.360000
267.695160	146.860000
267.788147	147.000000
267.881134	146.260000
267.974091	146.660000
268.067078	146.860000
268.160065	146.500000
268.253052	146.260000
268.346008	146.500000
268.438995	146.100000
268.531982	146.200000
268.624969	146.200000
268.717987	146.500000
268.810944	146.400000
268.903961	146.440000
268.996948	146.260000
269.089905	146.480000
269.182892	146.620000
269.275879	147.100000
269.368866	146.820000
269.461853	147.040000
269.554871	146.860000
269.647858	146.800000
269.740845	146.860000
269.833832	147.220000
269.926819	146.860000
270.019806	147.040000
270.112793	146.760000
270.205811	146.820000
270.298798	146.560000
270.391785	147.260000
270.484772	147.040000
270.577789	147.060000
270.670776	146.400000
270.763763	146.740000
270.856750	146.680000
270.949768	146.320000
271.042786	146.340000
271.135773	146.560000
271.228790	146.980000
271.321808	146.220000
271.414795	146.200000
271.507782	146.120000
271.600800	145.860000
271.693817	145.440000
271.786804	146.120000
271.879822	146.640000
271.972809	146.740000
272.065826	147.300000
272.158844	146.920000
272.251831	147.440000
272.344849	147.040000
272.437866	146.560000
272.530853	146.320000
272.623871	146.640000
272.716888	145.560000
272.809906	146.100000
272.902893	146.360000
272.995911	145.940000
273.088928	146.260000
273.181946	146.640000
273.274963	146.420000
273.367981	146.440000
273.460999	146.860000
273.554047	146.880000
273.647003	147.260000
273.740051	147.160000
273.833069	147.840000
273.926086	147.920000
274.019135	147.520000
274.112152	146.980000
274.205170	147.020000
274.298187	146.700000
274.391205	146.140000
274.484222	146.120000
274.577240	146.120000
274.670258	146.100000
274.763306	145.800000
274.856323	146.300000
274.949341	146.400000
275.042358	146.840000
275.135406	146.760000
275.228424	146.860000
275.321442	146.840000
275.414490	146.580000
275.507507	146.780000
275.600525	147.180000
275.693573	147.000000
275.786591	146.620000
275.879669	146.960000
275.972656	146.600000
276.065735	146.280000
276.158752	146.920000
276.251801	147.640000
276.344818	147.780000
276.437866	147.760000
276.530884	147.580000
276.623932	147.080000
276.716980	146.980000
276.809998	146.620000
276.903046	146.840000
276.996094	147.780000
277.089111	147.980000
277.182159	148.160000
277.275208	148.020000
277.368256	147.760000
277.461304	147.040000
277.554321	146.460000
277.647369	146.260000
277.740417	146.380000
277.833466	146.100000
277.926514	146.240000
278.019562	147.100000
278.112610	146.540000
278.205688	146.580000
278.298706	146.700000
278.391785	146.400000
278.484833	145.640000
278.577881	145.320000
278.670929	145.400000
278.763977	145.720000
278.857025	146.060000
278.950073	146.280000
279.043121	146.420000
279.136169	146.660000
279.229248	146.180000
279.322296	146.140000
279.415344	146.140000
279.508392	146.360000
279.601440	146.120000
279.694519	146.080000
279.787567	145.920000
279.880615	145.940000
279.973694	146.120000
280.066742	146.120000
280.159790	146.600000
280.252869	146.360000
280.345917	146.620000
280.438995	146.480000
280.532074	146.360000
280.625122	146.380000
280.718201	147.480000
280.811279	147.300000
280.904327	147.220000
280.997406	147.400000
281.090454	147.420000
281.183533	146.260000
281.276581	145.980000
281.369659	145.620000
281.462738	145.680000
281.555786	145.880000
281.648865	146.300000
281.741943	146.200000
281.835022	147.020000
281.928070	146.880000
282.021149	146.380000
282.114227	146.440000
282.207306	146.480000
282.300385	146.580000
282.393433	146.900000
282.486511	147.020000
282.579590	147.080000
282.672668	147.560000
282.765747	146.940000
282.858856	146.500000
282.951904	146.580000
283.045013	146.820000
283.138062	146.840000
283.231171	147.300000
283.324249	147.780000
283.417328	147.760000
283.510406	146.940000
283.603485	146.600000
283.696564	146.380000
283.789642	146.200000
283.882751	146.000000
283.975830	146.960000
284.068909	146.840000
284.161987	147.300000
284.255066	146.760000
284.348175	147.080000
284.441254	146.460000
284.534332	147.020000
284.627441	146.580000
284.720520	146.560000
284.813599	146.260000
284.906708	146.540000
284.999786	145.800000
285.092896	145.460000
285.185974	146.480000
285.279053	146.100000
285.372192	146.120000
285.465240	146.680000
285.558380	146.860000
285.651459	146.320000
285.744568	147.420000
285.837677	146.900000
285.930756	146.900000
286.023865	147.020000
286.116943	146.580000
286.210052	146.240000
286.303162	146.580000
286.396240	146.400000
286.489349	145.980000
286.582458	146.420000
286.675568	145.840000
286.768646	145.820000
286.861755	146.380000
286.954865	147.380000
287.047974	146.780000
287.141083	146.820000
287.234161	146.480000
287.327271	145.860000
287.420380	145.960000
287.513519	146.120000
287.606598	146.320000
287.699738	146.500000
287.792816	146.660000
287.885956	146.260000
287.979034	146.400000
288.072174	146.280000
288.165283	146.440000
288.258392	146.680000
288.351501	146.240000
288.444611	146.640000
288.537720	147.220000
288.630859	147.120000
288.723969	147.100000
288.817078	147.440000
288.910187	147.020000
289.003296	146.400000
289.096436	146.240000
289.189545	145.900000
289.282654	145.680000
289.375763	146.220000
289.468903	146.700000
289.562012	146.960000
289.655121	147.260000
289.748260	147.280000
289.841400	147.260000
289.934509	147.040000
290.027649	146.900000
290.120728	146.460000
290.213898	146.360000
290.306976	145.940000
290.400146	146.040000
290.493256	145.520000
290.586395	145.940000
290.679535	146.460000
290.772644	146.320000
290.865784	145.800000
290.958893	146.340000
291.052032	146.080000
291.145172	145.800000
291.238281	145.660000
291.331421	145.700000
291.424561	145.960000
291.517670	145.900000
291.610809	145.960000
291.703949	146.200000
291.797089	146.520000
291.890228	145.920000
291.983337	145.880000
292.076477	145.760000
292.169617	146.240000
292.262756	146.140000
292.355927	146.220000
292.449036	146.180000
292.542206	146.260000
292.635315	145.980000
292.728485	146.320000
292.821625	145.980000
292.914764	147.100000
293.007904	147.600000
293.101044	147.620000
293.194183	147.280000
293.287323	147.760000
293.380463	146.780000
293.473602	146.120000
293.566742	146.480000
293.659882	147.240000
293.753021	147.400000
293.846191	147.420000
293.939331	146.940000
294.032471	146.680000
294.125610	145.820000
294.218781	146.340000
294.311920	146.780000
294.405060	147.600000
294.498230	147.480000
294.591370	147.900000
294.684540	147.140000
294.777679	146.480000
294.870850	146.560000
294.963959	146.620000
295.057159	146.220000
295.150299	146.540000
295.243469	146.520000
295.336609	145.740000
295.429779	145.660000
295.522919	146.020000
295.616089	145.820000
295.709229	146.680000
295.802399	147.080000
295.895569	146.980000
295.988708	146.760000
296.081879	147.040000
296.175018	146.460000
296.268188	146.340000
296.361359	146.580000
296.454529	146.780000
296.547668	146.680000
296.640839	147.180000
296.734009	147.100000
296.827179	146.960000
296.920319	147.120000
297.013519	146.840000
297.106659	146.720000
297.199860	146.640000
297.292999	146.700000
297.386200	146.280000
297.479309	146.280000
297.572510	146.080000
297.665680	146.040000
297.758850	146.060000
297.852020	145.920000
297.945190	146.040000
298.038361	145.600000
298.131531	146.600000
298.224701	146.620000
298.317871	146.720000
298.411072	146.140000
298.504242	146.260000
298.597412	145.460000
298.690582	145.280000
298.783752	145.200000
298.876923	145.760000
298.970093	145.540000
299.063293	145.640000
299.156464	145.940000
299.249634	146.400000
299.342834	146.360000
299.436005	146.960000
299.529205	146.920000
299.622345	146.840000
299.715576	146.120000
299.808716	145.960000
299.901917	145.940000
299.995117	146.320000
300.088287	146.520000
300.181488	146.500000
300.274658	146.500000
300.367828	146.280000
300.461029	146.040000
300.554199	146.020000
300.647400	146.400000
300.740601	147.020000
300.833771	147.040000
300.926971	147.360000
301.020142	146.900000
301.113342	146.700000
301.206512	146.180000
301.299713	146.480000
301.392914	146.340000
301.486084	146.900000
301.579285	147.000000
301.672516	147.560000
301.765686	147.080000
301.858887	146.980000
301.952057	146.780000
302.045288	146.740000
302.138458	146.260000
302.231659	146.140000
302.324860	145.920000
302.418060	145.400000
302.511261	145.340000
302.604462	145.600000
302.697662	145.660000
302.790863	145.540000
302.884064	145.520000
302.977264	145.820000
303.070465	146.120000
303.163666	146.680000
303.256866	146.800000
303.350067	147.000000
303.443268	146.880000
303.536469	146.900000
303.629669	146.320000
303.722870	146.820000
303.816071	146.700000
303.909271	146.780000
304.002472	145.980000
304.095673	146.280000
304.188934	145.400000
304.282104	146.440000
304.375336	146.240000
304.468506	146.240000
304.561768	145.960000
304.654968	146.600000
304.748169	145.540000
304.841370	145.500000
304.934601	146.040000
305.027802	146.020000
305.121002	145.500000
305.214233	145.760000
305.307434	145.740000
305.400665	146.180000
305.493866	145.640000
