Model Number: SPM-002-B   
Serial Number: 70087108
Firmware Version: 004.15.4
Exposure Time: 100000.000000us
Data Taken on: 11-12-2020 19:31:29.835
Wavelength	Amplitude
221.570786	0.000000
221.663406	0.000000
221.756027	0.000000
221.848648	0.000000
221.941269	0.000000
222.033905	0.000000
222.126526	0.000000
222.219162	0.000000
222.311798	0.000000
222.404419	0.000000
222.497055	0.000000
222.589676	0.000000
222.682312	0.000000
222.774933	0.000000
222.867569	0.000000
222.960205	0.000000
223.052841	0.000000
223.145462	0.000000
223.238098	0.000000
223.330734	0.000000
223.423386	0.000000
223.516022	0.000000
223.608658	0.000000
223.701309	0.000000
223.793945	0.000000
223.886581	0.000000
223.979218	0.000000
224.071869	0.000000
224.164505	0.000000
224.257156	0.000000
224.349792	0.000000
224.442444	0.000000
224.535095	0.000000
224.627747	0.000000
224.720398	0.000000
224.813034	0.000000
224.905685	0.000000
224.998337	146.040000
225.090988	145.480000
225.183640	145.480000
225.276291	145.280000
225.368942	145.540000
225.461594	146.440000
225.554245	146.900000
225.646912	146.800000
225.739578	147.460000
225.832230	147.500000
225.924896	146.000000
226.017548	146.000000
226.110199	146.760000
226.202866	146.020000
226.295532	146.000000
226.388184	146.540000
226.480850	146.000000
226.573517	145.480000
226.666168	145.880000
226.758835	146.160000
226.851501	146.620000
226.944183	146.940000
227.036850	146.520000
227.129517	146.360000
227.222183	146.220000
227.314850	146.120000
227.407516	146.180000
227.500198	146.920000
227.592865	146.520000
227.685532	146.100000
227.778214	145.840000
227.870880	146.280000
227.963562	146.600000
228.056229	147.380000
228.148926	147.560000
228.241592	148.500000
228.334274	148.100000
228.426956	147.820000
228.519638	147.460000
228.612305	147.060000
228.704987	146.520000
228.797668	146.660000
228.890350	146.000000
228.983032	145.480000
229.075714	146.360000
229.168396	146.080000
229.261108	145.620000
229.353790	145.580000
229.446472	145.960000
229.539169	145.340000
229.631851	145.220000
229.724533	145.620000
229.817230	146.040000
229.909912	146.960000
230.002609	147.160000
230.095306	147.140000
230.187988	146.880000
230.280685	146.580000
230.373383	145.340000
230.466095	145.240000
230.558792	145.580000
230.651474	145.560000
230.744171	145.680000
230.836868	145.720000
230.929581	145.820000
231.022278	145.300000
231.114975	145.360000
231.207672	145.080000
231.300369	145.800000
231.393082	146.100000
231.485779	146.540000
231.578506	146.680000
231.671204	147.060000
231.763916	146.720000
231.856613	146.420000
231.949326	146.460000
232.042023	146.160000
232.134735	145.860000
232.227448	145.820000
232.320160	146.160000
232.412872	146.220000
232.505585	146.940000
232.598297	147.400000
232.691010	147.480000
232.783722	146.880000
232.876450	147.040000
232.969162	146.640000
233.061874	146.200000
233.154587	145.860000
233.247314	146.500000
233.340027	145.920000
233.432739	146.400000
233.525467	146.440000
233.618179	146.780000
233.710907	146.300000
233.803635	147.060000
233.896347	146.640000
233.989090	147.160000
234.081818	146.880000
234.174545	146.880000
234.267258	145.940000
234.359985	146.020000
234.452713	145.820000
234.545441	145.960000
234.638168	146.080000
234.730896	147.000000
234.823639	146.880000
234.916367	146.960000
235.009094	146.940000
235.101822	146.800000
235.194580	146.440000
235.287308	146.140000
235.380051	145.560000
235.472778	145.680000
235.565521	146.120000
235.658249	145.640000
235.750992	146.180000
235.843719	146.380000
235.936462	146.600000
236.029205	146.500000
236.121948	146.660000
236.214691	146.700000
236.307449	147.740000
236.400192	147.360000
236.492935	147.260000
236.585678	147.460000
236.678421	147.300000
236.771164	146.540000
236.863907	147.040000
236.956665	147.060000
237.049408	148.540000
237.142151	148.500000
237.234909	149.020000
237.327652	148.660000
237.420410	148.240000
237.513153	147.020000
237.605927	146.780000
237.698669	146.260000
237.791428	146.200000
237.884186	146.720000
237.976944	146.400000
238.069702	146.820000
238.162445	146.460000
238.255203	146.420000
238.347961	146.320000
238.440720	146.060000
238.533478	145.760000
238.626266	145.240000
238.719025	145.560000
238.811783	145.400000
238.904541	145.640000
238.997314	145.720000
239.090073	145.900000
239.182831	145.880000
239.275604	146.640000
239.368362	146.500000
239.461136	146.460000
239.553909	146.580000
239.646667	146.380000
239.739441	146.020000
239.832214	146.200000
239.925003	146.460000
240.017761	147.000000
240.110535	147.680000
240.203308	146.940000
240.296082	147.100000
240.388855	146.660000
240.481628	146.780000
240.574417	146.400000
240.667191	147.180000
240.759964	146.820000
240.852737	147.000000
240.945526	146.800000
241.038315	146.820000
241.131088	146.600000
241.223877	146.820000
241.316650	146.660000
241.409439	146.940000
241.502228	146.300000
241.595001	146.620000
241.687790	146.720000
241.780579	146.820000
241.873367	146.780000
241.966141	147.380000
242.058929	146.600000
242.151718	146.620000
242.244507	146.760000
242.337311	145.920000
242.430099	146.240000
242.522903	146.620000
242.615692	146.340000
242.708481	146.600000
242.801270	147.100000
242.894073	146.680000
242.986862	146.980000
243.079651	147.560000
243.172455	147.040000
243.265244	147.500000
243.358063	146.860000
243.450867	146.940000
243.543655	146.700000
243.636459	146.920000
243.729263	146.900000
243.822067	147.600000
243.914856	147.740000
244.007660	147.840000
244.100464	147.620000
244.193268	147.100000
244.286072	146.680000
244.378876	146.020000
244.471680	145.620000
244.564499	146.220000
244.657318	146.980000
244.750122	147.380000
244.842926	146.940000
244.935745	147.540000
245.028549	147.020000
245.121368	146.420000
245.214172	146.420000
245.306992	147.320000
245.399796	146.780000
245.492615	146.880000
245.585434	146.820000
245.678253	146.620000
245.771072	146.400000
245.863892	146.900000
245.956711	147.000000
246.049530	146.900000
246.142349	146.760000
246.235168	146.640000
246.327988	146.800000
246.420807	146.540000
246.513626	146.660000
246.606445	146.680000
246.699280	146.700000
246.792099	146.360000
246.884918	146.180000
246.977753	145.900000
247.070587	145.820000
247.163422	145.860000
247.256241	145.900000
247.349075	146.140000
247.441895	146.280000
247.534729	146.480000
247.627563	146.140000
247.720383	146.260000
247.813217	146.040000
247.906052	146.080000
247.998886	146.000000
248.091736	146.080000
248.184570	145.860000
248.277405	146.100000
248.370239	147.100000
248.463074	147.860000
248.555908	148.200000
248.648743	148.020000
248.741592	147.820000
248.834427	146.880000
248.927261	145.900000
249.020111	145.980000
249.112946	146.760000
249.205795	146.400000
249.298630	146.480000
249.391495	146.360000
249.484344	146.200000
249.577179	145.820000
249.670029	146.720000
249.762878	147.040000
249.855728	147.320000
249.948563	147.420000
250.041412	146.860000
250.134262	146.840000
250.227112	146.940000
250.319962	147.100000
250.412827	146.960000
250.505692	147.100000
250.598541	146.880000
250.691391	146.300000
250.784241	146.480000
250.877106	146.600000
250.969955	146.300000
251.062805	146.880000
251.155670	147.500000
251.248520	147.100000
251.341385	147.100000
251.434235	147.320000
251.527100	146.720000
251.619965	146.380000
251.712814	147.240000
251.805695	147.100000
251.898560	147.340000
251.991425	147.540000
252.084290	147.460000
252.177155	146.360000
252.270020	146.300000
252.362885	146.140000
252.455750	146.020000
252.548615	145.860000
252.641479	145.900000
252.734360	146.160000
252.827240	145.880000
252.920105	145.880000
253.012970	145.800000
253.105850	146.020000
253.198715	145.500000
253.291595	145.920000
253.384460	145.720000
253.477341	145.940000
253.570221	146.140000
253.663086	146.020000
253.755966	146.480000
253.848846	146.580000
253.941727	146.780000
254.034592	146.760000
254.127472	146.660000
254.220367	146.620000
254.313248	146.800000
254.406128	146.540000
254.499008	146.760000
254.591904	147.600000
254.684784	147.720000
254.777664	147.700000
254.870544	147.360000
254.963440	147.140000
255.056335	146.800000
255.149216	146.140000
255.242111	146.720000
255.334991	147.360000
255.427887	147.500000
255.520767	147.560000
255.613663	147.600000
255.706558	146.540000
255.799438	145.920000
255.892334	145.520000
255.985229	145.420000
256.078125	145.640000
256.171021	145.840000
256.263916	146.300000
256.356812	146.620000
256.449707	146.740000
256.542603	146.280000
256.635498	147.100000
256.728394	147.080000
256.821289	146.860000
256.914215	147.060000
257.007080	147.880000
257.100006	147.360000
257.192932	147.760000
257.285828	147.900000
257.378723	147.380000
257.471619	146.840000
257.564545	146.520000
257.657440	146.040000
257.750336	146.560000
257.843262	146.380000
257.936157	147.080000
258.029053	147.520000
258.121979	147.740000
258.214874	147.000000
258.307800	146.960000
258.400696	146.080000
258.493622	145.840000
258.586517	145.140000
258.679443	145.360000
258.772339	145.280000
258.865265	145.080000
258.958160	144.720000
259.051086	145.280000
259.144012	145.340000
259.236938	146.280000
259.329834	146.600000
259.422791	146.480000
259.515717	146.260000
259.608612	145.980000
259.701538	145.940000
259.794464	145.600000
259.887390	145.900000
259.980316	145.820000
260.073212	145.720000
260.166138	144.680000
260.259064	145.360000
260.351990	145.920000
260.444916	145.880000
260.537842	146.420000
260.630768	147.580000
260.723694	147.520000
260.816620	147.100000
260.909546	147.200000
261.002472	146.480000
261.095398	145.640000
261.188354	145.280000
261.281281	145.020000
261.374207	145.040000
261.467133	146.160000
261.560089	146.560000
261.653015	146.680000
261.745972	147.360000
261.838867	147.800000
261.931824	147.600000
262.024780	147.060000
262.117706	147.100000
262.210663	146.900000
262.303589	146.740000
262.396515	146.860000
262.489471	148.120000
262.582397	147.900000
262.675354	147.400000
262.768280	147.260000
262.861237	146.900000
262.954163	146.360000
263.047119	146.620000
263.140045	146.740000
263.233002	146.660000
263.325958	146.500000
263.418884	145.760000
263.511841	145.540000
263.604797	145.600000
263.697723	145.480000
263.790680	145.140000
263.883636	145.920000
263.976593	145.900000
264.069550	145.760000
264.162476	145.680000
264.255463	146.240000
264.348419	145.880000
264.441376	146.160000
264.534332	145.940000
264.627289	146.260000
264.720245	146.360000
264.813202	146.060000
264.906158	146.260000
264.999115	146.880000
265.092072	146.700000
265.185028	146.960000
265.277985	147.200000
265.370941	146.940000
265.463898	146.560000
265.556854	146.360000
265.649811	145.380000
265.742798	145.300000
265.835754	145.320000
265.928711	145.760000
266.021667	145.880000
266.114655	146.540000
266.207611	147.160000
266.300568	146.620000
266.393585	146.060000
266.486511	146.500000
266.579498	145.340000
266.672485	144.880000
266.765442	145.200000
266.858429	145.680000
266.951385	144.980000
267.044342	145.700000
267.137329	145.720000
267.230316	145.920000
267.323273	145.500000
267.416260	146.360000
267.509216	146.620000
267.602203	146.500000
267.695160	146.760000
267.788147	146.920000
267.881134	146.260000
267.974091	146.480000
268.067078	146.420000
268.160065	146.260000
268.253052	146.160000
268.346008	146.440000
268.438995	146.000000
268.531982	145.980000
268.624969	145.640000
268.717987	146.120000
268.810944	145.780000
268.903961	145.760000
268.996948	145.780000
269.089905	146.200000
269.182892	146.240000
269.275879	146.520000
269.368866	146.220000
269.461853	146.580000
269.554871	146.300000
269.647858	146.140000
269.740845	146.560000
269.833832	147.160000
269.926819	146.700000
270.019806	146.440000
270.112793	145.440000
270.205811	145.300000
270.298798	145.080000
270.391785	145.580000
270.484772	145.500000
270.577789	146.220000
270.670776	145.760000
270.763763	145.680000
270.856750	145.860000
270.949768	145.900000
271.042786	146.040000
271.135773	146.220000
271.228790	146.680000
271.321808	145.860000
271.414795	145.920000
271.507782	145.520000
271.600800	144.980000
271.693817	144.980000
271.786804	145.600000
271.879822	145.620000
271.972809	145.960000
272.065826	146.700000
272.158844	145.980000
272.251831	146.260000
272.344849	146.320000
272.437866	145.880000
272.530853	146.040000
272.623871	146.480000
272.716888	145.520000
272.809906	145.940000
272.902893	146.080000
272.995911	145.380000
273.088928	145.440000
273.181946	145.860000
273.274963	145.420000
273.367981	145.520000
273.460999	145.840000
273.554047	146.040000
273.647003	146.720000
273.740051	146.840000
273.833069	147.120000
273.926086	147.480000
274.019135	147.140000
274.112152	146.800000
274.205170	146.780000
274.298187	146.920000
274.391205	146.320000
274.484222	146.400000
274.577240	146.280000
274.670258	146.420000
274.763306	146.380000
274.856323	146.800000
274.949341	146.880000
275.042358	147.320000
275.135406	147.000000
275.228424	146.620000
275.321442	146.580000
275.414490	146.180000
275.507507	146.040000
275.600525	146.640000
275.693573	146.640000
275.786591	146.260000
275.879669	146.660000
275.972656	146.280000
276.065735	145.920000
276.158752	146.580000
276.251801	147.520000
276.344818	147.500000
276.437866	147.580000
276.530884	147.320000
276.623932	146.280000
276.716980	146.200000
276.809998	146.540000
276.903046	146.700000
276.996094	147.720000
277.089111	148.700000
277.182159	148.980000
277.275208	148.340000
277.368256	148.020000
277.461304	147.740000
277.554321	146.820000
277.647369	146.320000
277.740417	146.360000
277.833466	146.400000
277.926514	145.960000
278.019562	146.700000
278.112610	146.460000
278.205688	146.840000
278.298706	146.800000
278.391785	146.500000
278.484833	145.940000
278.577881	145.640000
278.670929	145.800000
278.763977	145.900000
278.857025	146.440000
278.950073	146.640000
279.043121	146.600000
279.136169	146.120000
279.229248	145.820000
279.322296	145.480000
279.415344	145.240000
279.508392	145.180000
279.601440	145.280000
279.694519	145.460000
279.787567	145.480000
279.880615	145.480000
279.973694	145.500000
280.066742	145.580000
280.159790	145.560000
280.252869	145.020000
280.345917	145.280000
280.438995	145.320000
280.532074	145.320000
280.625122	145.660000
280.718201	146.920000
280.811279	147.100000
280.904327	147.280000
280.997406	147.400000
281.090454	147.480000
281.183533	146.960000
281.276581	146.880000
281.369659	146.360000
281.462738	146.580000
281.555786	146.400000
281.648865	146.140000
281.741943	146.280000
281.835022	147.340000
281.928070	146.780000
282.021149	146.640000
282.114227	146.720000
282.207306	146.440000
282.300385	146.420000
282.393433	146.620000
282.486511	146.780000
282.579590	147.100000
282.672668	147.400000
282.765747	146.660000
282.858856	146.380000
282.951904	146.440000
283.045013	146.460000
283.138062	146.360000
283.231171	146.860000
283.324249	147.140000
283.417328	147.120000
283.510406	146.840000
283.603485	146.720000
283.696564	146.760000
283.789642	147.160000
283.882751	146.840000
283.975830	147.500000
284.068909	147.200000
284.161987	147.660000
284.255066	146.940000
284.348175	147.360000
284.441254	146.940000
284.534332	147.920000
284.627441	147.380000
284.720520	147.240000
284.813599	146.920000
284.906708	146.940000
284.999786	145.900000
285.092896	145.260000
285.185974	146.400000
285.279053	146.080000
285.372192	146.120000
285.465240	146.760000
285.558380	147.320000
285.651459	146.580000
285.744568	147.600000
285.837677	147.060000
285.930756	147.040000
286.023865	147.040000
286.116943	146.940000
286.210052	146.760000
286.303162	147.100000
286.396240	146.920000
286.489349	146.760000
286.582458	147.000000
286.675568	146.720000
286.768646	146.740000
286.861755	147.220000
286.954865	147.700000
287.047974	147.220000
287.141083	147.140000
287.234161	146.760000
287.327271	146.380000
287.420380	146.500000
287.513519	146.600000
287.606598	146.540000
287.699738	147.100000
287.792816	146.960000
287.885956	146.660000
287.979034	146.900000
288.072174	146.980000
288.165283	146.620000
288.258392	147.000000
288.351501	146.360000
288.444611	146.780000
288.537720	147.040000
288.630859	147.060000
288.723969	147.120000
288.817078	147.660000
288.910187	147.060000
289.003296	146.520000
289.096436	146.260000
289.189545	145.860000
289.282654	145.660000
289.375763	146.060000
289.468903	146.620000
289.562012	147.160000
289.655121	147.140000
289.748260	147.280000
289.841400	147.600000
289.934509	147.300000
290.027649	147.360000
290.120728	147.120000
290.213898	146.900000
290.306976	146.360000
290.400146	146.520000
290.493256	145.880000
290.586395	146.280000
290.679535	146.840000
290.772644	146.960000
290.865784	145.980000
290.958893	146.200000
291.052032	145.820000
291.145172	145.040000
291.238281	144.540000
291.331421	145.080000
291.424561	145.440000
291.517670	145.540000
291.610809	146.240000
291.703949	146.300000
291.797089	146.580000
291.890228	146.260000
291.983337	146.400000
292.076477	145.760000
292.169617	146.160000
292.262756	146.080000
292.355927	146.000000
292.449036	145.920000
292.542206	146.360000
292.635315	146.400000
292.728485	146.640000
292.821625	146.600000
292.914764	147.580000
293.007904	147.600000
293.101044	147.320000
293.194183	147.240000
293.287323	147.340000
293.380463	146.460000
293.473602	145.960000
293.566742	146.320000
293.659882	146.900000
293.753021	147.240000
293.846191	147.060000
293.939331	147.020000
294.032471	146.580000
294.125610	145.820000
294.218781	146.040000
294.311920	146.460000
294.405060	146.600000
294.498230	146.720000
294.591370	146.660000
294.684540	145.720000
294.777679	145.560000
294.870850	146.020000
294.963959	145.980000
295.057159	145.980000
295.150299	146.820000
295.243469	146.720000
295.336609	146.180000
295.429779	146.480000
295.522919	147.020000
295.616089	146.920000
295.709229	147.360000
295.802399	147.640000
295.895569	147.220000
295.988708	146.860000
296.081879	146.600000
296.175018	145.820000
296.268188	145.780000
296.361359	146.060000
296.454529	145.860000
296.547668	145.540000
296.640839	146.020000
296.734009	145.860000
296.827179	145.880000
296.920319	146.300000
297.013519	146.400000
297.106659	146.420000
297.199860	146.540000
297.292999	146.400000
297.386200	146.360000
297.479309	146.280000
297.572510	146.320000
297.665680	145.960000
297.758850	146.100000
297.852020	145.900000
297.945190	145.820000
298.038361	145.260000
298.131531	146.280000
298.224701	146.240000
298.317871	145.940000
298.411072	145.500000
298.504242	145.420000
298.597412	145.160000
298.690582	145.200000
298.783752	145.380000
298.876923	146.180000
298.970093	146.380000
299.063293	146.500000
299.156464	146.900000
299.249634	147.020000
299.342834	147.240000
299.436005	147.920000
299.529205	147.800000
299.622345	147.640000
299.715576	147.000000
299.808716	146.660000
299.901917	146.460000
299.995117	146.580000
300.088287	146.640000
300.181488	147.020000
300.274658	147.060000
300.367828	146.740000
300.461029	146.520000
300.554199	146.580000
300.647400	146.640000
300.740601	147.000000
300.833771	146.940000
300.926971	147.140000
301.020142	146.620000
301.113342	146.600000
301.206512	146.380000
301.299713	146.580000
301.392914	146.280000
301.486084	146.720000
301.579285	146.540000
301.672516	147.000000
301.765686	146.860000
301.858887	147.020000
301.952057	146.720000
302.045288	146.940000
302.138458	146.560000
302.231659	146.360000
302.324860	146.020000
302.418060	145.800000
302.511261	145.840000
302.604462	146.100000
302.697662	146.160000
302.790863	146.260000
302.884064	146.320000
302.977264	146.320000
303.070465	146.660000
303.163666	147.000000
303.256866	147.420000
303.350067	147.700000
303.443268	147.480000
303.536469	147.140000
303.629669	146.760000
303.722870	146.840000
303.816071	146.660000
303.909271	146.880000
304.002472	146.000000
304.095673	146.020000
304.188934	145.200000
304.282104	146.220000
304.375336	146.040000
304.468506	146.400000
304.561768	146.180000
304.654968	146.840000
304.748169	145.960000
304.841370	146.020000
304.934601	146.440000
305.027802	146.600000
305.121002	146.300000
305.214233	146.480000
305.307434	146.400000
305.400665	146.820000
305.493866	146.680000
