Model Number: SPM-002-B   
Serial Number: 70087108
Firmware Version: 004.15.4
Exposure Time: 100000.000000us
Data Taken on: 11-12-2020 19:31:18.561
Wavelength	Amplitude
221.570786	0.000000
221.663406	0.000000
221.756027	0.000000
221.848648	0.000000
221.941269	0.000000
222.033905	0.000000
222.126526	0.000000
222.219162	0.000000
222.311798	0.000000
222.404419	0.000000
222.497055	0.000000
222.589676	0.000000
222.682312	0.000000
222.774933	0.000000
222.867569	0.000000
222.960205	0.000000
223.052841	0.000000
223.145462	0.000000
223.238098	0.000000
223.330734	0.000000
223.423386	0.000000
223.516022	0.000000
223.608658	0.000000
223.701309	0.000000
223.793945	0.000000
223.886581	0.000000
223.979218	0.000000
224.071869	0.000000
224.164505	0.000000
224.257156	0.000000
224.349792	0.000000
224.442444	0.000000
224.535095	0.000000
224.627747	0.000000
224.720398	0.000000
224.813034	0.000000
224.905685	0.000000
224.998337	145.860000
225.090988	145.400000
225.183640	145.700000
225.276291	145.340000
225.368942	145.680000
225.461594	145.920000
225.554245	146.360000
225.646912	146.060000
225.739578	147.120000
225.832230	147.200000
225.924896	146.640000
226.017548	146.960000
226.110199	147.260000
226.202866	146.300000
226.295532	146.240000
226.388184	146.340000
226.480850	145.920000
226.573517	145.680000
226.666168	146.100000
226.758835	146.400000
226.851501	146.920000
226.944183	146.720000
227.036850	146.400000
227.129517	146.240000
227.222183	146.280000
227.314850	146.080000
227.407516	146.600000
227.500198	147.440000
227.592865	147.140000
227.685532	146.540000
227.778214	146.220000
227.870880	146.440000
227.963562	146.600000
228.056229	147.260000
228.148926	147.300000
228.241592	148.280000
228.334274	147.900000
228.426956	147.320000
228.519638	147.120000
228.612305	147.000000
228.704987	146.400000
228.797668	146.380000
228.890350	146.340000
228.983032	145.600000
229.075714	146.320000
229.168396	146.220000
229.261108	146.100000
229.353790	146.200000
229.446472	146.780000
229.539169	146.040000
229.631851	145.680000
229.724533	145.640000
229.817230	145.780000
229.909912	146.820000
230.002609	147.000000
230.095306	147.040000
230.187988	147.320000
230.280685	147.260000
230.373383	145.740000
230.466095	145.960000
230.558792	146.380000
230.651474	146.420000
230.744171	146.220000
230.836868	146.320000
230.929581	146.620000
231.022278	146.620000
231.114975	146.400000
231.207672	146.540000
231.300369	147.200000
231.393082	146.900000
231.485779	146.500000
231.578506	146.400000
231.671204	146.500000
231.763916	146.340000
231.856613	146.500000
231.949326	146.740000
232.042023	146.800000
232.134735	146.640000
232.227448	146.340000
232.320160	146.180000
232.412872	145.980000
232.505585	146.940000
232.598297	147.320000
232.691010	147.300000
232.783722	146.960000
232.876450	147.880000
232.969162	146.960000
233.061874	146.560000
233.154587	146.400000
233.247314	146.860000
233.340027	146.140000
233.432739	146.520000
233.525467	146.320000
233.618179	146.600000
233.710907	146.140000
233.803635	146.420000
233.896347	146.000000
233.989090	146.640000
234.081818	146.580000
234.174545	146.920000
234.267258	146.440000
234.359985	146.760000
234.452713	146.560000
234.545441	146.460000
234.638168	146.380000
234.730896	146.880000
234.823639	146.600000
234.916367	146.920000
235.009094	147.040000
235.101822	146.940000
235.194580	146.780000
235.287308	146.720000
235.380051	146.040000
235.472778	146.340000
235.565521	146.800000
235.658249	146.380000
235.750992	146.820000
235.843719	146.780000
235.936462	146.560000
236.029205	146.080000
236.121948	145.900000
236.214691	146.040000
236.307449	146.900000
236.400192	146.800000
236.492935	146.700000
236.585678	147.140000
236.678421	146.900000
236.771164	146.460000
236.863907	146.840000
236.956665	147.060000
237.049408	148.420000
237.142151	148.060000
237.234909	148.560000
237.327652	148.180000
237.420410	148.120000
237.513153	146.800000
237.605927	146.800000
237.698669	146.240000
237.791428	146.100000
237.884186	146.440000
237.976944	146.100000
238.069702	146.540000
238.162445	146.200000
238.255203	146.020000
238.347961	146.200000
238.440720	146.280000
238.533478	146.100000
238.626266	145.780000
238.719025	146.160000
238.811783	145.900000
238.904541	145.880000
238.997314	145.460000
239.090073	145.680000
239.182831	145.640000
239.275604	146.260000
239.368362	146.400000
239.461136	146.720000
239.553909	146.700000
239.646667	146.900000
239.739441	146.120000
239.832214	146.040000
239.925003	146.040000
240.017761	146.800000
240.110535	147.080000
240.203308	146.880000
240.296082	147.320000
240.388855	147.200000
240.481628	146.760000
240.574417	146.840000
240.667191	147.080000
240.759964	146.560000
240.852737	146.420000
240.945526	146.100000
241.038315	145.620000
241.131088	145.440000
241.223877	145.920000
241.316650	145.940000
241.409439	146.380000
241.502228	146.100000
241.595001	146.800000
241.687790	146.560000
241.780579	146.560000
241.873367	146.640000
241.966141	146.980000
242.058929	146.000000
242.151718	146.060000
242.244507	146.280000
242.337311	145.680000
242.430099	146.000000
242.522903	146.360000
242.615692	146.340000
242.708481	146.700000
242.801270	147.120000
242.894073	147.000000
242.986862	147.280000
243.079651	147.680000
243.172455	146.900000
243.265244	147.260000
243.358063	146.640000
243.450867	146.760000
243.543655	146.640000
243.636459	147.400000
243.729263	147.260000
243.822067	147.760000
243.914856	147.920000
244.007660	147.900000
244.100464	147.520000
244.193268	147.100000
244.286072	146.900000
244.378876	146.160000
244.471680	145.620000
244.564499	145.920000
244.657318	146.660000
244.750122	146.800000
244.842926	146.540000
244.935745	147.120000
245.028549	146.540000
245.121368	146.000000
245.214172	146.020000
245.306992	146.760000
245.399796	146.220000
245.492615	146.580000
245.585434	146.340000
245.678253	146.220000
245.771072	146.060000
245.863892	146.640000
245.956711	146.880000
246.049530	147.100000
246.142349	147.080000
246.235168	147.100000
246.327988	147.440000
246.420807	146.960000
246.513626	146.960000
246.606445	146.860000
246.699280	146.840000
246.792099	146.380000
246.884918	146.280000
246.977753	146.000000
247.070587	146.040000
247.163422	146.180000
247.256241	146.160000
247.349075	146.640000
247.441895	146.920000
247.534729	146.920000
247.627563	146.480000
247.720383	146.840000
247.813217	146.440000
247.906052	146.220000
247.998886	146.120000
248.091736	146.340000
248.184570	146.000000
248.277405	146.220000
248.370239	147.100000
248.463074	147.960000
248.555908	148.280000
248.648743	148.200000
248.741592	148.360000
248.834427	147.780000
248.927261	146.700000
249.020111	146.720000
249.112946	147.320000
249.205795	146.880000
249.298630	146.780000
249.391495	147.060000
249.484344	146.720000
249.577179	146.200000
249.670029	146.620000
249.762878	147.080000
249.855728	147.140000
249.948563	147.340000
250.041412	147.060000
250.134262	147.260000
250.227112	147.200000
250.319962	147.380000
250.412827	147.280000
250.505692	147.160000
250.598541	146.860000
250.691391	146.660000
250.784241	146.540000
250.877106	146.620000
250.969955	146.720000
251.062805	147.340000
251.155670	147.680000
251.248520	147.700000
251.341385	147.880000
251.434235	147.740000
251.527100	146.980000
251.619965	146.620000
251.712814	147.320000
251.805695	147.360000
251.898560	147.840000
251.991425	148.440000
252.084290	148.320000
252.177155	147.280000
252.270020	147.060000
252.362885	146.640000
252.455750	146.500000
252.548615	146.340000
252.641479	146.760000
252.734360	146.580000
252.827240	146.600000
252.920105	146.440000
253.012970	146.480000
253.105850	146.160000
253.198715	145.900000
253.291595	146.100000
253.384460	145.580000
253.477341	145.460000
253.570221	145.860000
253.663086	145.800000
253.755966	146.300000
253.848846	146.580000
253.941727	146.880000
254.034592	146.660000
254.127472	146.400000
254.220367	146.080000
254.313248	146.180000
254.406128	146.080000
254.499008	146.040000
254.591904	146.880000
254.684784	147.540000
254.777664	147.320000
254.870544	147.000000
254.963440	147.060000
255.056335	147.020000
255.149216	146.140000
255.242111	146.700000
255.334991	147.280000
255.427887	147.520000
255.520767	147.660000
255.613663	147.820000
255.706558	147.420000
255.799438	147.280000
255.892334	146.780000
255.985229	146.460000
256.078125	146.440000
256.171021	146.380000
256.263916	146.680000
256.356812	147.000000
256.449707	147.220000
256.542603	147.040000
256.635498	147.720000
256.728394	147.280000
256.821289	147.020000
256.914215	147.200000
257.007080	147.620000
257.100006	147.200000
257.192932	147.860000
257.285828	147.960000
257.378723	147.440000
257.471619	147.160000
257.564545	147.020000
257.657440	146.960000
257.750336	147.500000
257.843262	147.380000
257.936157	148.320000
258.029053	148.560000
258.121979	148.160000
258.214874	147.820000
258.307800	147.700000
258.400696	146.560000
258.493622	146.160000
258.586517	145.520000
258.679443	145.660000
258.772339	145.560000
258.865265	145.260000
258.958160	145.280000
259.051086	146.140000
259.144012	145.900000
259.236938	146.720000
259.329834	147.360000
259.422791	147.200000
259.515717	146.680000
259.608612	146.700000
259.701538	146.440000
259.794464	146.440000
259.887390	146.380000
259.980316	146.320000
260.073212	146.020000
260.166138	144.980000
260.259064	144.920000
260.351990	145.520000
260.444916	145.560000
260.537842	146.040000
260.630768	146.960000
260.723694	146.900000
260.816620	146.560000
260.909546	146.680000
261.002472	146.360000
261.095398	146.080000
261.188354	146.220000
261.281281	146.180000
261.374207	146.080000
261.467133	146.780000
261.560089	146.800000
261.653015	146.440000
261.745972	147.060000
261.838867	147.380000
261.931824	147.400000
262.024780	147.040000
262.117706	147.080000
262.210663	146.960000
262.303589	146.660000
262.396515	146.260000
262.489471	147.500000
262.582397	147.480000
262.675354	146.820000
262.768280	146.920000
262.861237	147.100000
262.954163	146.440000
263.047119	146.520000
263.140045	146.680000
263.233002	146.680000
263.325958	146.740000
263.418884	146.520000
263.511841	146.600000
263.604797	146.680000
263.697723	146.760000
263.790680	146.120000
263.883636	146.580000
263.976593	146.560000
264.069550	146.740000
264.162476	146.420000
264.255463	146.700000
264.348419	146.420000
264.441376	146.740000
264.534332	146.200000
264.627289	146.300000
264.720245	146.860000
264.813202	146.520000
264.906158	146.440000
264.999115	147.120000
265.092072	147.280000
265.185028	147.540000
265.277985	147.920000
265.370941	147.760000
265.463898	147.560000
265.556854	147.400000
265.649811	146.180000
265.742798	146.440000
265.835754	146.620000
265.928711	146.840000
266.021667	146.880000
266.114655	147.300000
266.207611	147.180000
266.300568	146.460000
266.393585	146.040000
266.486511	146.320000
266.579498	145.600000
266.672485	145.640000
266.765442	146.120000
266.858429	146.600000
266.951385	146.120000
267.044342	146.840000
267.137329	146.600000
267.230316	146.740000
267.323273	146.000000
267.416260	146.820000
267.509216	146.840000
267.602203	146.720000
267.695160	147.040000
267.788147	147.220000
267.881134	146.540000
267.974091	146.520000
268.067078	146.460000
268.160065	146.180000
268.253052	146.220000
268.346008	146.640000
268.438995	146.640000
268.531982	146.720000
268.624969	146.600000
268.717987	147.020000
268.810944	146.980000
268.903961	147.180000
268.996948	146.880000
269.089905	147.120000
269.182892	146.980000
269.275879	146.900000
269.368866	146.240000
269.461853	146.920000
269.554871	146.620000
269.647858	146.420000
269.740845	146.800000
269.833832	147.520000
269.926819	147.420000
270.019806	147.520000
270.112793	147.340000
270.205811	147.380000
270.298798	146.820000
270.391785	147.080000
270.484772	146.860000
270.577789	147.260000
270.670776	146.540000
270.763763	146.720000
270.856750	146.460000
270.949768	146.300000
271.042786	146.060000
271.135773	146.440000
271.228790	146.620000
271.321808	146.280000
271.414795	146.080000
271.507782	145.820000
271.600800	145.240000
271.693817	145.580000
271.786804	146.020000
271.879822	146.420000
271.972809	146.480000
272.065826	147.160000
272.158844	146.060000
272.251831	146.520000
272.344849	146.560000
272.437866	146.360000
272.530853	146.160000
272.623871	146.780000
272.716888	145.820000
272.809906	146.100000
272.902893	146.400000
272.995911	145.920000
273.088928	145.880000
273.181946	146.120000
273.274963	145.520000
273.367981	145.320000
273.460999	145.620000
273.554047	145.720000
273.647003	146.060000
273.740051	146.300000
273.833069	146.760000
273.926086	146.780000
274.019135	146.720000
274.112152	146.420000
274.205170	146.660000
274.298187	146.660000
274.391205	146.340000
274.484222	146.480000
274.577240	146.480000
274.670258	146.220000
274.763306	146.280000
274.856323	146.820000
274.949341	146.760000
275.042358	147.240000
275.135406	147.040000
275.228424	147.060000
275.321442	146.880000
275.414490	146.340000
275.507507	146.340000
275.600525	146.980000
275.693573	146.600000
275.786591	146.280000
275.879669	146.800000
275.972656	146.520000
276.065735	145.920000
276.158752	146.700000
276.251801	147.660000
276.344818	147.480000
276.437866	147.480000
276.530884	147.500000
276.623932	146.440000
276.716980	146.240000
276.809998	146.460000
276.903046	146.520000
276.996094	147.540000
277.089111	148.500000
277.182159	148.860000
277.275208	148.460000
277.368256	148.120000
277.461304	147.420000
277.554321	146.500000
277.647369	145.940000
277.740417	146.180000
277.833466	146.240000
277.926514	146.240000
278.019562	147.180000
278.112610	146.900000
278.205688	147.100000
278.298706	147.220000
278.391785	146.940000
278.484833	146.200000
278.577881	145.960000
278.670929	146.380000
278.763977	146.340000
278.857025	146.680000
278.950073	146.740000
279.043121	146.640000
279.136169	146.120000
279.229248	146.100000
279.322296	146.280000
279.415344	146.180000
279.508392	146.160000
279.601440	146.080000
279.694519	145.800000
279.787567	145.480000
279.880615	145.440000
279.973694	145.720000
280.066742	145.940000
280.159790	146.340000
280.252869	146.180000
280.345917	146.500000
280.438995	146.580000
280.532074	146.340000
280.625122	146.300000
280.718201	147.200000
280.811279	146.960000
280.904327	146.780000
280.997406	146.900000
281.090454	146.940000
281.183533	146.080000
281.276581	146.280000
281.369659	146.000000
281.462738	146.160000
281.555786	146.420000
281.648865	146.580000
281.741943	146.260000
281.835022	147.120000
281.928070	146.660000
282.021149	146.440000
282.114227	146.340000
282.207306	146.400000
282.300385	146.360000
282.393433	146.760000
282.486511	146.500000
282.579590	146.900000
282.672668	147.400000
282.765747	147.020000
282.858856	146.620000
282.951904	146.840000
283.045013	146.800000
283.138062	146.900000
283.231171	147.200000
283.324249	147.740000
283.417328	147.860000
283.510406	147.540000
283.603485	147.340000
283.696564	147.240000
283.789642	147.300000
283.882751	147.200000
283.975830	147.580000
284.068909	147.100000
284.161987	147.520000
284.255066	146.540000
284.348175	146.660000
284.441254	146.660000
284.534332	147.360000
284.627441	146.820000
284.720520	147.200000
284.813599	147.040000
284.906708	147.000000
284.999786	146.160000
285.092896	146.080000
285.185974	147.240000
285.279053	146.820000
285.372192	146.680000
285.465240	147.360000
285.558380	146.940000
285.651459	145.900000
285.744568	146.920000
285.837677	146.640000
285.930756	146.620000
286.023865	146.920000
286.116943	147.000000
286.210052	146.940000
286.303162	147.440000
286.396240	147.340000
286.489349	147.180000
286.582458	147.360000
286.675568	146.780000
286.768646	146.580000
286.861755	146.820000
286.954865	147.480000
287.047974	146.920000
287.141083	146.760000
287.234161	146.560000
287.327271	146.340000
287.420380	146.520000
287.513519	146.560000
287.606598	146.740000
287.699738	147.040000
287.792816	147.020000
287.885956	146.840000
287.979034	146.920000
288.072174	147.140000
288.165283	146.820000
288.258392	146.860000
288.351501	146.340000
288.444611	146.880000
288.537720	146.800000
288.630859	146.740000
288.723969	146.700000
288.817078	146.820000
288.910187	146.420000
289.003296	146.160000
289.096436	145.760000
289.189545	145.520000
289.282654	145.040000
289.375763	145.440000
289.468903	145.700000
289.562012	146.100000
289.655121	146.060000
289.748260	146.460000
289.841400	146.640000
289.934509	146.620000
290.027649	146.720000
290.120728	146.560000
290.213898	146.600000
290.306976	146.040000
290.400146	145.880000
290.493256	145.540000
290.586395	145.880000
290.679535	146.520000
290.772644	146.460000
290.865784	145.860000
290.958893	146.000000
291.052032	145.940000
291.145172	145.520000
291.238281	145.520000
291.331421	145.840000
291.424561	146.240000
291.517670	145.980000
291.610809	146.160000
291.703949	146.040000
291.797089	146.160000
291.890228	145.600000
291.983337	145.620000
292.076477	145.160000
292.169617	145.580000
292.262756	145.620000
292.355927	145.760000
292.449036	145.960000
292.542206	146.120000
292.635315	146.120000
292.728485	146.260000
292.821625	146.100000
292.914764	147.120000
293.007904	147.300000
293.101044	147.220000
293.194183	147.040000
293.287323	147.040000
293.380463	146.300000
293.473602	146.220000
293.566742	146.400000
293.659882	146.880000
293.753021	147.340000
293.846191	147.120000
293.939331	146.580000
294.032471	146.520000
294.125610	146.260000
294.218781	146.360000
294.311920	146.600000
294.405060	147.200000
294.498230	146.940000
294.591370	146.840000
294.684540	146.100000
294.777679	145.720000
294.870850	145.760000
294.963959	145.560000
295.057159	145.400000
295.150299	146.020000
295.243469	146.020000
295.336609	145.720000
295.429779	146.340000
295.522919	146.800000
295.616089	146.640000
295.709229	147.260000
295.802399	147.220000
295.895569	146.880000
295.988708	146.660000
296.081879	146.900000
296.175018	146.440000
296.268188	146.760000
296.361359	147.000000
296.454529	147.100000
296.547668	146.900000
296.640839	147.100000
296.734009	146.580000
296.827179	146.560000
296.920319	146.700000
297.013519	146.460000
297.106659	146.520000
297.199860	146.960000
297.292999	146.720000
297.386200	146.760000
297.479309	146.960000
297.572510	146.940000
297.665680	146.460000
297.758850	146.760000
297.852020	146.480000
297.945190	146.280000
298.038361	145.880000
298.131531	147.140000
298.224701	146.920000
298.317871	146.460000
298.411072	146.240000
298.504242	146.260000
298.597412	145.340000
298.690582	145.260000
298.783752	145.540000
298.876923	145.920000
298.970093	145.880000
299.063293	146.320000
299.156464	146.900000
299.249634	147.040000
299.342834	147.020000
299.436005	147.600000
299.529205	147.160000
299.622345	147.000000
299.715576	146.660000
299.808716	146.660000
299.901917	146.440000
299.995117	146.740000
300.088287	146.640000
300.181488	146.700000
300.274658	146.620000
300.367828	146.480000
300.461029	146.100000
300.554199	146.360000
300.647400	146.380000
300.740601	147.180000
300.833771	147.060000
300.926971	147.320000
301.020142	146.720000
301.113342	146.540000
301.206512	145.940000
301.299713	146.460000
301.392914	146.260000
301.486084	146.640000
301.579285	146.940000
301.672516	147.360000
301.765686	146.880000
301.858887	146.980000
301.952057	146.720000
302.045288	146.760000
302.138458	146.560000
302.231659	146.420000
302.324860	146.260000
302.418060	146.100000
302.511261	145.940000
302.604462	146.120000
302.697662	146.120000
302.790863	146.360000
302.884064	145.920000
302.977264	146.000000
303.070465	146.060000
303.163666	146.560000
303.256866	146.760000
303.350067	147.440000
303.443268	147.440000
303.536469	147.300000
303.629669	147.100000
303.722870	147.000000
303.816071	146.700000
303.909271	146.860000
304.002472	146.280000
304.095673	146.080000
304.188934	145.280000
304.282104	145.900000
304.375336	145.880000
304.468506	146.020000
304.561768	145.860000
304.654968	146.780000
304.748169	146.280000
304.841370	146.080000
304.934601	146.700000
305.027802	146.600000
305.121002	145.960000
305.214233	146.100000
305.307434	146.000000
305.400665	145.860000
305.493866	145.960000
