Model Number: SPM-002-B   
Serial Number: 70087108
Firmware Version: 004.15.4
Exposure Time: 100000.000000us
Data Taken on: 11-12-2020 19:31:35.701
Wavelength	Amplitude
221.570786	0.000000
221.663406	0.000000
221.756027	0.000000
221.848648	0.000000
221.941269	0.000000
222.033905	0.000000
222.126526	0.000000
222.219162	0.000000
222.311798	0.000000
222.404419	0.000000
222.497055	0.000000
222.589676	0.000000
222.682312	0.000000
222.774933	0.000000
222.867569	0.000000
222.960205	0.000000
223.052841	0.000000
223.145462	0.000000
223.238098	0.000000
223.330734	0.000000
223.423386	0.000000
223.516022	0.000000
223.608658	0.000000
223.701309	0.000000
223.793945	0.000000
223.886581	0.000000
223.979218	0.000000
224.071869	0.000000
224.164505	0.000000
224.257156	0.000000
224.349792	0.000000
224.442444	0.000000
224.535095	0.000000
224.627747	0.000000
224.720398	0.000000
224.813034	0.000000
224.905685	0.000000
224.998337	145.320000
225.090988	145.220000
225.183640	145.560000
225.276291	145.240000
225.368942	145.660000
225.461594	145.920000
225.554245	146.320000
225.646912	146.160000
225.739578	146.880000
225.832230	147.000000
225.924896	146.480000
226.017548	146.460000
226.110199	147.180000
226.202866	146.440000
226.295532	146.020000
226.388184	145.940000
226.480850	145.480000
226.573517	144.720000
226.666168	145.120000
226.758835	145.840000
226.851501	146.780000
226.944183	147.180000
227.036850	146.800000
227.129517	146.880000
227.222183	146.840000
227.314850	146.580000
227.407516	146.680000
227.500198	147.680000
227.592865	147.120000
227.685532	146.540000
227.778214	146.040000
227.870880	146.100000
227.963562	146.400000
228.056229	146.900000
228.148926	146.960000
228.241592	147.920000
228.334274	147.640000
228.426956	147.100000
228.519638	147.180000
228.612305	146.820000
228.704987	146.300000
228.797668	146.380000
228.890350	145.940000
228.983032	145.140000
229.075714	146.000000
229.168396	145.980000
229.261108	145.400000
229.353790	145.540000
229.446472	146.040000
229.539169	145.400000
229.631851	145.040000
229.724533	145.740000
229.817230	146.060000
229.909912	147.080000
230.002609	147.540000
230.095306	147.620000
230.187988	147.360000
230.280685	147.040000
230.373383	145.740000
230.466095	145.480000
230.558792	145.680000
230.651474	145.720000
230.744171	145.800000
230.836868	146.180000
230.929581	146.360000
231.022278	146.320000
231.114975	146.300000
231.207672	146.080000
231.300369	146.080000
231.393082	145.900000
231.485779	145.920000
231.578506	145.880000
231.671204	146.300000
231.763916	146.200000
231.856613	146.120000
231.949326	146.200000
232.042023	146.260000
232.134735	146.020000
232.227448	145.760000
232.320160	146.280000
232.412872	146.260000
232.505585	147.080000
232.598297	147.400000
232.691010	147.420000
232.783722	146.800000
232.876450	147.180000
232.969162	146.160000
233.061874	145.760000
233.154587	145.580000
233.247314	145.980000
233.340027	145.400000
233.432739	146.080000
233.525467	146.040000
233.618179	146.600000
233.710907	146.240000
233.803635	146.680000
233.896347	146.020000
233.989090	146.640000
234.081818	146.260000
234.174545	146.620000
234.267258	146.100000
234.359985	146.400000
234.452713	146.240000
234.545441	146.220000
234.638168	145.920000
234.730896	146.500000
234.823639	146.500000
234.916367	146.460000
235.009094	146.740000
235.101822	146.920000
235.194580	146.520000
235.287308	146.440000
235.380051	145.880000
235.472778	146.000000
235.565521	146.100000
235.658249	145.980000
235.750992	145.980000
235.843719	146.440000
235.936462	146.740000
236.029205	146.180000
236.121948	146.180000
236.214691	146.480000
236.307449	146.920000
236.400192	146.360000
236.492935	146.200000
236.585678	146.380000
236.678421	146.340000
236.771164	145.640000
236.863907	146.140000
236.956665	146.640000
237.049408	148.120000
237.142151	147.620000
237.234909	148.480000
237.327652	147.900000
237.420410	147.720000
237.513153	146.480000
237.605927	146.600000
237.698669	145.940000
237.791428	145.720000
237.884186	146.080000
237.976944	145.440000
238.069702	145.560000
238.162445	145.480000
238.255203	145.920000
238.347961	146.420000
238.440720	146.860000
238.533478	146.760000
238.626266	146.280000
238.719025	146.420000
238.811783	145.860000
238.904541	145.700000
238.997314	145.780000
239.090073	145.840000
239.182831	146.020000
239.275604	146.600000
239.368362	146.380000
239.461136	146.060000
239.553909	146.020000
239.646667	145.480000
239.739441	145.040000
239.832214	145.220000
239.925003	145.620000
240.017761	146.400000
240.110535	147.160000
240.203308	146.520000
240.296082	146.800000
240.388855	146.740000
240.481628	146.600000
240.574417	146.260000
240.667191	146.540000
240.759964	146.260000
240.852737	146.080000
240.945526	145.660000
241.038315	145.660000
241.131088	145.840000
241.223877	146.300000
241.316650	146.040000
241.409439	146.400000
241.502228	146.060000
241.595001	146.660000
241.687790	146.260000
241.780579	146.540000
241.873367	146.620000
241.966141	147.020000
242.058929	146.080000
242.151718	146.260000
242.244507	146.420000
242.337311	145.620000
242.430099	145.860000
242.522903	146.300000
242.615692	145.740000
242.708481	145.920000
242.801270	146.760000
242.894073	146.360000
242.986862	146.360000
243.079651	147.260000
243.172455	146.760000
243.265244	146.780000
243.358063	146.300000
243.450867	146.540000
243.543655	146.000000
243.636459	146.060000
243.729263	146.120000
243.822067	146.760000
243.914856	147.000000
244.007660	147.180000
244.100464	147.360000
244.193268	146.640000
244.286072	146.300000
244.378876	145.680000
244.471680	145.520000
244.564499	145.980000
244.657318	146.900000
244.750122	147.160000
244.842926	146.720000
244.935745	146.820000
245.028549	146.080000
245.121368	145.960000
245.214172	146.300000
245.306992	146.920000
245.399796	146.500000
245.492615	147.000000
245.585434	146.540000
245.678253	145.960000
245.771072	145.840000
245.863892	146.460000
245.956711	146.320000
246.049530	146.240000
246.142349	146.140000
246.235168	146.160000
246.327988	146.280000
246.420807	146.140000
246.513626	146.380000
246.606445	146.260000
246.699280	146.320000
246.792099	146.160000
246.884918	145.860000
246.977753	145.620000
247.070587	145.960000
247.163422	145.680000
247.256241	145.440000
247.349075	145.900000
247.441895	146.020000
247.534729	145.960000
247.627563	146.180000
247.720383	146.980000
247.813217	147.020000
247.906052	146.820000
247.998886	146.760000
248.091736	146.620000
248.184570	146.120000
248.277405	146.320000
248.370239	147.340000
248.463074	148.440000
248.555908	148.620000
248.648743	148.240000
248.741592	147.920000
248.834427	147.220000
248.927261	145.720000
249.020111	146.260000
249.112946	147.060000
249.205795	146.780000
249.298630	146.760000
249.391495	147.300000
249.484344	146.480000
249.577179	145.980000
249.670029	146.360000
249.762878	146.680000
249.855728	146.680000
249.948563	146.620000
250.041412	146.300000
250.134262	146.400000
250.227112	146.340000
250.319962	146.300000
250.412827	146.780000
250.505692	146.480000
250.598541	146.320000
250.691391	145.940000
250.784241	145.740000
250.877106	145.660000
250.969955	145.980000
251.062805	146.560000
251.155670	147.240000
251.248520	147.200000
251.341385	147.420000
251.434235	147.000000
251.527100	146.360000
251.619965	145.860000
251.712814	146.940000
251.805695	146.640000
251.898560	147.400000
251.991425	147.760000
252.084290	147.840000
252.177155	146.800000
252.270020	146.420000
252.362885	146.100000
252.455750	145.820000
252.548615	145.300000
252.641479	145.180000
252.734360	145.360000
252.827240	145.240000
252.920105	145.720000
253.012970	145.660000
253.105850	145.700000
253.198715	145.360000
253.291595	145.580000
253.384460	144.660000
253.477341	144.820000
253.570221	145.200000
253.663086	145.340000
253.755966	145.760000
253.848846	146.040000
253.941727	146.520000
254.034592	146.300000
254.127472	146.040000
254.220367	145.840000
254.313248	146.100000
254.406128	145.820000
254.499008	146.020000
254.591904	147.100000
254.684784	147.540000
254.777664	147.460000
254.870544	147.140000
254.963440	147.140000
255.056335	146.920000
255.149216	146.200000
255.242111	146.620000
255.334991	146.960000
255.427887	147.180000
255.520767	147.020000
255.613663	147.460000
255.706558	146.700000
255.799438	146.300000
255.892334	145.660000
255.985229	145.680000
256.078125	145.160000
256.171021	145.300000
256.263916	145.880000
256.356812	146.240000
256.449707	146.320000
256.542603	146.520000
256.635498	147.000000
256.728394	146.780000
256.821289	146.620000
256.914215	146.700000
257.007080	147.080000
257.100006	147.040000
257.192932	147.380000
257.285828	147.800000
257.378723	147.380000
257.471619	146.760000
257.564545	146.280000
257.657440	146.220000
257.750336	146.100000
257.843262	146.100000
257.936157	147.140000
258.029053	147.620000
258.121979	147.400000
258.214874	147.240000
258.307800	147.120000
258.400696	146.040000
258.493622	145.680000
258.586517	145.220000
258.679443	145.420000
258.772339	145.280000
258.865265	145.380000
258.958160	145.100000
259.051086	145.860000
259.144012	145.760000
259.236938	146.500000
259.329834	146.560000
259.422791	146.620000
259.515717	146.000000
259.608612	145.700000
259.701538	145.640000
259.794464	145.600000
259.887390	145.680000
259.980316	145.800000
260.073212	145.660000
260.166138	144.820000
260.259064	145.200000
260.351990	145.880000
260.444916	145.740000
260.537842	146.100000
260.630768	146.840000
260.723694	146.580000
260.816620	146.380000
260.909546	146.580000
261.002472	146.180000
261.095398	145.500000
261.188354	145.420000
261.281281	144.760000
261.374207	144.880000
261.467133	145.860000
261.560089	146.380000
261.653015	146.360000
261.745972	147.040000
261.838867	147.360000
261.931824	147.120000
262.024780	146.540000
262.117706	146.860000
262.210663	147.140000
262.303589	146.740000
262.396515	146.500000
262.489471	147.520000
262.582397	147.340000
262.675354	146.800000
262.768280	147.140000
262.861237	147.340000
262.954163	146.980000
263.047119	147.400000
263.140045	147.140000
263.233002	146.920000
263.325958	146.660000
263.418884	146.080000
263.511841	145.780000
263.604797	145.980000
263.697723	145.900000
263.790680	145.960000
263.883636	146.560000
263.976593	146.120000
264.069550	146.360000
264.162476	145.960000
264.255463	145.960000
264.348419	145.780000
264.441376	146.320000
264.534332	145.520000
264.627289	146.060000
264.720245	146.420000
264.813202	146.280000
264.906158	146.380000
264.999115	147.340000
265.092072	147.080000
265.185028	147.220000
265.277985	147.200000
265.370941	146.900000
265.463898	146.640000
265.556854	146.540000
265.649811	145.680000
265.742798	146.000000
265.835754	146.220000
265.928711	146.460000
266.021667	146.540000
266.114655	146.880000
266.207611	146.640000
266.300568	146.040000
266.393585	145.500000
266.486511	146.000000
266.579498	145.540000
266.672485	145.580000
266.765442	145.740000
266.858429	146.520000
266.951385	146.020000
267.044342	146.140000
267.137329	146.240000
267.230316	146.420000
267.323273	145.560000
267.416260	146.120000
267.509216	146.200000
267.602203	146.020000
267.695160	146.440000
267.788147	146.640000
267.881134	146.040000
267.974091	146.160000
268.067078	145.880000
268.160065	145.660000
268.253052	145.440000
268.346008	145.480000
268.438995	145.580000
268.531982	145.780000
268.624969	145.300000
268.717987	145.760000
268.810944	145.920000
268.903961	145.980000
268.996948	145.760000
269.089905	146.540000
269.182892	146.240000
269.275879	146.360000
269.368866	146.060000
269.461853	146.340000
269.554871	145.780000
269.647858	146.060000
269.740845	146.440000
269.833832	146.600000
269.926819	146.580000
270.019806	146.820000
270.112793	146.100000
270.205811	146.060000
270.298798	146.000000
270.391785	146.660000
270.484772	146.460000
270.577789	146.900000
270.670776	146.380000
270.763763	146.600000
270.856750	146.420000
270.949768	146.100000
271.042786	146.400000
271.135773	146.400000
271.228790	146.420000
271.321808	145.960000
271.414795	145.900000
271.507782	145.220000
271.600800	144.740000
271.693817	144.760000
271.786804	145.020000
271.879822	145.480000
271.972809	145.760000
272.065826	146.580000
272.158844	146.180000
272.251831	146.680000
272.344849	146.560000
272.437866	146.340000
272.530853	146.220000
272.623871	146.440000
272.716888	145.680000
272.809906	146.040000
272.902893	146.360000
272.995911	145.780000
273.088928	145.960000
273.181946	145.920000
273.274963	145.480000
273.367981	145.580000
273.460999	145.980000
273.554047	146.140000
273.647003	146.720000
273.740051	146.720000
273.833069	146.980000
273.926086	147.240000
274.019135	146.760000
274.112152	146.260000
274.205170	146.300000
274.298187	146.480000
274.391205	145.820000
274.484222	145.720000
274.577240	145.760000
274.670258	145.640000
274.763306	145.240000
274.856323	145.880000
274.949341	146.140000
275.042358	146.700000
275.135406	146.820000
275.228424	146.660000
275.321442	146.400000
275.414490	146.320000
275.507507	146.260000
275.600525	146.520000
275.693573	146.240000
275.786591	146.160000
275.879669	146.380000
275.972656	145.940000
276.065735	146.060000
276.158752	146.800000
276.251801	147.480000
276.344818	147.620000
276.437866	148.040000
276.530884	147.740000
276.623932	147.040000
276.716980	146.700000
276.809998	146.320000
276.903046	146.100000
276.996094	146.900000
277.089111	147.740000
277.182159	148.180000
277.275208	148.080000
277.368256	147.920000
277.461304	147.360000
277.554321	146.440000
277.647369	146.040000
277.740417	146.160000
277.833466	146.000000
277.926514	145.960000
278.019562	146.960000
278.112610	146.280000
278.205688	146.480000
278.298706	146.720000
278.391785	146.360000
278.484833	145.380000
278.577881	145.740000
278.670929	145.940000
278.763977	146.020000
278.857025	146.500000
278.950073	146.960000
279.043121	146.840000
279.136169	146.640000
279.229248	146.520000
279.322296	146.540000
279.415344	146.200000
279.508392	146.080000
279.601440	146.020000
279.694519	145.920000
279.787567	145.820000
279.880615	145.740000
279.973694	145.920000
280.066742	145.840000
280.159790	146.020000
280.252869	145.580000
280.345917	145.740000
280.438995	145.660000
280.532074	145.780000
280.625122	146.220000
280.718201	147.200000
280.811279	147.560000
280.904327	147.380000
280.997406	147.380000
281.090454	146.880000
281.183533	146.200000
281.276581	146.020000
281.369659	146.340000
281.462738	146.280000
281.555786	146.780000
281.648865	146.900000
281.741943	146.960000
281.835022	147.560000
281.928070	147.520000
282.021149	147.200000
282.114227	146.720000
282.207306	146.520000
282.300385	146.340000
282.393433	146.460000
282.486511	146.120000
282.579590	146.760000
282.672668	146.960000
282.765747	146.500000
282.858856	146.280000
282.951904	146.780000
283.045013	146.880000
283.138062	147.260000
283.231171	147.520000
283.324249	147.940000
283.417328	147.640000
283.510406	147.080000
283.603485	146.660000
283.696564	146.340000
283.789642	146.140000
283.882751	146.020000
283.975830	146.520000
284.068909	146.280000
284.161987	147.100000
284.255066	146.660000
284.348175	146.700000
284.441254	146.260000
284.534332	146.540000
284.627441	145.920000
284.720520	145.800000
284.813599	146.000000
284.906708	146.320000
284.999786	145.880000
285.092896	145.680000
285.185974	147.040000
285.279053	146.540000
285.372192	146.340000
285.465240	147.140000
285.558380	147.160000
285.651459	146.360000
285.744568	147.220000
285.837677	146.960000
285.930756	146.540000
286.023865	146.420000
286.116943	146.120000
286.210052	145.800000
286.303162	145.880000
286.396240	145.860000
286.489349	146.080000
286.582458	146.380000
286.675568	146.160000
286.768646	146.360000
286.861755	146.640000
286.954865	147.160000
287.047974	146.500000
287.141083	146.440000
287.234161	146.480000
287.327271	146.120000
287.420380	145.880000
287.513519	146.320000
287.606598	146.400000
287.699738	146.460000
287.792816	146.260000
287.885956	146.080000
287.979034	146.220000
288.072174	146.580000
288.165283	146.400000
288.258392	147.080000
288.351501	146.560000
288.444611	146.700000
288.537720	146.760000
288.630859	146.820000
288.723969	146.720000
288.817078	147.460000
288.910187	147.200000
289.003296	146.560000
289.096436	146.120000
289.189545	145.860000
289.282654	145.140000
289.375763	145.420000
289.468903	145.780000
289.562012	146.120000
289.655121	145.960000
289.748260	146.460000
289.841400	146.840000
289.934509	146.640000
290.027649	147.160000
290.120728	147.120000
290.213898	146.900000
290.306976	146.240000
290.400146	146.260000
290.493256	145.700000
290.586395	146.120000
290.679535	146.520000
290.772644	146.520000
290.865784	146.020000
290.958893	146.040000
291.052032	145.760000
291.145172	145.620000
291.238281	145.460000
291.331421	145.680000
291.424561	146.020000
291.517670	145.960000
291.610809	146.120000
291.703949	146.060000
291.797089	146.480000
291.890228	146.120000
291.983337	146.260000
292.076477	145.580000
292.169617	145.920000
292.262756	146.120000
292.355927	146.200000
292.449036	146.020000
292.542206	146.520000
292.635315	146.620000
292.728485	146.520000
292.821625	146.160000
292.914764	147.040000
293.007904	146.960000
293.101044	147.020000
293.194183	147.040000
293.287323	147.180000
293.380463	146.460000
293.473602	146.320000
293.566742	146.540000
293.659882	146.680000
293.753021	147.120000
293.846191	147.100000
293.939331	147.000000
294.032471	146.580000
294.125610	146.180000
294.218781	146.440000
294.311920	146.840000
294.405060	147.000000
294.498230	147.120000
294.591370	146.840000
294.684540	145.780000
294.777679	145.180000
294.870850	145.400000
294.963959	145.260000
295.057159	145.420000
295.150299	146.160000
295.243469	146.180000
295.336609	145.800000
295.429779	145.940000
295.522919	146.260000
295.616089	146.340000
295.709229	147.180000
295.802399	147.420000
295.895569	147.100000
295.988708	146.800000
296.081879	146.460000
296.175018	145.700000
296.268188	145.640000
296.361359	146.080000
296.454529	146.380000
296.547668	146.260000
296.640839	146.580000
296.734009	146.200000
296.827179	146.440000
296.920319	146.680000
297.013519	146.740000
297.106659	146.780000
297.199860	146.820000
297.292999	146.700000
297.386200	146.020000
297.479309	145.920000
297.572510	145.740000
297.665680	145.620000
297.758850	145.300000
297.852020	145.520000
297.945190	145.560000
298.038361	145.100000
298.131531	146.260000
298.224701	146.240000
298.317871	146.180000
298.411072	145.920000
298.504242	145.980000
298.597412	145.360000
298.690582	145.440000
298.783752	145.540000
298.876923	146.020000
298.970093	146.220000
299.063293	146.340000
299.156464	146.700000
299.249634	146.920000
299.342834	146.920000
299.436005	147.420000
299.529205	147.240000
299.622345	147.180000
299.715576	146.620000
299.808716	146.520000
299.901917	146.360000
299.995117	146.620000
300.088287	146.480000
300.181488	146.860000
300.274658	146.840000
300.367828	146.860000
300.461029	146.900000
300.554199	146.960000
300.647400	146.980000
300.740601	147.380000
300.833771	147.180000
300.926971	147.080000
301.020142	146.720000
301.113342	146.420000
301.206512	145.960000
301.299713	146.040000
301.392914	145.960000
301.486084	146.360000
301.579285	146.120000
301.672516	146.460000
301.765686	146.520000
301.858887	146.460000
301.952057	146.040000
302.045288	146.540000
302.138458	146.480000
302.231659	146.060000
302.324860	145.960000
302.418060	145.860000
302.511261	145.740000
302.604462	145.660000
302.697662	145.700000
302.790863	145.780000
302.884064	145.600000
302.977264	145.420000
303.070465	145.760000
303.163666	146.800000
303.256866	147.040000
303.350067	147.380000
303.443268	147.520000
303.536469	147.480000
303.629669	146.420000
303.722870	146.460000
303.816071	146.220000
303.909271	145.820000
304.002472	145.120000
304.095673	145.180000
304.188934	144.400000
304.282104	145.020000
304.375336	145.440000
304.468506	145.580000
304.561768	145.480000
304.654968	146.360000
304.748169	145.800000
304.841370	145.720000
304.934601	146.100000
305.027802	145.660000
305.121002	145.220000
305.214233	145.080000
305.307434	144.940000
305.400665	145.420000
305.493866	145.780000
