Model Number: SPM-002-B   
Serial Number: 70087108
Firmware Version: 004.15.4
Exposure Time: 100000.000000us
Data Taken on: 11-12-2020 19:31:47.172
Wavelength	Amplitude
221.570786	0.000000
221.663406	0.000000
221.756027	0.000000
221.848648	0.000000
221.941269	0.000000
222.033905	0.000000
222.126526	0.000000
222.219162	0.000000
222.311798	0.000000
222.404419	0.000000
222.497055	0.000000
222.589676	0.000000
222.682312	0.000000
222.774933	0.000000
222.867569	0.000000
222.960205	0.000000
223.052841	0.000000
223.145462	0.000000
223.238098	0.000000
223.330734	0.000000
223.423386	0.000000
223.516022	0.000000
223.608658	0.000000
223.701309	0.000000
223.793945	0.000000
223.886581	0.000000
223.979218	0.000000
224.071869	0.000000
224.164505	0.000000
224.257156	0.000000
224.349792	0.000000
224.442444	0.000000
224.535095	0.000000
224.627747	0.000000
224.720398	0.000000
224.813034	0.000000
224.905685	0.000000
224.998337	144.920000
225.090988	144.580000
225.183640	144.740000
225.276291	144.720000
225.368942	144.660000
225.461594	145.460000
225.554245	145.740000
225.646912	145.360000
225.739578	146.040000
225.832230	146.420000
225.924896	145.020000
226.017548	145.560000
226.110199	146.320000
226.202866	145.680000
226.295532	145.660000
226.388184	146.060000
226.480850	145.380000
226.573517	145.020000
226.666168	145.300000
226.758835	145.220000
226.851501	145.580000
226.944183	145.600000
227.036850	144.960000
227.129517	144.780000
227.222183	144.940000
227.314850	144.860000
227.407516	145.360000
227.500198	146.380000
227.592865	145.840000
227.685532	145.360000
227.778214	145.000000
227.870880	145.220000
227.963562	145.280000
228.056229	146.020000
228.148926	145.940000
228.241592	146.960000
228.334274	146.320000
228.426956	145.900000
228.519638	145.900000
228.612305	146.020000
228.704987	145.640000
228.797668	145.800000
228.890350	145.640000
228.983032	144.980000
229.075714	145.280000
229.168396	144.860000
229.261108	144.560000
229.353790	144.620000
229.446472	145.060000
229.539169	144.760000
229.631851	144.720000
229.724533	145.080000
229.817230	145.400000
229.909912	146.220000
230.002609	146.340000
230.095306	146.220000
230.187988	146.040000
230.280685	145.880000
230.373383	144.760000
230.466095	144.760000
230.558792	145.120000
230.651474	145.420000
230.744171	145.380000
230.836868	145.540000
230.929581	145.380000
231.022278	145.220000
231.114975	145.100000
231.207672	144.680000
231.300369	145.120000
231.393082	145.560000
231.485779	145.440000
231.578506	145.320000
231.671204	145.740000
231.763916	145.440000
231.856613	145.200000
231.949326	145.460000
232.042023	145.280000
232.134735	145.120000
232.227448	144.980000
232.320160	145.220000
232.412872	144.800000
232.505585	145.760000
232.598297	146.120000
232.691010	146.340000
232.783722	146.120000
232.876450	146.860000
232.969162	146.400000
233.061874	145.960000
233.154587	145.700000
233.247314	145.820000
233.340027	144.980000
233.432739	145.060000
233.525467	144.960000
233.618179	145.080000
233.710907	144.660000
233.803635	145.380000
233.896347	144.980000
233.989090	145.880000
234.081818	145.820000
234.174545	146.300000
234.267258	145.600000
234.359985	145.900000
234.452713	145.420000
234.545441	145.240000
234.638168	144.820000
234.730896	145.440000
234.823639	145.020000
234.916367	145.220000
235.009094	145.300000
235.101822	145.220000
235.194580	145.440000
235.287308	145.700000
235.380051	145.360000
235.472778	145.600000
235.565521	146.300000
235.658249	145.600000
235.750992	145.920000
235.843719	145.840000
235.936462	145.980000
236.029205	145.500000
236.121948	145.420000
236.214691	145.240000
236.307449	146.080000
236.400192	145.820000
236.492935	145.520000
236.585678	146.000000
236.678421	146.080000
236.771164	145.320000
236.863907	145.420000
236.956665	145.880000
237.049408	147.140000
237.142151	146.600000
237.234909	147.240000
237.327652	147.420000
237.420410	146.920000
237.513153	146.300000
237.605927	146.400000
237.698669	145.840000
237.791428	145.200000
237.884186	145.980000
237.976944	145.120000
238.069702	145.400000
238.162445	145.120000
238.255203	145.560000
238.347961	145.680000
238.440720	145.540000
238.533478	145.440000
238.626266	145.400000
238.719025	145.320000
238.811783	144.980000
238.904541	145.160000
238.997314	145.200000
239.090073	145.200000
239.182831	145.500000
239.275604	146.020000
239.368362	145.660000
239.461136	145.820000
239.553909	145.620000
239.646667	145.140000
239.739441	144.500000
239.832214	144.860000
239.925003	144.960000
240.017761	145.700000
240.110535	146.340000
240.203308	146.280000
240.296082	146.400000
240.388855	145.940000
240.481628	145.960000
240.574417	146.000000
240.667191	145.740000
240.759964	145.560000
240.852737	145.780000
240.945526	145.300000
241.038315	144.980000
241.131088	145.380000
241.223877	145.480000
241.316650	144.860000
241.409439	145.280000
241.502228	145.200000
241.595001	145.520000
241.687790	145.480000
241.780579	145.780000
241.873367	146.020000
241.966141	146.180000
242.058929	145.500000
242.151718	145.620000
242.244507	146.120000
242.337311	145.020000
242.430099	145.380000
242.522903	145.820000
242.615692	145.640000
242.708481	145.820000
242.801270	146.840000
242.894073	146.540000
242.986862	146.440000
243.079651	146.640000
243.172455	146.020000
243.265244	145.860000
243.358063	145.300000
243.450867	145.800000
243.543655	145.720000
243.636459	145.840000
243.729263	146.060000
243.822067	146.540000
243.914856	146.420000
244.007660	146.420000
244.100464	146.240000
244.193268	145.600000
244.286072	145.540000
244.378876	145.140000
244.471680	144.940000
244.564499	145.400000
244.657318	146.040000
244.750122	145.980000
244.842926	145.580000
244.935745	146.120000
245.028549	145.680000
245.121368	145.000000
245.214172	145.160000
245.306992	145.800000
245.399796	145.260000
245.492615	145.500000
245.585434	145.540000
245.678253	145.320000
245.771072	144.940000
245.863892	145.380000
245.956711	145.880000
246.049530	145.680000
246.142349	145.440000
246.235168	145.460000
246.327988	145.880000
246.420807	145.440000
246.513626	145.780000
246.606445	145.800000
246.699280	145.980000
246.792099	145.560000
246.884918	145.240000
246.977753	145.140000
247.070587	145.240000
247.163422	145.340000
247.256241	145.280000
247.349075	145.360000
247.441895	145.180000
247.534729	145.340000
247.627563	145.040000
247.720383	145.620000
247.813217	145.820000
247.906052	146.020000
247.998886	145.900000
248.091736	145.840000
248.184570	145.260000
248.277405	145.360000
248.370239	146.200000
248.463074	146.900000
248.555908	147.400000
248.648743	147.100000
248.741592	147.140000
248.834427	146.260000
248.927261	145.200000
249.020111	145.340000
249.112946	146.120000
249.205795	145.760000
249.298630	145.980000
249.391495	146.500000
249.484344	145.960000
249.577179	145.680000
249.670029	145.980000
249.762878	146.160000
249.855728	146.300000
249.948563	146.660000
250.041412	146.080000
250.134262	146.220000
250.227112	146.380000
250.319962	146.420000
250.412827	146.580000
250.505692	146.540000
250.598541	146.340000
250.691391	145.640000
250.784241	145.580000
250.877106	145.280000
250.969955	144.900000
251.062805	145.320000
251.155670	146.160000
251.248520	146.040000
251.341385	146.200000
251.434235	146.460000
251.527100	145.780000
251.619965	145.300000
251.712814	145.700000
251.805695	145.380000
251.898560	145.740000
251.991425	146.180000
252.084290	146.380000
252.177155	145.900000
252.270020	145.820000
252.362885	145.460000
252.455750	145.500000
252.548615	145.080000
252.641479	145.200000
252.734360	145.120000
252.827240	145.180000
252.920105	145.080000
253.012970	145.180000
253.105850	145.020000
253.198715	145.240000
253.291595	145.480000
253.384460	144.860000
253.477341	144.820000
253.570221	145.080000
253.663086	145.000000
253.755966	145.800000
253.848846	146.480000
253.941727	146.620000
254.034592	146.320000
254.127472	146.040000
254.220367	145.440000
254.313248	145.240000
254.406128	144.980000
254.499008	145.460000
254.591904	146.220000
254.684784	146.580000
254.777664	146.780000
254.870544	146.560000
254.963440	146.020000
255.056335	145.740000
255.149216	145.060000
255.242111	145.400000
255.334991	146.080000
255.427887	146.220000
255.520767	146.120000
255.613663	146.720000
255.706558	145.960000
255.799438	145.580000
255.892334	145.380000
255.985229	145.280000
256.078125	144.900000
256.171021	145.080000
256.263916	145.620000
256.356812	145.880000
256.449707	146.100000
256.542603	145.900000
256.635498	146.360000
256.728394	145.980000
256.821289	145.540000
256.914215	145.600000
257.007080	146.220000
257.100006	146.040000
257.192932	146.540000
257.285828	147.120000
257.378723	146.800000
257.471619	146.360000
257.564545	145.760000
257.657440	145.520000
257.750336	145.960000
257.843262	146.040000
257.936157	146.820000
258.029053	147.540000
258.121979	147.640000
258.214874	147.020000
258.307800	146.980000
258.400696	145.920000
258.493622	145.640000
258.586517	144.740000
258.679443	145.020000
258.772339	144.360000
258.865265	144.420000
258.958160	144.040000
259.051086	145.060000
259.144012	144.900000
259.236938	146.220000
259.329834	146.480000
259.422791	146.580000
259.515717	145.940000
259.608612	145.760000
259.701538	145.340000
259.794464	144.980000
259.887390	145.020000
259.980316	145.220000
260.073212	145.000000
260.166138	144.040000
260.259064	144.560000
260.351990	145.060000
260.444916	144.860000
260.537842	145.400000
260.630768	146.120000
260.723694	146.120000
260.816620	146.100000
260.909546	146.200000
261.002472	145.640000
261.095398	145.460000
261.188354	145.400000
261.281281	144.660000
261.374207	144.720000
261.467133	145.680000
261.560089	145.940000
261.653015	145.780000
261.745972	146.720000
261.838867	147.180000
261.931824	147.020000
262.024780	146.720000
262.117706	147.060000
262.210663	146.960000
262.303589	146.660000
262.396515	146.620000
262.489471	147.300000
262.582397	147.220000
262.675354	146.720000
262.768280	146.760000
262.861237	146.700000
262.954163	146.420000
263.047119	146.440000
263.140045	146.100000
263.233002	145.580000
263.325958	145.500000
263.418884	145.040000
263.511841	145.000000
263.604797	145.440000
263.697723	145.800000
263.790680	145.540000
263.883636	146.200000
263.976593	145.820000
264.069550	145.700000
264.162476	145.580000
264.255463	145.760000
264.348419	145.400000
264.441376	145.880000
264.534332	145.620000
264.627289	145.860000
264.720245	146.000000
264.813202	145.720000
264.906158	145.600000
264.999115	146.100000
265.092072	146.220000
265.185028	146.520000
265.277985	146.980000
265.370941	146.960000
265.463898	146.900000
265.556854	146.420000
265.649811	145.760000
265.742798	145.520000
265.835754	145.440000
265.928711	145.600000
266.021667	145.760000
266.114655	145.800000
266.207611	145.960000
266.300568	145.340000
266.393585	144.900000
266.486511	144.940000
266.579498	144.220000
266.672485	144.080000
266.765442	144.100000
266.858429	144.840000
266.951385	144.740000
267.044342	145.260000
267.137329	145.060000
267.230316	145.800000
267.323273	145.120000
267.416260	145.740000
267.509216	145.900000
267.602203	146.180000
267.695160	146.420000
267.788147	146.440000
267.881134	145.900000
267.974091	146.040000
268.067078	145.900000
268.160065	145.620000
268.253052	145.640000
268.346008	145.760000
268.438995	145.600000
268.531982	145.760000
268.624969	145.440000
268.717987	145.600000
268.810944	145.580000
268.903961	145.600000
268.996948	145.200000
269.089905	145.680000
269.182892	145.580000
269.275879	145.540000
269.368866	145.100000
269.461853	145.360000
269.554871	144.880000
269.647858	144.900000
269.740845	145.160000
269.833832	145.720000
269.926819	145.480000
270.019806	145.620000
270.112793	145.180000
270.205811	145.180000
270.298798	144.860000
270.391785	145.520000
270.484772	145.140000
270.577789	145.460000
270.670776	144.980000
270.763763	145.160000
270.856750	145.120000
270.949768	145.000000
271.042786	145.080000
271.135773	145.280000
271.228790	145.740000
271.321808	145.140000
271.414795	145.360000
271.507782	145.220000
271.600800	144.980000
271.693817	144.640000
271.786804	145.320000
271.879822	145.520000
271.972809	145.660000
272.065826	146.180000
272.158844	145.720000
272.251831	145.700000
272.344849	145.740000
272.437866	145.160000
272.530853	145.200000
272.623871	145.320000
272.716888	144.500000
272.809906	144.820000
272.902893	145.120000
272.995911	144.420000
273.088928	144.680000
273.181946	145.120000
273.274963	144.560000
273.367981	144.740000
273.460999	145.060000
273.554047	145.300000
273.647003	145.660000
273.740051	145.920000
273.833069	146.500000
273.926086	146.560000
274.019135	146.220000
274.112152	145.920000
274.205170	145.840000
274.298187	145.600000
274.391205	144.860000
274.484222	145.020000
274.577240	145.040000
274.670258	144.860000
274.763306	144.440000
274.856323	145.300000
274.949341	145.300000
275.042358	145.560000
275.135406	145.720000
275.228424	145.820000
275.321442	145.920000
275.414490	145.320000
275.507507	145.440000
275.600525	145.720000
275.693573	145.700000
275.786591	145.260000
275.879669	146.120000
275.972656	145.700000
276.065735	145.620000
276.158752	146.120000
276.251801	146.660000
276.344818	146.400000
276.437866	146.480000
276.530884	146.320000
276.623932	145.440000
276.716980	145.480000
276.809998	145.740000
276.903046	145.780000
276.996094	146.680000
277.089111	147.200000
277.182159	147.300000
277.275208	146.780000
277.368256	146.300000
277.461304	145.520000
277.554321	145.020000
277.647369	144.920000
277.740417	145.220000
277.833466	145.340000
277.926514	145.220000
278.019562	145.880000
278.112610	145.000000
278.205688	144.840000
278.298706	145.000000
278.391785	144.760000
278.484833	144.340000
278.577881	144.700000
278.670929	145.120000
278.763977	145.460000
278.857025	145.860000
278.950073	145.960000
279.043121	145.980000
279.136169	145.480000
279.229248	145.140000
279.322296	145.240000
279.415344	145.020000
279.508392	144.800000
279.601440	144.720000
279.694519	144.500000
279.787567	144.080000
279.880615	144.160000
279.973694	144.240000
280.066742	144.380000
280.159790	144.740000
280.252869	144.500000
280.345917	144.680000
280.438995	144.700000
280.532074	144.540000
280.625122	144.760000
280.718201	145.700000
280.811279	145.840000
280.904327	145.800000
280.997406	146.100000
281.090454	146.080000
281.183533	145.400000
281.276581	145.260000
281.369659	145.440000
281.462738	145.580000
281.555786	145.600000
281.648865	145.740000
281.741943	145.560000
281.835022	145.940000
281.928070	145.480000
282.021149	145.220000
282.114227	145.240000
282.207306	145.220000
282.300385	145.520000
282.393433	145.740000
282.486511	145.720000
282.579590	146.300000
282.672668	146.800000
282.765747	145.980000
282.858856	145.720000
282.951904	145.880000
283.045013	145.640000
283.138062	145.620000
283.231171	146.080000
283.324249	146.840000
283.417328	146.920000
283.510406	146.580000
283.603485	146.500000
283.696564	145.880000
283.789642	145.580000
283.882751	145.160000
283.975830	145.680000
284.068909	145.380000
284.161987	146.480000
284.255066	145.940000
284.348175	146.160000
284.441254	145.740000
284.534332	146.160000
284.627441	145.320000
284.720520	145.180000
284.813599	145.400000
284.906708	145.480000
284.999786	144.660000
285.092896	144.580000
285.185974	145.720000
285.279053	145.180000
285.372192	145.300000
285.465240	146.240000
285.558380	146.240000
285.651459	145.600000
285.744568	146.620000
285.837677	146.400000
285.930756	146.140000
286.023865	146.520000
286.116943	146.480000
286.210052	146.260000
286.303162	145.820000
286.396240	145.620000
286.489349	145.080000
286.582458	144.980000
286.675568	144.520000
286.768646	144.840000
286.861755	145.160000
286.954865	145.760000
287.047974	145.720000
287.141083	145.640000
287.234161	145.660000
287.327271	145.040000
287.420380	145.160000
287.513519	145.140000
287.606598	145.080000
287.699738	145.200000
287.792816	145.680000
287.885956	145.280000
287.979034	145.160000
288.072174	145.480000
288.165283	145.320000
288.258392	145.420000
288.351501	145.240000
288.444611	145.320000
288.537720	145.480000
288.630859	145.380000
288.723969	145.280000
288.817078	145.700000
288.910187	146.000000
289.003296	145.440000
289.096436	145.440000
289.189545	145.300000
289.282654	144.880000
289.375763	145.340000
289.468903	145.540000
289.562012	145.940000
289.655121	146.200000
289.748260	146.460000
289.841400	146.480000
289.934509	146.400000
290.027649	146.020000
290.120728	145.520000
290.213898	145.700000
290.306976	145.080000
290.400146	145.280000
290.493256	145.180000
290.586395	145.540000
290.679535	145.500000
290.772644	145.400000
290.865784	144.760000
290.958893	144.760000
291.052032	144.640000
291.145172	144.560000
291.238281	144.480000
291.331421	144.780000
291.424561	145.340000
291.517670	145.000000
291.610809	144.960000
291.703949	144.820000
291.797089	145.100000
291.890228	144.620000
291.983337	144.660000
292.076477	144.580000
292.169617	145.100000
292.262756	145.060000
292.355927	145.140000
292.449036	145.020000
292.542206	145.040000
292.635315	145.300000
292.728485	145.400000
292.821625	145.120000
292.914764	146.420000
293.007904	146.660000
293.101044	146.260000
293.194183	146.200000
293.287323	146.280000
293.380463	145.480000
293.473602	145.100000
293.566742	145.380000
293.659882	145.860000
293.753021	146.260000
293.846191	146.120000
293.939331	145.780000
294.032471	145.440000
294.125610	144.940000
294.218781	145.380000
294.311920	145.780000
294.405060	146.200000
294.498230	146.220000
294.591370	146.380000
294.684540	145.620000
294.777679	145.040000
294.870850	145.340000
294.963959	145.280000
295.057159	145.000000
295.150299	145.520000
295.243469	145.880000
295.336609	145.120000
295.429779	145.400000
295.522919	145.640000
295.616089	145.320000
295.709229	145.720000
295.802399	146.280000
295.895569	145.700000
295.988708	145.700000
296.081879	145.780000
296.175018	144.860000
296.268188	144.780000
296.361359	145.560000
296.454529	145.380000
296.547668	145.360000
296.640839	146.020000
296.734009	145.900000
296.827179	145.920000
296.920319	146.080000
297.013519	145.460000
297.106659	145.620000
297.199860	145.560000
297.292999	145.060000
297.386200	144.840000
297.479309	145.040000
297.572510	144.560000
297.665680	144.600000
297.758850	144.760000
297.852020	144.880000
297.945190	144.920000
298.038361	144.640000
298.131531	145.420000
298.224701	145.260000
298.317871	144.880000
298.411072	144.520000
298.504242	144.360000
298.597412	143.560000
298.690582	143.980000
298.783752	144.000000
298.876923	144.640000
298.970093	144.980000
299.063293	145.540000
299.156464	145.580000
299.249634	145.960000
299.342834	146.100000
299.436005	146.480000
299.529205	146.200000
299.622345	146.000000
299.715576	145.560000
299.808716	145.500000
299.901917	145.500000
299.995117	145.820000
300.088287	146.200000
300.181488	146.260000
300.274658	145.920000
300.367828	145.820000
300.461029	145.760000
300.554199	145.560000
300.647400	145.580000
300.740601	146.280000
300.833771	145.980000
300.926971	145.640000
301.020142	145.160000
301.113342	145.000000
301.206512	144.660000
301.299713	145.280000
301.392914	145.800000
301.486084	146.200000
301.579285	146.440000
301.672516	146.860000
301.765686	146.500000
301.858887	145.820000
301.952057	145.760000
302.045288	146.000000
302.138458	145.520000
302.231659	145.220000
302.324860	145.120000
302.418060	144.840000
302.511261	144.420000
302.604462	144.560000
302.697662	144.720000
302.790863	144.720000
302.884064	144.400000
302.977264	144.720000
303.070465	144.820000
303.163666	145.140000
303.256866	145.340000
303.350067	145.720000
303.443268	145.800000
303.536469	145.940000
303.629669	145.580000
303.722870	145.820000
303.816071	145.780000
303.909271	145.700000
304.002472	144.860000
304.095673	144.920000
304.188934	144.320000
304.282104	145.080000
304.375336	145.120000
304.468506	145.300000
304.561768	144.960000
304.654968	145.840000
304.748169	145.220000
304.841370	145.080000
304.934601	145.720000
305.027802	145.800000
305.121002	145.140000
305.214233	145.500000
305.307434	145.680000
305.400665	146.120000
305.493866	146.140000
