Model Number: SPM-002-B   
Serial Number: 70087108
Firmware Version: 004.15.4
Exposure Time: 100000.000000us
Data Taken on: 11-12-2020 19:32:16.887
Wavelength	Amplitude
221.570786	0.000000
221.663406	0.000000
221.756027	0.000000
221.848648	0.000000
221.941269	0.000000
222.033905	0.000000
222.126526	0.000000
222.219162	0.000000
222.311798	0.000000
222.404419	0.000000
222.497055	0.000000
222.589676	0.000000
222.682312	0.000000
222.774933	0.000000
222.867569	0.000000
222.960205	0.000000
223.052841	0.000000
223.145462	0.000000
223.238098	0.000000
223.330734	0.000000
223.423386	0.000000
223.516022	0.000000
223.608658	0.000000
223.701309	0.000000
223.793945	0.000000
223.886581	0.000000
223.979218	0.000000
224.071869	0.000000
224.164505	0.000000
224.257156	0.000000
224.349792	0.000000
224.442444	0.000000
224.535095	0.000000
224.627747	0.000000
224.720398	0.000000
224.813034	0.000000
224.905685	0.000000
224.998337	144.880000
225.090988	144.980000
225.183640	144.820000
225.276291	144.600000
225.368942	145.040000
225.461594	145.740000
225.554245	145.740000
225.646912	145.600000
225.739578	145.900000
225.832230	146.320000
225.924896	145.420000
226.017548	145.960000
226.110199	146.680000
226.202866	146.180000
226.295532	145.900000
226.388184	146.060000
226.480850	145.560000
226.573517	145.060000
226.666168	145.440000
226.758835	145.620000
226.851501	146.000000
226.944183	145.860000
227.036850	145.320000
227.129517	145.320000
227.222183	145.400000
227.314850	145.480000
227.407516	145.860000
227.500198	146.900000
227.592865	146.280000
227.685532	145.800000
227.778214	145.700000
227.870880	145.900000
227.963562	146.000000
228.056229	146.660000
228.148926	146.580000
228.241592	147.140000
228.334274	146.940000
228.426956	146.440000
228.519638	146.460000
228.612305	146.520000
228.704987	146.120000
228.797668	146.020000
228.890350	145.720000
228.983032	145.120000
229.075714	145.620000
229.168396	145.620000
229.261108	145.280000
229.353790	145.580000
229.446472	146.160000
229.539169	145.820000
229.631851	145.420000
229.724533	145.660000
229.817230	145.860000
229.909912	146.440000
230.002609	146.580000
230.095306	146.640000
230.187988	146.580000
230.280685	146.400000
230.373383	145.360000
230.466095	144.980000
230.558792	145.340000
230.651474	145.380000
230.744171	145.460000
230.836868	145.580000
230.929581	146.020000
231.022278	146.000000
231.114975	146.080000
231.207672	145.880000
231.300369	146.280000
231.393082	146.380000
231.485779	145.920000
231.578506	145.520000
231.671204	145.560000
231.763916	145.320000
231.856613	145.000000
231.949326	145.580000
232.042023	145.520000
232.134735	145.260000
232.227448	145.320000
232.320160	145.520000
232.412872	145.040000
232.505585	145.980000
232.598297	146.520000
232.691010	146.060000
232.783722	145.740000
232.876450	146.520000
232.969162	146.000000
233.061874	145.660000
233.154587	145.640000
233.247314	145.800000
233.340027	144.960000
233.432739	145.420000
233.525467	145.340000
233.618179	145.860000
233.710907	145.420000
233.803635	146.220000
233.896347	145.680000
233.989090	146.420000
234.081818	146.240000
234.174545	146.800000
234.267258	146.120000
234.359985	146.260000
234.452713	145.820000
234.545441	145.540000
234.638168	145.320000
234.730896	145.760000
234.823639	145.720000
234.916367	145.980000
235.009094	146.360000
235.101822	146.400000
235.194580	146.000000
235.287308	146.060000
235.380051	145.820000
235.472778	145.820000
235.565521	146.440000
235.658249	146.480000
235.750992	146.640000
235.843719	146.560000
235.936462	146.800000
236.029205	145.960000
236.121948	145.540000
236.214691	145.440000
236.307449	145.940000
236.400192	145.500000
236.492935	145.480000
236.585678	146.140000
236.678421	146.140000
236.771164	145.900000
236.863907	146.460000
236.956665	146.820000
237.049408	148.080000
237.142151	147.620000
237.234909	147.780000
237.327652	147.640000
237.420410	147.380000
237.513153	146.320000
237.605927	146.360000
237.698669	145.840000
237.791428	145.200000
237.884186	145.740000
237.976944	145.160000
238.069702	145.580000
238.162445	145.260000
238.255203	145.560000
238.347961	145.380000
238.440720	145.240000
238.533478	144.880000
238.626266	144.940000
238.719025	144.900000
238.811783	144.520000
238.904541	144.720000
238.997314	144.600000
239.090073	144.520000
239.182831	144.920000
239.275604	145.800000
239.368362	145.640000
239.461136	146.100000
239.553909	146.340000
239.646667	146.040000
239.739441	145.480000
239.832214	145.940000
239.925003	145.920000
240.017761	146.460000
240.110535	147.000000
240.203308	146.760000
240.296082	146.880000
240.388855	146.720000
240.481628	146.520000
240.574417	146.180000
240.667191	146.300000
240.759964	145.600000
240.852737	145.740000
240.945526	145.120000
241.038315	145.000000
241.131088	145.160000
241.223877	145.480000
241.316650	144.780000
241.409439	145.780000
241.502228	145.540000
241.595001	145.860000
241.687790	145.740000
241.780579	146.340000
241.873367	146.100000
241.966141	146.180000
242.058929	145.440000
242.151718	145.720000
242.244507	146.180000
242.337311	145.440000
242.430099	146.060000
242.522903	146.460000
242.615692	146.160000
242.708481	145.900000
242.801270	146.540000
242.894073	146.300000
242.986862	146.260000
243.079651	146.900000
243.172455	146.320000
243.265244	145.940000
243.358063	145.420000
243.450867	145.980000
243.543655	145.620000
243.636459	146.080000
243.729263	146.600000
243.822067	147.000000
243.914856	146.940000
244.007660	147.080000
244.100464	147.000000
244.193268	146.500000
244.286072	146.440000
244.378876	145.840000
244.471680	145.420000
244.564499	145.320000
244.657318	145.900000
244.750122	146.060000
244.842926	145.560000
244.935745	146.160000
245.028549	145.980000
245.121368	145.460000
245.214172	145.240000
245.306992	146.060000
245.399796	145.600000
245.492615	145.780000
245.585434	145.840000
245.678253	145.940000
245.771072	145.680000
245.863892	145.840000
245.956711	146.020000
246.049530	145.860000
246.142349	145.520000
246.235168	145.700000
246.327988	146.260000
246.420807	146.160000
246.513626	146.380000
246.606445	146.520000
246.699280	146.500000
246.792099	146.060000
246.884918	145.660000
246.977753	145.280000
247.070587	145.480000
247.163422	145.300000
247.256241	145.500000
247.349075	146.080000
247.441895	146.480000
247.534729	146.380000
247.627563	146.220000
247.720383	146.540000
247.813217	146.440000
247.906052	146.300000
247.998886	146.320000
248.091736	146.420000
248.184570	145.680000
248.277405	145.620000
248.370239	146.580000
248.463074	147.200000
248.555908	147.500000
248.648743	147.480000
248.741592	147.600000
248.834427	146.560000
248.927261	145.440000
249.020111	145.360000
249.112946	146.100000
249.205795	145.640000
249.298630	145.620000
249.391495	145.680000
249.484344	145.420000
249.577179	144.880000
249.670029	145.440000
249.762878	146.200000
249.855728	146.400000
249.948563	146.420000
250.041412	146.160000
250.134262	145.900000
250.227112	145.860000
250.319962	145.900000
250.412827	145.960000
250.505692	145.520000
250.598541	145.500000
250.691391	145.040000
250.784241	145.300000
250.877106	145.440000
250.969955	145.660000
251.062805	146.020000
251.155670	146.400000
251.248520	146.400000
251.341385	146.540000
251.434235	146.820000
251.527100	146.500000
251.619965	146.040000
251.712814	146.460000
251.805695	146.220000
251.898560	146.040000
251.991425	146.300000
252.084290	146.600000
252.177155	145.800000
252.270020	145.740000
252.362885	145.840000
252.455750	145.660000
252.548615	145.000000
252.641479	145.340000
252.734360	145.360000
252.827240	145.200000
252.920105	145.220000
253.012970	145.640000
253.105850	145.380000
253.198715	144.980000
253.291595	145.060000
253.384460	144.880000
253.477341	144.640000
253.570221	144.860000
253.663086	144.720000
253.755966	145.480000
253.848846	145.360000
253.941727	145.760000
254.034592	145.500000
254.127472	145.260000
254.220367	145.280000
254.313248	145.700000
254.406128	144.980000
254.499008	145.500000
254.591904	146.500000
254.684784	146.660000
254.777664	146.460000
254.870544	146.400000
254.963440	146.280000
255.056335	146.160000
255.149216	145.400000
255.242111	145.940000
255.334991	146.740000
255.427887	146.560000
255.520767	146.520000
255.613663	146.980000
255.706558	146.100000
255.799438	145.600000
255.892334	145.340000
255.985229	145.480000
256.078125	145.040000
256.171021	145.480000
256.263916	145.900000
256.356812	146.440000
256.449707	146.520000
256.542603	146.320000
256.635498	146.620000
256.728394	146.500000
256.821289	146.080000
256.914215	146.000000
257.007080	146.260000
257.100006	146.240000
257.192932	146.740000
257.285828	146.980000
257.378723	146.540000
257.471619	146.360000
257.564545	145.940000
257.657440	145.540000
257.750336	145.960000
257.843262	145.960000
257.936157	147.100000
258.029053	147.400000
258.121979	147.420000
258.214874	146.980000
258.307800	147.060000
258.400696	146.020000
258.493622	145.920000
258.586517	145.340000
258.679443	145.640000
258.772339	145.100000
258.865265	145.040000
258.958160	144.600000
259.051086	145.620000
259.144012	145.340000
259.236938	146.300000
259.329834	146.360000
259.422791	146.100000
259.515717	145.320000
259.608612	145.260000
259.701538	145.100000
259.794464	144.720000
259.887390	145.080000
259.980316	144.760000
260.073212	144.520000
260.166138	143.760000
260.259064	144.420000
260.351990	144.980000
260.444916	145.200000
260.537842	145.520000
260.630768	146.280000
260.723694	146.060000
260.816620	145.620000
260.909546	145.600000
261.002472	144.900000
261.095398	144.300000
261.188354	144.280000
261.281281	144.000000
261.374207	144.380000
261.467133	145.720000
261.560089	146.200000
261.653015	145.820000
261.745972	146.680000
261.838867	146.920000
261.931824	146.560000
262.024780	145.920000
262.117706	146.160000
262.210663	145.860000
262.303589	145.460000
262.396515	145.280000
262.489471	146.460000
262.582397	146.360000
262.675354	145.940000
262.768280	146.180000
262.861237	146.000000
262.954163	145.500000
263.047119	145.780000
263.140045	145.720000
263.233002	145.520000
263.325958	145.680000
263.418884	145.440000
263.511841	145.720000
263.604797	145.660000
263.697723	145.620000
263.790680	145.360000
263.883636	146.040000
263.976593	145.520000
264.069550	145.800000
264.162476	145.580000
264.255463	145.920000
264.348419	145.100000
264.441376	145.460000
264.534332	145.120000
264.627289	145.600000
264.720245	145.760000
264.813202	145.980000
264.906158	146.160000
264.999115	146.660000
265.092072	146.540000
265.185028	146.900000
265.277985	147.060000
265.370941	146.880000
265.463898	146.580000
265.556854	146.080000
265.649811	145.080000
265.742798	144.860000
265.835754	144.860000
265.928711	145.400000
266.021667	145.740000
266.114655	146.020000
266.207611	146.300000
266.300568	145.660000
266.393585	144.980000
266.486511	145.480000
266.579498	144.920000
266.672485	144.740000
266.765442	145.020000
266.858429	145.900000
266.951385	145.360000
267.044342	145.700000
267.137329	145.360000
267.230316	145.420000
267.323273	144.540000
267.416260	145.120000
267.509216	144.980000
267.602203	145.400000
267.695160	146.200000
267.788147	146.520000
267.881134	145.900000
267.974091	146.420000
268.067078	146.300000
268.160065	145.580000
268.253052	145.500000
268.346008	145.640000
268.438995	145.340000
268.531982	145.640000
268.624969	145.560000
268.717987	145.800000
268.810944	145.760000
268.903961	145.780000
268.996948	145.420000
269.089905	146.040000
269.182892	146.060000
269.275879	146.340000
269.368866	145.760000
269.461853	145.800000
269.554871	145.500000
269.647858	145.460000
269.740845	145.420000
269.833832	146.380000
269.926819	146.240000
270.019806	146.200000
270.112793	145.600000
270.205811	145.580000
270.298798	145.120000
270.391785	145.660000
270.484772	145.240000
270.577789	145.780000
270.670776	145.340000
270.763763	145.520000
270.856750	145.500000
270.949768	145.660000
271.042786	145.720000
271.135773	145.820000
271.228790	146.120000
271.321808	145.400000
271.414795	145.080000
271.507782	144.780000
271.600800	144.760000
271.693817	144.600000
271.786804	145.280000
271.879822	145.960000
271.972809	145.780000
272.065826	146.120000
272.158844	145.620000
272.251831	146.020000
272.344849	145.580000
272.437866	145.220000
272.530853	145.280000
272.623871	145.820000
272.716888	144.620000
272.809906	145.020000
272.902893	145.300000
272.995911	144.860000
273.088928	144.560000
273.181946	145.400000
273.274963	144.880000
273.367981	145.220000
273.460999	145.700000
273.554047	145.880000
273.647003	145.960000
273.740051	146.280000
273.833069	146.460000
273.926086	146.520000
274.019135	146.400000
274.112152	145.840000
274.205170	145.500000
274.298187	145.440000
274.391205	144.700000
274.484222	144.780000
274.577240	144.940000
274.670258	145.120000
274.763306	144.920000
274.856323	145.700000
274.949341	145.540000
275.042358	145.940000
275.135406	145.940000
275.228424	146.120000
275.321442	145.840000
275.414490	145.700000
275.507507	145.880000
275.600525	146.680000
275.693573	146.440000
275.786591	146.220000
275.879669	146.280000
275.972656	145.760000
276.065735	145.160000
276.158752	145.580000
276.251801	146.500000
276.344818	146.840000
276.437866	147.000000
276.530884	146.780000
276.623932	146.160000
276.716980	145.880000
276.809998	145.940000
276.903046	145.940000
276.996094	146.800000
277.089111	147.260000
277.182159	147.720000
277.275208	147.500000
277.368256	147.300000
277.461304	146.840000
277.554321	146.220000
277.647369	145.540000
277.740417	145.480000
277.833466	145.580000
277.926514	145.140000
278.019562	146.000000
278.112610	145.580000
278.205688	145.840000
278.298706	146.120000
278.391785	146.160000
278.484833	145.660000
278.577881	145.740000
278.670929	145.880000
278.763977	145.740000
278.857025	146.180000
278.950073	146.180000
279.043121	146.100000
279.136169	145.740000
279.229248	145.560000
279.322296	145.580000
279.415344	145.520000
279.508392	145.580000
279.601440	145.580000
279.694519	145.440000
279.787567	145.240000
279.880615	145.400000
279.973694	145.400000
280.066742	145.460000
280.159790	145.720000
280.252869	145.180000
280.345917	145.140000
280.438995	145.040000
280.532074	145.280000
280.625122	145.540000
280.718201	146.560000
280.811279	146.560000
280.904327	146.840000
280.997406	146.760000
281.090454	146.540000
281.183533	145.960000
281.276581	146.040000
281.369659	145.640000
281.462738	145.720000
281.555786	145.920000
281.648865	146.100000
281.741943	145.800000
281.835022	146.500000
281.928070	146.140000
282.021149	145.820000
282.114227	145.440000
282.207306	145.680000
282.300385	145.620000
282.393433	145.680000
282.486511	145.720000
282.579590	146.180000
282.672668	146.500000
282.765747	145.960000
282.858856	145.620000
282.951904	145.680000
283.045013	145.920000
283.138062	145.820000
283.231171	146.320000
283.324249	147.080000
283.417328	147.340000
283.510406	146.880000
283.603485	146.880000
283.696564	146.760000
283.789642	146.540000
283.882751	146.120000
283.975830	146.800000
284.068909	146.340000
284.161987	146.480000
284.255066	145.800000
284.348175	146.160000
284.441254	145.720000
284.534332	146.360000
284.627441	146.240000
284.720520	146.300000
284.813599	146.060000
284.906708	145.840000
284.999786	145.080000
285.092896	144.700000
285.185974	145.700000
285.279053	145.540000
285.372192	145.760000
285.465240	146.600000
285.558380	146.700000
285.651459	146.000000
285.744568	146.820000
285.837677	146.300000
285.930756	146.020000
286.023865	146.020000
286.116943	146.000000
286.210052	145.640000
286.303162	145.960000
286.396240	146.040000
286.489349	145.700000
286.582458	146.240000
286.675568	145.900000
286.768646	146.000000
286.861755	146.200000
286.954865	147.120000
287.047974	146.380000
287.141083	146.220000
287.234161	145.960000
287.327271	145.640000
287.420380	145.780000
287.513519	145.920000
287.606598	146.040000
287.699738	146.560000
287.792816	146.280000
287.885956	146.000000
287.979034	146.240000
288.072174	146.440000
288.165283	145.980000
288.258392	146.360000
288.351501	145.740000
288.444611	145.900000
288.537720	146.120000
288.630859	146.220000
288.723969	146.360000
288.817078	146.840000
288.910187	146.680000
289.003296	146.060000
289.096436	145.780000
289.189545	145.500000
289.282654	145.100000
289.375763	145.520000
289.468903	145.980000
289.562012	146.560000
289.655121	146.620000
289.748260	146.860000
289.841400	147.100000
289.934509	147.200000
290.027649	147.060000
290.120728	146.940000
290.213898	146.940000
290.306976	146.400000
290.400146	146.440000
290.493256	146.000000
290.586395	146.120000
290.679535	146.540000
290.772644	146.380000
290.865784	145.420000
290.958893	145.580000
291.052032	145.620000
291.145172	145.060000
291.238281	144.700000
291.331421	145.260000
291.424561	145.660000
291.517670	145.480000
291.610809	145.820000
291.703949	146.120000
291.797089	146.340000
291.890228	145.760000
291.983337	145.480000
292.076477	145.140000
292.169617	145.220000
292.262756	145.260000
292.355927	145.500000
292.449036	145.400000
292.542206	145.660000
292.635315	145.920000
292.728485	146.160000
292.821625	145.580000
292.914764	146.840000
293.007904	146.880000
293.101044	146.400000
293.194183	146.020000
293.287323	146.540000
293.380463	145.720000
293.473602	145.480000
293.566742	146.000000
293.659882	146.300000
293.753021	146.580000
293.846191	146.520000
293.939331	146.420000
294.032471	146.040000
294.125610	145.920000
294.218781	146.260000
294.311920	146.780000
294.405060	147.000000
294.498230	147.080000
294.591370	146.600000
294.684540	145.820000
294.777679	145.360000
294.870850	145.760000
294.963959	145.680000
295.057159	145.920000
295.150299	146.220000
295.243469	146.180000
295.336609	145.240000
295.429779	145.420000
295.522919	145.960000
295.616089	146.000000
295.709229	146.460000
295.802399	147.120000
295.895569	146.740000
295.988708	146.040000
296.081879	146.140000
296.175018	145.440000
296.268188	145.140000
296.361359	145.900000
296.454529	146.340000
296.547668	146.100000
296.640839	146.580000
296.734009	146.520000
296.827179	146.240000
296.920319	146.380000
297.013519	146.100000
297.106659	145.980000
297.199860	146.000000
297.292999	145.500000
297.386200	145.040000
297.479309	145.080000
297.572510	145.120000
297.665680	144.900000
297.758850	145.200000
297.852020	145.300000
297.945190	145.300000
298.038361	144.820000
298.131531	145.880000
298.224701	145.740000
298.317871	145.540000
298.411072	145.220000
298.504242	145.320000
298.597412	144.540000
298.690582	144.760000
298.783752	144.820000
298.876923	145.480000
298.970093	145.480000
299.063293	145.740000
299.156464	146.260000
299.249634	146.240000
299.342834	146.300000
299.436005	146.820000
299.529205	146.780000
299.622345	146.620000
299.715576	146.320000
299.808716	146.040000
299.901917	145.760000
299.995117	145.880000
300.088287	145.780000
300.181488	145.720000
300.274658	145.740000
300.367828	145.660000
300.461029	145.700000
300.554199	145.920000
300.647400	146.160000
300.740601	146.960000
300.833771	147.020000
300.926971	147.320000
301.020142	146.580000
301.113342	146.680000
301.206512	146.020000
301.299713	146.180000
301.392914	145.760000
301.486084	146.180000
301.579285	146.040000
301.672516	146.500000
301.765686	146.140000
301.858887	146.040000
301.952057	145.920000
302.045288	146.060000
302.138458	145.480000
302.231659	145.420000
302.324860	145.320000
302.418060	144.800000
302.511261	144.680000
302.604462	145.220000
302.697662	145.140000
302.790863	145.260000
302.884064	145.720000
302.977264	145.860000
303.070465	145.640000
303.163666	146.440000
303.256866	146.620000
303.350067	146.680000
303.443268	146.740000
303.536469	146.960000
303.629669	146.400000
303.722870	146.380000
303.816071	146.080000
303.909271	146.200000
304.002472	145.300000
304.095673	145.520000
304.188934	145.100000
304.282104	145.860000
304.375336	145.360000
304.468506	145.540000
304.561768	145.220000
304.654968	145.560000
304.748169	145.220000
304.841370	145.380000
304.934601	145.820000
305.027802	145.760000
305.121002	145.340000
305.214233	145.380000
305.307434	145.460000
305.400665	145.900000
305.493866	145.560000
