Model Number: SPM-002-B   
Serial Number: 70087108
Firmware Version: 004.15.4
Exposure Time: 100000.000000us
Data Taken on: 11-12-2020 19:31:58.610
Wavelength	Amplitude
221.570786	0.000000
221.663406	0.000000
221.756027	0.000000
221.848648	0.000000
221.941269	0.000000
222.033905	0.000000
222.126526	0.000000
222.219162	0.000000
222.311798	0.000000
222.404419	0.000000
222.497055	0.000000
222.589676	0.000000
222.682312	0.000000
222.774933	0.000000
222.867569	0.000000
222.960205	0.000000
223.052841	0.000000
223.145462	0.000000
223.238098	0.000000
223.330734	0.000000
223.423386	0.000000
223.516022	0.000000
223.608658	0.000000
223.701309	0.000000
223.793945	0.000000
223.886581	0.000000
223.979218	0.000000
224.071869	0.000000
224.164505	0.000000
224.257156	0.000000
224.349792	0.000000
224.442444	0.000000
224.535095	0.000000
224.627747	0.000000
224.720398	0.000000
224.813034	0.000000
224.905685	0.000000
224.998337	145.040000
225.090988	144.920000
225.183640	145.020000
225.276291	145.080000
225.368942	145.580000
225.461594	146.180000
225.554245	146.320000
225.646912	146.100000
225.739578	146.700000
225.832230	147.180000
225.924896	146.140000
226.017548	146.420000
226.110199	147.140000
226.202866	146.140000
226.295532	145.680000
226.388184	145.740000
226.480850	145.180000
226.573517	144.320000
226.666168	144.980000
226.758835	145.560000
226.851501	146.500000
226.944183	146.740000
227.036850	146.600000
227.129517	146.420000
227.222183	145.940000
227.314850	145.480000
227.407516	145.900000
227.500198	146.920000
227.592865	146.300000
227.685532	146.120000
227.778214	145.620000
227.870880	145.600000
227.963562	145.480000
228.056229	146.080000
228.148926	146.120000
228.241592	147.160000
228.334274	146.880000
228.426956	146.780000
228.519638	146.980000
228.612305	146.600000
228.704987	146.280000
228.797668	146.320000
228.890350	145.940000
228.983032	144.860000
229.075714	145.920000
229.168396	145.360000
229.261108	144.940000
229.353790	144.760000
229.446472	145.740000
229.539169	145.140000
229.631851	144.860000
229.724533	145.220000
229.817230	145.380000
229.909912	145.980000
230.002609	145.900000
230.095306	146.220000
230.187988	146.080000
230.280685	146.260000
230.373383	144.960000
230.466095	145.000000
230.558792	145.540000
230.651474	145.620000
230.744171	145.480000
230.836868	145.660000
230.929581	145.840000
231.022278	145.720000
231.114975	145.780000
231.207672	145.760000
231.300369	146.320000
231.393082	146.300000
231.485779	145.980000
231.578506	145.900000
231.671204	145.980000
231.763916	145.520000
231.856613	145.440000
231.949326	145.760000
232.042023	145.900000
232.134735	145.640000
232.227448	145.760000
232.320160	145.940000
232.412872	146.100000
232.505585	146.720000
232.598297	147.380000
232.691010	147.260000
232.783722	146.880000
232.876450	147.020000
232.969162	146.380000
233.061874	145.740000
233.154587	145.500000
233.247314	145.700000
233.340027	145.020000
233.432739	145.520000
233.525467	145.520000
233.618179	146.200000
233.710907	146.000000
233.803635	146.620000
233.896347	145.860000
233.989090	146.480000
234.081818	146.020000
234.174545	146.340000
234.267258	145.840000
234.359985	146.400000
234.452713	146.020000
234.545441	145.920000
234.638168	145.460000
234.730896	145.800000
234.823639	145.560000
234.916367	145.960000
235.009094	146.000000
235.101822	146.100000
235.194580	145.880000
235.287308	145.820000
235.380051	145.220000
235.472778	145.920000
235.565521	146.440000
235.658249	146.260000
235.750992	146.260000
235.843719	146.280000
235.936462	145.740000
236.029205	145.280000
236.121948	145.020000
236.214691	145.080000
236.307449	145.620000
236.400192	145.580000
236.492935	145.320000
236.585678	145.640000
236.678421	145.700000
236.771164	145.300000
236.863907	145.400000
236.956665	145.480000
237.049408	147.060000
237.142151	146.540000
237.234909	147.360000
237.327652	147.620000
237.420410	147.640000
237.513153	146.360000
237.605927	146.320000
237.698669	145.840000
237.791428	145.100000
237.884186	145.860000
237.976944	145.320000
238.069702	145.940000
238.162445	145.200000
238.255203	145.320000
238.347961	145.320000
238.440720	145.440000
238.533478	145.220000
238.626266	145.260000
238.719025	145.840000
238.811783	145.340000
238.904541	145.240000
238.997314	144.720000
239.090073	144.540000
239.182831	144.560000
239.275604	145.360000
239.368362	145.360000
239.461136	145.840000
239.553909	145.960000
239.646667	145.500000
239.739441	145.100000
239.832214	145.220000
239.925003	145.380000
240.017761	146.080000
240.110535	146.560000
240.203308	145.820000
240.296082	146.000000
240.388855	145.800000
240.481628	145.820000
240.574417	146.020000
240.667191	146.380000
240.759964	146.080000
240.852737	146.080000
240.945526	145.760000
241.038315	145.380000
241.131088	145.400000
241.223877	145.840000
241.316650	145.640000
241.409439	145.460000
241.502228	145.060000
241.595001	145.640000
241.687790	145.480000
241.780579	145.520000
241.873367	146.160000
241.966141	146.600000
242.058929	145.640000
242.151718	145.880000
242.244507	146.300000
242.337311	145.520000
242.430099	146.000000
242.522903	146.300000
242.615692	145.680000
242.708481	145.500000
242.801270	146.040000
242.894073	145.700000
242.986862	145.860000
243.079651	146.420000
243.172455	146.340000
243.265244	146.440000
243.358063	145.720000
243.450867	145.960000
243.543655	145.940000
243.636459	145.800000
243.729263	146.000000
243.822067	146.280000
243.914856	146.320000
244.007660	146.440000
244.100464	146.440000
244.193268	145.660000
244.286072	145.640000
244.378876	145.000000
244.471680	144.460000
244.564499	145.220000
244.657318	146.220000
244.750122	146.620000
244.842926	146.540000
244.935745	147.100000
245.028549	146.440000
245.121368	145.700000
245.214172	145.740000
245.306992	146.400000
245.399796	145.840000
245.492615	145.780000
245.585434	145.660000
245.678253	145.460000
245.771072	145.080000
245.863892	145.640000
245.956711	146.080000
246.049530	146.220000
246.142349	145.860000
246.235168	145.720000
246.327988	146.320000
246.420807	145.740000
246.513626	145.840000
246.606445	145.820000
246.699280	145.980000
246.792099	145.520000
246.884918	145.480000
246.977753	145.040000
247.070587	145.300000
247.163422	145.440000
247.256241	145.300000
247.349075	145.960000
247.441895	146.260000
247.534729	146.400000
247.627563	146.260000
247.720383	146.800000
247.813217	146.320000
247.906052	146.020000
247.998886	146.060000
248.091736	146.000000
248.184570	145.300000
248.277405	145.420000
248.370239	146.660000
248.463074	147.360000
248.555908	147.600000
248.648743	147.280000
248.741592	147.380000
248.834427	146.440000
248.927261	145.080000
249.020111	145.360000
249.112946	146.040000
249.205795	145.720000
249.298630	145.780000
249.391495	146.300000
249.484344	145.720000
249.577179	145.500000
249.670029	145.700000
249.762878	146.240000
249.855728	146.400000
249.948563	146.560000
250.041412	146.120000
250.134262	146.460000
250.227112	146.460000
250.319962	146.360000
250.412827	146.360000
250.505692	146.040000
250.598541	145.980000
250.691391	145.320000
250.784241	145.620000
250.877106	145.740000
250.969955	146.000000
251.062805	146.380000
251.155670	146.740000
251.248520	146.140000
251.341385	146.440000
251.434235	146.540000
251.527100	146.040000
251.619965	145.760000
251.712814	146.460000
251.805695	146.120000
251.898560	146.340000
251.991425	146.680000
252.084290	147.040000
252.177155	146.260000
252.270020	146.200000
252.362885	146.000000
252.455750	145.840000
252.548615	145.580000
252.641479	145.600000
252.734360	145.460000
252.827240	145.320000
252.920105	145.100000
253.012970	144.740000
253.105850	144.660000
253.198715	144.400000
253.291595	144.560000
253.384460	144.520000
253.477341	144.640000
253.570221	145.260000
253.663086	145.420000
253.755966	146.160000
253.848846	146.260000
253.941727	146.600000
254.034592	146.120000
254.127472	145.920000
254.220367	145.520000
254.313248	145.500000
254.406128	145.060000
254.499008	145.320000
254.591904	146.100000
254.684784	146.400000
254.777664	146.440000
254.870544	146.440000
254.963440	146.600000
255.056335	146.520000
255.149216	145.840000
255.242111	146.420000
255.334991	146.800000
255.427887	146.600000
255.520767	146.540000
255.613663	147.260000
255.706558	146.320000
255.799438	145.920000
255.892334	145.580000
255.985229	145.320000
256.078125	144.880000
256.171021	145.240000
256.263916	146.120000
256.356812	146.660000
256.449707	146.860000
256.542603	146.740000
256.635498	147.220000
256.728394	146.760000
256.821289	146.440000
256.914215	146.700000
257.007080	146.880000
257.100006	146.520000
257.192932	146.820000
257.285828	147.180000
257.378723	146.840000
257.471619	146.620000
257.564545	146.100000
257.657440	146.100000
257.750336	146.320000
257.843262	146.180000
257.936157	147.320000
258.029053	148.100000
258.121979	147.920000
258.214874	147.700000
258.307800	147.720000
258.400696	146.560000
258.493622	146.180000
258.586517	145.400000
258.679443	145.560000
258.772339	145.240000
258.865265	145.240000
258.958160	144.840000
259.051086	145.640000
259.144012	145.380000
259.236938	146.020000
259.329834	146.260000
259.422791	146.220000
259.515717	145.680000
259.608612	145.300000
259.701538	145.300000
259.794464	145.040000
259.887390	145.240000
259.980316	145.340000
260.073212	145.280000
260.166138	144.520000
260.259064	145.120000
260.351990	145.300000
260.444916	145.340000
260.537842	146.120000
260.630768	146.680000
260.723694	146.260000
260.816620	146.300000
260.909546	146.300000
261.002472	145.720000
261.095398	145.380000
261.188354	145.380000
261.281281	144.920000
261.374207	145.120000
261.467133	145.720000
261.560089	145.960000
261.653015	145.440000
261.745972	146.220000
261.838867	146.440000
261.931824	146.480000
262.024780	145.940000
262.117706	146.420000
262.210663	146.380000
262.303589	146.360000
262.396515	146.080000
262.489471	147.100000
262.582397	146.800000
262.675354	146.460000
262.768280	146.280000
262.861237	146.360000
262.954163	145.920000
263.047119	146.200000
263.140045	145.900000
263.233002	145.740000
263.325958	145.700000
263.418884	145.400000
263.511841	145.140000
263.604797	145.300000
263.697723	145.300000
263.790680	145.280000
263.883636	145.920000
263.976593	146.000000
264.069550	146.240000
264.162476	146.060000
264.255463	145.880000
264.348419	145.420000
264.441376	145.760000
264.534332	145.040000
264.627289	145.340000
264.720245	145.720000
264.813202	145.500000
264.906158	145.640000
264.999115	146.460000
265.092072	146.140000
265.185028	146.480000
265.277985	146.660000
265.370941	146.340000
265.463898	145.900000
265.556854	146.120000
265.649811	145.000000
265.742798	145.100000
265.835754	145.560000
265.928711	145.880000
266.021667	145.860000
266.114655	146.320000
266.207611	146.540000
266.300568	145.800000
266.393585	145.620000
266.486511	146.060000
266.579498	145.220000
266.672485	144.920000
266.765442	145.120000
266.858429	145.720000
266.951385	145.020000
267.044342	145.540000
267.137329	145.760000
267.230316	146.140000
267.323273	145.440000
267.416260	146.140000
267.509216	146.120000
267.602203	145.980000
267.695160	146.280000
267.788147	146.620000
267.881134	146.160000
267.974091	146.420000
268.067078	146.180000
268.160065	145.500000
268.253052	145.080000
268.346008	145.360000
268.438995	144.960000
268.531982	145.100000
268.624969	145.240000
268.717987	145.620000
268.810944	145.240000
268.903961	145.780000
268.996948	145.720000
269.089905	146.180000
269.182892	146.320000
269.275879	146.920000
269.368866	146.360000
269.461853	146.580000
269.554871	146.280000
269.647858	145.860000
269.740845	146.040000
269.833832	146.340000
269.926819	146.160000
270.019806	146.240000
270.112793	145.780000
270.205811	145.580000
270.298798	145.420000
270.391785	146.000000
270.484772	145.560000
270.577789	146.240000
270.670776	145.520000
270.763763	145.620000
270.856750	145.620000
270.949768	145.340000
271.042786	145.280000
271.135773	145.580000
271.228790	145.740000
271.321808	144.980000
271.414795	144.980000
271.507782	144.540000
271.600800	144.260000
271.693817	144.440000
271.786804	144.860000
271.879822	145.260000
271.972809	145.640000
272.065826	146.260000
272.158844	145.720000
272.251831	146.260000
272.344849	146.420000
272.437866	146.020000
272.530853	145.880000
272.623871	146.460000
272.716888	145.580000
272.809906	145.760000
272.902893	145.720000
272.995911	145.040000
273.088928	145.080000
273.181946	145.320000
273.274963	144.520000
273.367981	144.720000
273.460999	145.060000
273.554047	145.320000
273.647003	145.740000
273.740051	146.300000
273.833069	146.760000
273.926086	147.140000
274.019135	146.660000
274.112152	146.380000
274.205170	146.180000
274.298187	146.320000
274.391205	145.860000
274.484222	145.800000
274.577240	145.820000
274.670258	145.840000
274.763306	145.660000
274.856323	146.260000
274.949341	146.500000
275.042358	146.820000
275.135406	146.660000
275.228424	146.760000
275.321442	146.540000
275.414490	146.100000
275.507507	146.000000
275.600525	146.660000
275.693573	146.300000
275.786591	145.900000
275.879669	146.200000
275.972656	145.540000
276.065735	144.960000
276.158752	145.340000
276.251801	146.020000
276.344818	146.080000
276.437866	146.700000
276.530884	146.440000
276.623932	145.680000
276.716980	145.620000
276.809998	145.560000
276.903046	145.380000
276.996094	146.420000
277.089111	147.060000
277.182159	147.440000
277.275208	146.840000
277.368256	146.640000
277.461304	146.120000
277.554321	145.540000
277.647369	145.080000
277.740417	145.360000
277.833466	145.540000
277.926514	145.340000
278.019562	145.980000
278.112610	145.620000
278.205688	145.940000
278.298706	145.920000
278.391785	145.800000
278.484833	145.320000
278.577881	145.300000
278.670929	145.660000
278.763977	145.880000
278.857025	146.600000
278.950073	146.760000
279.043121	146.740000
279.136169	146.160000
279.229248	145.940000
279.322296	145.580000
279.415344	145.660000
279.508392	145.660000
279.601440	145.800000
279.694519	145.580000
279.787567	145.320000
279.880615	145.040000
279.973694	144.740000
280.066742	144.660000
280.159790	144.840000
280.252869	144.620000
280.345917	144.900000
280.438995	145.100000
280.532074	144.920000
280.625122	145.040000
280.718201	146.080000
280.811279	146.200000
280.904327	146.320000
280.997406	146.800000
281.090454	146.900000
281.183533	146.120000
281.276581	145.960000
281.369659	145.560000
281.462738	145.560000
281.555786	145.520000
281.648865	145.760000
281.741943	145.580000
281.835022	146.260000
281.928070	145.820000
282.021149	145.320000
282.114227	144.820000
282.207306	144.840000
282.300385	144.860000
282.393433	145.260000
282.486511	145.420000
282.579590	146.100000
282.672668	146.480000
282.765747	146.000000
282.858856	145.680000
282.951904	145.820000
283.045013	145.860000
283.138062	145.960000
283.231171	146.540000
283.324249	147.140000
283.417328	147.300000
283.510406	147.240000
283.603485	146.860000
283.696564	146.300000
283.789642	146.020000
283.882751	145.800000
283.975830	146.380000
284.068909	146.180000
284.161987	146.920000
284.255066	146.320000
284.348175	146.480000
284.441254	145.780000
284.534332	146.460000
284.627441	146.160000
284.720520	145.900000
284.813599	145.940000
284.906708	146.040000
284.999786	145.020000
285.092896	144.660000
285.185974	145.980000
285.279053	145.180000
285.372192	145.160000
285.465240	145.980000
285.558380	146.100000
285.651459	145.640000
285.744568	146.960000
285.837677	146.820000
285.930756	146.600000
286.023865	146.760000
286.116943	146.500000
286.210052	146.440000
286.303162	146.160000
286.396240	146.160000
286.489349	145.480000
286.582458	145.740000
286.675568	145.120000
286.768646	145.340000
286.861755	145.440000
286.954865	146.620000
287.047974	146.040000
287.141083	146.220000
287.234161	146.240000
287.327271	146.600000
287.420380	146.440000
287.513519	146.480000
287.606598	146.120000
287.699738	146.100000
287.792816	145.580000
287.885956	145.420000
287.979034	145.220000
288.072174	145.760000
288.165283	145.460000
288.258392	145.760000
288.351501	144.840000
288.444611	145.560000
288.537720	145.600000
288.630859	145.780000
288.723969	146.060000
288.817078	147.100000
288.910187	146.760000
289.003296	146.360000
289.096436	146.040000
289.189545	145.480000
289.282654	144.740000
289.375763	145.140000
289.468903	145.640000
289.562012	146.020000
289.655121	146.220000
289.748260	146.440000
289.841400	146.500000
289.934509	146.140000
290.027649	146.300000
290.120728	145.800000
290.213898	145.800000
290.306976	145.780000
290.400146	145.880000
290.493256	145.500000
290.586395	146.020000
290.679535	146.280000
290.772644	145.760000
290.865784	144.900000
290.958893	145.000000
291.052032	144.660000
291.145172	144.660000
291.238281	144.580000
291.331421	145.160000
291.424561	145.600000
291.517670	145.760000
291.610809	145.600000
291.703949	145.420000
291.797089	145.720000
291.890228	145.300000
291.983337	144.920000
292.076477	145.020000
292.169617	145.660000
292.262756	145.340000
292.355927	145.060000
292.449036	145.220000
292.542206	145.360000
292.635315	145.340000
292.728485	145.720000
292.821625	145.580000
292.914764	146.500000
293.007904	146.320000
293.101044	146.100000
293.194183	145.980000
293.287323	146.240000
293.380463	145.520000
293.473602	145.440000
293.566742	146.020000
293.659882	146.460000
293.753021	146.620000
293.846191	146.700000
293.939331	146.380000
294.032471	145.960000
294.125610	145.300000
294.218781	145.880000
294.311920	146.120000
294.405060	146.260000
294.498230	146.260000
294.591370	146.340000
294.684540	145.520000
294.777679	145.020000
294.870850	145.300000
294.963959	145.240000
295.057159	145.080000
295.150299	145.660000
295.243469	145.680000
295.336609	145.080000
295.429779	145.000000
295.522919	145.460000
295.616089	145.200000
295.709229	145.920000
295.802399	146.220000
295.895569	146.120000
295.988708	145.780000
296.081879	145.900000
296.175018	145.280000
296.268188	145.600000
296.361359	146.020000
296.454529	146.200000
296.547668	145.940000
296.640839	146.360000
296.734009	145.800000
296.827179	145.780000
296.920319	146.080000
297.013519	146.100000
297.106659	145.880000
297.199860	146.260000
297.292999	146.260000
297.386200	145.600000
297.479309	145.480000
297.572510	145.540000
297.665680	145.100000
297.758850	145.040000
297.852020	145.300000
297.945190	145.160000
298.038361	144.760000
298.131531	145.800000
298.224701	145.380000
298.317871	144.880000
298.411072	144.780000
298.504242	144.900000
298.597412	144.440000
298.690582	144.680000
298.783752	145.180000
298.876923	145.640000
298.970093	145.620000
299.063293	145.840000
299.156464	146.400000
299.249634	146.540000
299.342834	146.640000
299.436005	147.160000
299.529205	147.000000
299.622345	146.800000
299.715576	146.140000
299.808716	146.040000
299.901917	145.820000
299.995117	145.800000
300.088287	145.880000
300.181488	146.040000
300.274658	145.720000
300.367828	145.540000
300.461029	145.500000
300.554199	145.520000
300.647400	145.480000
300.740601	146.100000
300.833771	145.880000
300.926971	146.240000
301.020142	145.800000
301.113342	145.760000
301.206512	145.400000
301.299713	145.900000
301.392914	145.800000
301.486084	146.040000
301.579285	146.240000
301.672516	146.740000
301.765686	146.500000
301.858887	146.040000
301.952057	145.820000
302.045288	145.940000
302.138458	145.620000
302.231659	145.180000
302.324860	145.580000
302.418060	145.660000
302.511261	145.640000
302.604462	145.580000
302.697662	145.820000
302.790863	145.420000
302.884064	145.000000
302.977264	144.900000
303.070465	145.080000
303.163666	145.760000
303.256866	146.300000
303.350067	146.480000
303.443268	146.680000
303.536469	146.940000
303.629669	146.160000
303.722870	146.100000
303.816071	146.000000
303.909271	146.100000
304.002472	144.880000
304.095673	144.860000
304.188934	144.100000
304.282104	144.920000
304.375336	144.660000
304.468506	145.060000
304.561768	144.860000
304.654968	145.560000
304.748169	145.140000
304.841370	145.100000
304.934601	145.420000
305.027802	145.820000
305.121002	145.560000
305.214233	145.180000
305.307434	145.220000
305.400665	145.920000
305.493866	145.620000
