Model Number: SPM-002-B   
Serial Number: 70087108
Firmware Version: 004.15.4
Exposure Time: 100000.000000us
Data Taken on: 11-12-2020 19:32:04.449
Wavelength	Amplitude
221.570786	0.000000
221.663406	0.000000
221.756027	0.000000
221.848648	0.000000
221.941269	0.000000
222.033905	0.000000
222.126526	0.000000
222.219162	0.000000
222.311798	0.000000
222.404419	0.000000
222.497055	0.000000
222.589676	0.000000
222.682312	0.000000
222.774933	0.000000
222.867569	0.000000
222.960205	0.000000
223.052841	0.000000
223.145462	0.000000
223.238098	0.000000
223.330734	0.000000
223.423386	0.000000
223.516022	0.000000
223.608658	0.000000
223.701309	0.000000
223.793945	0.000000
223.886581	0.000000
223.979218	0.000000
224.071869	0.000000
224.164505	0.000000
224.257156	0.000000
224.349792	0.000000
224.442444	0.000000
224.535095	0.000000
224.627747	0.000000
224.720398	0.000000
224.813034	0.000000
224.905685	0.000000
224.998337	144.800000
225.090988	144.460000
225.183640	144.680000
225.276291	144.760000
225.368942	145.220000
225.461594	145.680000
225.554245	145.860000
225.646912	145.760000
225.739578	146.140000
225.832230	145.900000
225.924896	145.040000
226.017548	145.420000
226.110199	145.860000
226.202866	145.100000
226.295532	145.040000
226.388184	145.040000
226.480850	144.260000
226.573517	143.800000
226.666168	144.160000
226.758835	144.360000
226.851501	145.420000
226.944183	145.580000
227.036850	145.380000
227.129517	145.260000
227.222183	145.360000
227.314850	144.820000
227.407516	145.300000
227.500198	146.140000
227.592865	145.840000
227.685532	145.280000
227.778214	145.020000
227.870880	145.300000
227.963562	145.600000
228.056229	146.000000
228.148926	146.480000
228.241592	147.680000
228.334274	147.260000
228.426956	146.700000
228.519638	146.880000
228.612305	146.300000
228.704987	145.780000
228.797668	145.660000
228.890350	145.320000
228.983032	144.880000
229.075714	145.860000
229.168396	145.660000
229.261108	145.500000
229.353790	145.900000
229.446472	146.160000
229.539169	145.640000
229.631851	145.020000
229.724533	144.980000
229.817230	145.000000
229.909912	145.800000
230.002609	145.920000
230.095306	146.300000
230.187988	146.440000
230.280685	146.160000
230.373383	144.920000
230.466095	144.660000
230.558792	144.720000
230.651474	145.040000
230.744171	145.100000
230.836868	145.260000
230.929581	145.540000
231.022278	145.600000
231.114975	145.380000
231.207672	145.160000
231.300369	145.660000
231.393082	145.840000
231.485779	145.840000
231.578506	145.860000
231.671204	146.100000
231.763916	146.000000
231.856613	145.560000
231.949326	145.580000
232.042023	145.420000
232.134735	145.140000
232.227448	144.400000
232.320160	144.680000
232.412872	144.500000
232.505585	145.320000
232.598297	145.840000
232.691010	146.140000
232.783722	145.900000
232.876450	146.740000
232.969162	146.140000
233.061874	145.560000
233.154587	145.520000
233.247314	145.860000
233.340027	144.820000
233.432739	144.900000
233.525467	144.880000
233.618179	144.940000
233.710907	144.360000
233.803635	145.200000
233.896347	144.700000
233.989090	145.520000
234.081818	145.880000
234.174545	146.100000
234.267258	145.400000
234.359985	145.980000
234.452713	145.380000
234.545441	145.000000
234.638168	145.120000
234.730896	145.460000
234.823639	145.340000
234.916367	146.000000
235.009094	146.160000
235.101822	146.340000
235.194580	146.640000
235.287308	146.500000
235.380051	145.940000
235.472778	146.260000
235.565521	146.440000
235.658249	145.960000
235.750992	145.960000
235.843719	145.800000
235.936462	145.840000
236.029205	145.360000
236.121948	145.160000
236.214691	145.800000
236.307449	146.820000
236.400192	146.460000
236.492935	146.360000
236.585678	146.660000
236.678421	146.420000
236.771164	145.960000
236.863907	146.320000
236.956665	146.760000
237.049408	148.240000
237.142151	147.720000
237.234909	148.040000
237.327652	147.980000
237.420410	147.680000
237.513153	146.320000
237.605927	146.300000
237.698669	145.680000
237.791428	145.020000
237.884186	145.360000
237.976944	144.960000
238.069702	145.440000
238.162445	145.160000
238.255203	145.580000
238.347961	145.460000
238.440720	145.780000
238.533478	145.420000
238.626266	145.220000
238.719025	145.700000
238.811783	145.680000
238.904541	145.480000
238.997314	145.620000
239.090073	145.380000
239.182831	145.040000
239.275604	145.620000
239.368362	145.420000
239.461136	145.400000
239.553909	145.660000
239.646667	145.600000
239.739441	145.140000
239.832214	145.740000
239.925003	145.800000
240.017761	146.640000
240.110535	146.920000
240.203308	146.420000
240.296082	145.940000
240.388855	145.800000
240.481628	145.480000
240.574417	145.480000
240.667191	145.940000
240.759964	145.600000
240.852737	145.680000
240.945526	145.300000
241.038315	145.240000
241.131088	145.140000
241.223877	145.620000
241.316650	145.460000
241.409439	146.040000
241.502228	145.420000
241.595001	145.940000
241.687790	145.660000
241.780579	145.420000
241.873367	145.300000
241.966141	145.700000
242.058929	145.160000
242.151718	145.720000
242.244507	146.280000
242.337311	145.660000
242.430099	146.180000
242.522903	146.360000
242.615692	145.960000
242.708481	146.040000
242.801270	146.640000
242.894073	146.240000
242.986862	146.280000
243.079651	146.780000
243.172455	146.440000
243.265244	146.420000
243.358063	145.940000
243.450867	145.900000
243.543655	145.560000
243.636459	145.560000
243.729263	145.600000
243.822067	146.040000
243.914856	146.420000
244.007660	146.920000
244.100464	146.920000
244.193268	146.500000
244.286072	146.320000
244.378876	145.760000
244.471680	145.100000
244.564499	145.380000
244.657318	146.060000
244.750122	146.360000
244.842926	145.980000
244.935745	146.500000
245.028549	146.040000
245.121368	145.320000
245.214172	145.040000
245.306992	145.360000
245.399796	145.080000
245.492615	145.360000
245.585434	145.700000
245.678253	145.800000
245.771072	145.880000
245.863892	146.360000
245.956711	146.520000
246.049530	146.300000
246.142349	146.140000
246.235168	146.280000
246.327988	146.380000
246.420807	146.080000
246.513626	146.040000
246.606445	145.760000
246.699280	145.500000
246.792099	145.160000
246.884918	144.900000
246.977753	144.740000
247.070587	145.080000
247.163422	145.020000
247.256241	144.600000
247.349075	144.980000
247.441895	145.220000
247.534729	145.080000
247.627563	145.160000
247.720383	145.860000
247.813217	145.620000
247.906052	145.520000
247.998886	145.560000
248.091736	145.500000
248.184570	145.160000
248.277405	145.220000
248.370239	145.800000
248.463074	146.620000
248.555908	146.880000
248.648743	146.560000
248.741592	146.700000
248.834427	146.280000
248.927261	145.120000
249.020111	145.400000
249.112946	146.000000
249.205795	145.400000
249.298630	145.660000
249.391495	145.920000
249.484344	145.400000
249.577179	145.540000
249.670029	146.000000
249.762878	146.280000
249.855728	146.560000
249.948563	146.380000
250.041412	145.340000
250.134262	145.700000
250.227112	145.380000
250.319962	145.260000
250.412827	145.740000
250.505692	145.620000
250.598541	145.380000
250.691391	145.100000
250.784241	145.260000
250.877106	145.400000
250.969955	145.660000
251.062805	145.920000
251.155670	146.360000
251.248520	146.020000
251.341385	146.000000
251.434235	145.880000
251.527100	145.740000
251.619965	145.340000
251.712814	145.880000
251.805695	145.600000
251.898560	145.660000
251.991425	145.700000
252.084290	146.200000
252.177155	145.640000
252.270020	145.300000
252.362885	145.780000
252.455750	145.860000
252.548615	145.000000
252.641479	144.980000
252.734360	144.960000
252.827240	144.620000
252.920105	144.680000
253.012970	145.000000
253.105850	145.460000
253.198715	145.560000
253.291595	145.760000
253.384460	145.300000
253.477341	145.380000
253.570221	145.020000
253.663086	144.940000
253.755966	145.400000
253.848846	145.540000
253.941727	145.680000
254.034592	145.740000
254.127472	145.300000
254.220367	145.040000
254.313248	145.320000
254.406128	144.620000
254.499008	144.700000
254.591904	145.680000
254.684784	145.920000
254.777664	145.820000
254.870544	145.860000
254.963440	145.780000
255.056335	145.500000
255.149216	144.980000
255.242111	145.280000
255.334991	145.800000
255.427887	146.060000
255.520767	146.340000
255.613663	146.560000
255.706558	145.800000
255.799438	145.520000
255.892334	145.180000
255.985229	145.040000
256.078125	144.700000
256.171021	145.100000
256.263916	145.820000
256.356812	146.180000
256.449707	146.120000
256.542603	146.400000
256.635498	146.860000
256.728394	146.140000
256.821289	145.800000
256.914215	146.160000
257.007080	146.280000
257.100006	145.940000
257.192932	146.600000
257.285828	146.820000
257.378723	146.400000
257.471619	146.240000
257.564545	145.580000
257.657440	145.520000
257.750336	146.040000
257.843262	145.720000
257.936157	146.680000
258.029053	147.140000
258.121979	146.800000
258.214874	146.120000
258.307800	145.880000
258.400696	144.660000
258.493622	144.900000
258.586517	144.600000
258.679443	145.100000
258.772339	145.040000
258.865265	144.880000
258.958160	144.540000
259.051086	145.280000
259.144012	144.860000
259.236938	145.940000
259.329834	146.300000
259.422791	146.000000
259.515717	145.220000
259.608612	145.180000
259.701538	144.680000
259.794464	144.660000
259.887390	144.880000
259.980316	144.960000
260.073212	144.580000
260.166138	143.880000
260.259064	144.160000
260.351990	144.520000
260.444916	144.540000
260.537842	144.900000
260.630768	145.820000
260.723694	145.820000
260.816620	145.720000
260.909546	145.540000
261.002472	145.240000
261.095398	144.800000
261.188354	144.440000
261.281281	143.940000
261.374207	144.400000
261.467133	145.120000
261.560089	145.280000
261.653015	145.100000
261.745972	145.940000
261.838867	146.240000
261.931824	146.540000
262.024780	146.100000
262.117706	146.580000
262.210663	146.420000
262.303589	146.020000
262.396515	145.720000
262.489471	146.500000
262.582397	146.020000
262.675354	145.620000
262.768280	145.500000
262.861237	145.220000
262.954163	145.300000
263.047119	145.780000
263.140045	145.720000
263.233002	145.760000
263.325958	145.720000
263.418884	145.120000
263.511841	144.900000
263.604797	145.000000
263.697723	145.100000
263.790680	145.320000
263.883636	145.660000
263.976593	145.200000
264.069550	145.220000
264.162476	144.980000
264.255463	144.620000
264.348419	144.460000
264.441376	145.040000
264.534332	144.740000
264.627289	144.760000
264.720245	145.280000
264.813202	144.960000
264.906158	145.220000
264.999115	145.760000
265.092072	145.700000
265.185028	146.240000
265.277985	146.540000
265.370941	145.720000
265.463898	145.540000
265.556854	145.680000
265.649811	144.340000
265.742798	144.440000
265.835754	144.740000
265.928711	144.980000
266.021667	144.880000
266.114655	145.440000
266.207611	145.560000
266.300568	145.140000
266.393585	144.640000
266.486511	145.160000
266.579498	144.440000
266.672485	144.040000
266.765442	144.160000
266.858429	144.780000
266.951385	144.060000
267.044342	144.260000
267.137329	144.420000
267.230316	144.760000
267.323273	144.340000
267.416260	145.220000
267.509216	145.280000
267.602203	145.060000
267.695160	145.660000
267.788147	145.700000
267.881134	144.840000
267.974091	145.260000
268.067078	145.300000
268.160065	145.040000
268.253052	144.940000
268.346008	145.200000
268.438995	144.840000
268.531982	145.080000
268.624969	144.720000
268.717987	144.880000
268.810944	145.020000
268.903961	145.120000
268.996948	144.860000
269.089905	145.240000
269.182892	145.280000
269.275879	145.200000
269.368866	145.000000
269.461853	145.240000
269.554871	145.020000
269.647858	145.140000
269.740845	145.560000
269.833832	145.860000
269.926819	145.660000
270.019806	145.680000
270.112793	145.000000
270.205811	145.080000
270.298798	144.800000
270.391785	145.220000
270.484772	145.080000
270.577789	145.460000
270.670776	144.780000
270.763763	144.900000
270.856750	144.780000
270.949768	144.640000
271.042786	144.860000
271.135773	145.160000
271.228790	145.340000
271.321808	145.020000
271.414795	144.700000
271.507782	144.260000
271.600800	143.700000
271.693817	143.940000
271.786804	144.240000
271.879822	144.920000
271.972809	145.180000
272.065826	145.980000
272.158844	145.540000
272.251831	145.880000
272.344849	145.720000
272.437866	145.640000
272.530853	145.340000
272.623871	145.520000
272.716888	144.880000
272.809906	145.180000
272.902893	145.180000
272.995911	144.860000
273.088928	144.660000
273.181946	144.620000
273.274963	144.060000
273.367981	143.700000
273.460999	143.900000
273.554047	144.340000
273.647003	145.140000
273.740051	145.140000
273.833069	145.600000
273.926086	146.040000
274.019135	145.760000
274.112152	145.100000
274.205170	145.420000
274.298187	145.260000
274.391205	144.460000
274.484222	144.340000
274.577240	144.400000
274.670258	144.120000
274.763306	144.040000
274.856323	144.520000
274.949341	144.900000
275.042358	145.480000
275.135406	145.460000
275.228424	145.760000
275.321442	145.840000
275.414490	145.260000
275.507507	145.420000
275.600525	146.080000
275.693573	145.640000
275.786591	145.240000
275.879669	145.660000
275.972656	144.800000
276.065735	144.760000
276.158752	145.340000
276.251801	146.120000
276.344818	146.440000
276.437866	146.720000
276.530884	146.060000
276.623932	145.520000
276.716980	145.380000
276.809998	145.080000
276.903046	145.160000
276.996094	146.180000
277.089111	146.740000
277.182159	146.980000
277.275208	146.740000
277.368256	146.520000
277.461304	145.780000
277.554321	145.260000
277.647369	144.980000
277.740417	145.220000
277.833466	145.220000
277.926514	145.120000
278.019562	145.740000
278.112610	145.200000
278.205688	145.160000
278.298706	145.340000
278.391785	145.300000
278.484833	144.540000
278.577881	144.800000
278.670929	144.900000
278.763977	144.940000
278.857025	145.420000
278.950073	145.720000
279.043121	145.600000
279.136169	145.600000
279.229248	145.220000
279.322296	144.880000
279.415344	144.780000
279.508392	144.560000
279.601440	144.480000
279.694519	144.460000
279.787567	144.460000
279.880615	144.300000
279.973694	144.360000
280.066742	144.220000
280.159790	144.540000
280.252869	144.440000
280.345917	144.840000
280.438995	144.860000
280.532074	145.000000
280.625122	145.160000
280.718201	146.020000
280.811279	145.980000
280.904327	146.140000
280.997406	145.920000
281.090454	145.940000
281.183533	145.060000
281.276581	144.940000
281.369659	144.620000
281.462738	145.000000
281.555786	145.000000
281.648865	145.120000
281.741943	144.960000
281.835022	145.740000
281.928070	145.420000
282.021149	145.320000
282.114227	145.320000
282.207306	145.540000
282.300385	145.400000
282.393433	145.300000
282.486511	145.140000
282.579590	145.760000
282.672668	146.000000
282.765747	145.680000
282.858856	145.980000
282.951904	146.100000
283.045013	146.020000
283.138062	146.020000
283.231171	146.240000
283.324249	146.440000
283.417328	146.560000
283.510406	145.920000
283.603485	145.920000
283.696564	145.800000
283.789642	145.780000
283.882751	145.520000
283.975830	146.120000
284.068909	145.600000
284.161987	146.260000
284.255066	145.540000
284.348175	145.540000
284.441254	145.160000
284.534332	145.620000
284.627441	144.720000
284.720520	144.740000
284.813599	144.860000
284.906708	144.720000
284.999786	144.140000
285.092896	144.020000
285.185974	144.840000
285.279053	144.460000
285.372192	144.800000
285.465240	145.480000
285.558380	145.860000
285.651459	145.360000
285.744568	146.500000
285.837677	145.960000
285.930756	145.860000
286.023865	145.680000
286.116943	145.720000
286.210052	145.240000
286.303162	145.720000
286.396240	145.780000
286.489349	145.800000
286.582458	146.140000
286.675568	145.880000
286.768646	145.620000
286.861755	145.680000
286.954865	146.220000
287.047974	145.820000
287.141083	145.700000
287.234161	145.660000
287.327271	145.360000
287.420380	145.560000
287.513519	145.540000
287.606598	145.680000
287.699738	145.880000
287.792816	146.040000
287.885956	145.660000
287.979034	145.760000
288.072174	145.820000
288.165283	145.560000
288.258392	145.540000
288.351501	145.080000
288.444611	145.360000
288.537720	145.400000
288.630859	145.360000
288.723969	145.280000
288.817078	145.680000
288.910187	145.220000
289.003296	144.860000
289.096436	144.520000
289.189545	144.620000
289.282654	144.360000
289.375763	145.040000
289.468903	145.580000
289.562012	146.160000
289.655121	146.060000
289.748260	146.140000
289.841400	145.940000
289.934509	145.700000
290.027649	145.980000
290.120728	145.940000
290.213898	146.100000
290.306976	145.880000
290.400146	146.040000
290.493256	145.360000
290.586395	145.480000
290.679535	145.480000
290.772644	145.360000
290.865784	144.740000
290.958893	145.000000
291.052032	144.800000
291.145172	144.640000
291.238281	144.400000
291.331421	144.480000
291.424561	144.660000
291.517670	144.580000
291.610809	144.740000
291.703949	145.080000
291.797089	145.460000
291.890228	145.020000
291.983337	145.240000
292.076477	145.040000
292.169617	145.060000
292.262756	144.840000
292.355927	145.060000
292.449036	144.660000
292.542206	144.840000
292.635315	144.840000
292.728485	144.980000
292.821625	144.740000
292.914764	145.880000
293.007904	145.840000
293.101044	145.860000
293.194183	146.040000
293.287323	146.300000
293.380463	145.640000
293.473602	145.380000
293.566742	145.820000
293.659882	145.860000
293.753021	146.000000
293.846191	145.680000
293.939331	145.700000
294.032471	145.460000
294.125610	145.160000
294.218781	145.300000
294.311920	145.780000
294.405060	145.940000
294.498230	145.540000
294.591370	145.780000
294.684540	145.140000
294.777679	144.800000
294.870850	145.000000
294.963959	145.060000
295.057159	144.800000
295.150299	145.180000
295.243469	145.020000
295.336609	144.560000
295.429779	144.400000
295.522919	144.640000
295.616089	144.680000
295.709229	145.480000
295.802399	145.660000
295.895569	145.620000
295.988708	145.140000
296.081879	145.240000
296.175018	144.600000
296.268188	144.620000
296.361359	144.980000
296.454529	145.240000
296.547668	145.020000
296.640839	145.280000
296.734009	144.940000
296.827179	144.940000
296.920319	145.440000
297.013519	145.520000
297.106659	145.560000
297.199860	145.720000
297.292999	145.860000
297.386200	145.320000
297.479309	144.920000
297.572510	145.000000
297.665680	144.600000
297.758850	144.220000
297.852020	144.240000
297.945190	144.580000
298.038361	144.040000
298.131531	145.300000
298.224701	145.220000
298.317871	145.080000
298.411072	144.640000
298.504242	144.400000
298.597412	143.920000
298.690582	144.380000
298.783752	144.300000
298.876923	145.040000
298.970093	145.240000
299.063293	145.680000
299.156464	145.800000
299.249634	146.180000
299.342834	146.060000
299.436005	146.500000
299.529205	145.860000
299.622345	145.640000
299.715576	145.040000
299.808716	144.740000
299.901917	144.460000
299.995117	144.880000
300.088287	145.360000
300.181488	145.420000
300.274658	145.500000
300.367828	145.800000
300.461029	145.560000
300.554199	145.460000
300.647400	145.940000
300.740601	146.420000
300.833771	145.940000
300.926971	146.280000
301.020142	145.800000
301.113342	145.480000
301.206512	145.300000
301.299713	146.080000
301.392914	145.860000
301.486084	146.600000
301.579285	146.740000
301.672516	146.960000
301.765686	146.200000
301.858887	145.800000
301.952057	145.220000
302.045288	145.120000
302.138458	144.700000
302.231659	144.740000
302.324860	145.040000
302.418060	144.940000
302.511261	144.960000
302.604462	145.220000
302.697662	145.300000
302.790863	144.860000
302.884064	144.580000
302.977264	144.740000
303.070465	144.700000
303.163666	145.520000
303.256866	146.160000
303.350067	146.360000
303.443268	146.100000
303.536469	146.080000
303.629669	145.340000
303.722870	145.320000
303.816071	145.020000
303.909271	145.540000
304.002472	145.200000
304.095673	145.140000
304.188934	144.220000
304.282104	145.320000
304.375336	145.020000
304.468506	145.140000
304.561768	145.120000
304.654968	146.160000
304.748169	145.360000
304.841370	145.200000
304.934601	145.380000
305.027802	145.180000
305.121002	144.600000
305.214233	144.540000
305.307434	144.440000
305.400665	145.080000
305.493866	144.720000
