Model Number: SPM-002-B   
Serial Number: 70087108
Firmware Version: 004.15.4
Exposure Time: 100000.000000us
Data Taken on: 11-12-2020 19:32:10.216
Wavelength	Amplitude
221.570786	0.000000
221.663406	0.000000
221.756027	0.000000
221.848648	0.000000
221.941269	0.000000
222.033905	0.000000
222.126526	0.000000
222.219162	0.000000
222.311798	0.000000
222.404419	0.000000
222.497055	0.000000
222.589676	0.000000
222.682312	0.000000
222.774933	0.000000
222.867569	0.000000
222.960205	0.000000
223.052841	0.000000
223.145462	0.000000
223.238098	0.000000
223.330734	0.000000
223.423386	0.000000
223.516022	0.000000
223.608658	0.000000
223.701309	0.000000
223.793945	0.000000
223.886581	0.000000
223.979218	0.000000
224.071869	0.000000
224.164505	0.000000
224.257156	0.000000
224.349792	0.000000
224.442444	0.000000
224.535095	0.000000
224.627747	0.000000
224.720398	0.000000
224.813034	0.000000
224.905685	0.000000
224.998337	144.800000
225.090988	144.740000
225.183640	144.640000
225.276291	144.080000
225.368942	144.420000
225.461594	144.900000
225.554245	145.300000
225.646912	145.180000
225.739578	145.720000
225.832230	145.940000
225.924896	145.320000
226.017548	145.520000
226.110199	146.360000
226.202866	145.640000
226.295532	145.520000
226.388184	145.580000
226.480850	144.900000
226.573517	144.300000
226.666168	145.120000
226.758835	145.480000
226.851501	145.940000
226.944183	146.140000
227.036850	145.700000
227.129517	145.380000
227.222183	145.200000
227.314850	145.100000
227.407516	145.260000
227.500198	146.160000
227.592865	145.920000
227.685532	145.500000
227.778214	145.380000
227.870880	145.660000
227.963562	145.720000
228.056229	146.080000
228.148926	146.240000
228.241592	147.020000
228.334274	146.800000
228.426956	146.480000
228.519638	146.280000
228.612305	145.760000
228.704987	145.340000
228.797668	145.180000
228.890350	144.940000
228.983032	144.580000
229.075714	145.620000
229.168396	145.260000
229.261108	145.360000
229.353790	145.360000
229.446472	145.820000
229.539169	145.620000
229.631851	145.260000
229.724533	145.460000
229.817230	145.800000
229.909912	146.740000
230.002609	146.660000
230.095306	146.940000
230.187988	147.000000
230.280685	146.700000
230.373383	145.420000
230.466095	145.260000
230.558792	145.580000
230.651474	145.300000
230.744171	145.280000
230.836868	145.380000
230.929581	145.520000
231.022278	145.420000
231.114975	145.480000
231.207672	145.340000
231.300369	145.680000
231.393082	145.840000
231.485779	145.640000
231.578506	145.660000
231.671204	145.860000
231.763916	145.920000
231.856613	145.780000
231.949326	146.180000
232.042023	145.960000
232.134735	146.160000
232.227448	145.660000
232.320160	145.700000
232.412872	145.480000
232.505585	146.560000
232.598297	146.560000
232.691010	146.860000
232.783722	146.780000
232.876450	147.220000
232.969162	146.160000
233.061874	145.920000
233.154587	145.500000
233.247314	145.240000
233.340027	144.720000
233.432739	145.140000
233.525467	145.040000
233.618179	145.660000
233.710907	145.620000
233.803635	146.120000
233.896347	145.700000
233.989090	146.240000
234.081818	145.860000
234.174545	146.280000
234.267258	145.780000
234.359985	146.180000
234.452713	146.080000
234.545441	145.800000
234.638168	145.200000
234.730896	145.480000
234.823639	145.300000
234.916367	145.300000
235.009094	145.720000
235.101822	145.960000
235.194580	145.980000
235.287308	145.980000
235.380051	145.240000
235.472778	145.700000
235.565521	146.120000
235.658249	145.800000
235.750992	145.980000
235.843719	146.380000
235.936462	146.220000
236.029205	145.760000
236.121948	145.480000
236.214691	146.020000
236.307449	146.420000
236.400192	146.160000
236.492935	146.120000
236.585678	146.400000
236.678421	145.920000
236.771164	145.860000
236.863907	146.300000
236.956665	146.580000
237.049408	148.220000
237.142151	147.560000
237.234909	148.020000
237.327652	147.660000
237.420410	147.300000
237.513153	146.140000
237.605927	146.220000
237.698669	145.620000
237.791428	145.060000
237.884186	145.740000
237.976944	145.240000
238.069702	145.820000
238.162445	145.020000
238.255203	145.340000
238.347961	145.620000
238.440720	145.760000
238.533478	145.540000
238.626266	145.760000
238.719025	145.820000
238.811783	145.000000
238.904541	144.800000
238.997314	144.460000
239.090073	144.260000
239.182831	144.820000
239.275604	145.700000
239.368362	145.580000
239.461136	145.740000
239.553909	146.060000
239.646667	145.540000
239.739441	144.860000
239.832214	145.420000
239.925003	145.760000
240.017761	146.480000
240.110535	146.980000
240.203308	146.980000
240.296082	146.900000
240.388855	146.700000
240.481628	146.260000
240.574417	146.480000
240.667191	146.500000
240.759964	145.860000
240.852737	146.040000
240.945526	146.060000
241.038315	145.620000
241.131088	145.860000
241.223877	146.400000
241.316650	145.880000
241.409439	146.080000
241.502228	145.360000
241.595001	145.640000
241.687790	145.180000
241.780579	145.400000
241.873367	145.440000
241.966141	146.340000
242.058929	145.820000
242.151718	146.120000
242.244507	146.340000
242.337311	145.460000
242.430099	145.500000
242.522903	145.640000
242.615692	145.540000
242.708481	145.320000
242.801270	146.260000
242.894073	146.020000
242.986862	145.960000
243.079651	146.660000
243.172455	146.480000
243.265244	146.560000
243.358063	146.060000
243.450867	146.120000
243.543655	145.420000
243.636459	145.760000
243.729263	145.420000
243.822067	145.900000
243.914856	146.180000
244.007660	146.440000
244.100464	146.600000
244.193268	146.560000
244.286072	146.400000
244.378876	145.820000
244.471680	145.640000
244.564499	145.580000
244.657318	145.960000
244.750122	145.960000
244.842926	145.640000
244.935745	145.940000
245.028549	145.560000
245.121368	145.100000
245.214172	145.220000
245.306992	145.680000
245.399796	145.400000
245.492615	145.500000
245.585434	145.500000
245.678253	145.460000
245.771072	145.200000
245.863892	145.740000
245.956711	146.060000
246.049530	146.140000
246.142349	145.880000
246.235168	146.220000
246.327988	146.300000
246.420807	146.160000
246.513626	146.100000
246.606445	146.300000
246.699280	146.200000
246.792099	145.760000
246.884918	145.400000
246.977753	145.280000
247.070587	145.040000
247.163422	145.100000
247.256241	145.220000
247.349075	145.520000
247.441895	145.380000
247.534729	145.500000
247.627563	145.160000
247.720383	145.680000
247.813217	145.820000
247.906052	145.720000
247.998886	145.740000
248.091736	145.920000
248.184570	145.460000
248.277405	145.540000
248.370239	146.700000
248.463074	147.560000
248.555908	148.060000
248.648743	147.820000
248.741592	147.660000
248.834427	146.940000
248.927261	145.920000
249.020111	145.960000
249.112946	146.620000
249.205795	146.320000
249.298630	146.400000
249.391495	146.320000
249.484344	145.900000
249.577179	145.460000
249.670029	145.880000
249.762878	146.560000
249.855728	146.760000
249.948563	146.760000
250.041412	146.460000
250.134262	146.700000
250.227112	146.200000
250.319962	146.320000
250.412827	146.320000
250.505692	146.040000
250.598541	145.620000
250.691391	145.440000
250.784241	145.480000
250.877106	146.020000
250.969955	145.820000
251.062805	146.260000
251.155670	146.500000
251.248520	146.460000
251.341385	146.220000
251.434235	146.540000
251.527100	146.060000
251.619965	145.680000
251.712814	146.420000
251.805695	146.420000
251.898560	146.460000
251.991425	146.680000
252.084290	147.220000
252.177155	146.440000
252.270020	145.960000
252.362885	145.920000
252.455750	145.980000
252.548615	145.340000
252.641479	145.240000
252.734360	145.040000
252.827240	145.060000
252.920105	145.160000
253.012970	145.100000
253.105850	145.160000
253.198715	144.880000
253.291595	145.060000
253.384460	144.400000
253.477341	144.400000
253.570221	144.660000
253.663086	145.080000
253.755966	145.640000
253.848846	145.940000
253.941727	146.340000
254.034592	145.980000
254.127472	145.200000
254.220367	144.960000
254.313248	144.880000
254.406128	144.340000
254.499008	144.720000
254.591904	146.020000
254.684784	146.480000
254.777664	147.040000
254.870544	146.760000
254.963440	146.740000
255.056335	146.560000
255.149216	145.780000
255.242111	145.880000
255.334991	146.660000
255.427887	146.580000
255.520767	146.660000
255.613663	147.020000
255.706558	146.360000
255.799438	145.840000
255.892334	145.440000
255.985229	145.220000
256.078125	144.720000
256.171021	144.360000
256.263916	144.820000
256.356812	145.140000
256.449707	145.480000
256.542603	145.560000
256.635498	146.800000
256.728394	146.700000
256.821289	146.420000
256.914215	146.380000
257.007080	146.760000
257.100006	146.080000
257.192932	146.600000
257.285828	147.160000
257.378723	146.840000
257.471619	146.360000
257.564545	146.180000
257.657440	146.060000
257.750336	146.120000
257.843262	146.120000
257.936157	147.180000
258.029053	147.460000
258.121979	147.280000
258.214874	146.760000
258.307800	146.560000
258.400696	145.860000
258.493622	145.880000
258.586517	145.200000
258.679443	145.900000
258.772339	145.700000
258.865265	145.780000
258.958160	145.280000
259.051086	146.560000
259.144012	146.160000
259.236938	146.860000
259.329834	146.820000
259.422791	146.880000
259.515717	145.920000
259.608612	145.440000
259.701538	145.260000
259.794464	144.700000
259.887390	144.800000
259.980316	144.780000
260.073212	144.700000
260.166138	144.060000
260.259064	144.740000
260.351990	145.340000
260.444916	145.400000
260.537842	146.200000
260.630768	147.080000
260.723694	146.680000
260.816620	146.280000
260.909546	146.320000
261.002472	145.760000
261.095398	145.220000
261.188354	145.420000
261.281281	145.160000
261.374207	145.300000
261.467133	145.840000
261.560089	145.960000
261.653015	145.560000
261.745972	146.320000
261.838867	146.340000
261.931824	146.700000
262.024780	146.160000
262.117706	146.580000
262.210663	146.400000
262.303589	146.300000
262.396515	145.700000
262.489471	146.660000
262.582397	146.600000
262.675354	146.220000
262.768280	146.140000
262.861237	146.220000
262.954163	146.140000
263.047119	146.120000
263.140045	145.960000
263.233002	146.220000
263.325958	145.980000
263.418884	145.340000
263.511841	145.520000
263.604797	145.660000
263.697723	145.560000
263.790680	145.700000
263.883636	146.300000
263.976593	145.960000
264.069550	145.840000
264.162476	145.480000
264.255463	145.540000
264.348419	145.360000
264.441376	145.620000
264.534332	145.540000
264.627289	145.940000
264.720245	146.200000
264.813202	145.600000
264.906158	145.760000
264.999115	146.300000
265.092072	146.220000
265.185028	146.540000
265.277985	146.860000
265.370941	146.460000
265.463898	146.000000
265.556854	145.560000
265.649811	144.660000
265.742798	144.920000
265.835754	145.080000
265.928711	145.600000
266.021667	146.040000
266.114655	146.380000
266.207611	146.540000
266.300568	146.220000
266.393585	145.520000
266.486511	145.680000
266.579498	144.880000
266.672485	144.540000
266.765442	144.440000
266.858429	145.300000
266.951385	144.740000
267.044342	145.260000
267.137329	145.260000
267.230316	145.680000
267.323273	145.100000
267.416260	145.920000
267.509216	145.500000
267.602203	145.660000
267.695160	145.960000
267.788147	145.620000
267.881134	144.840000
267.974091	145.620000
268.067078	145.420000
268.160065	145.240000
268.253052	145.520000
268.346008	145.640000
268.438995	145.260000
268.531982	145.400000
268.624969	145.000000
268.717987	145.300000
268.810944	145.340000
268.903961	145.480000
268.996948	145.100000
269.089905	145.760000
269.182892	145.700000
269.275879	146.060000
269.368866	145.180000
269.461853	145.760000
269.554871	145.340000
269.647858	145.320000
269.740845	145.260000
269.833832	146.140000
269.926819	145.520000
270.019806	145.900000
270.112793	145.360000
270.205811	145.320000
270.298798	145.240000
270.391785	146.220000
270.484772	145.740000
270.577789	145.940000
270.670776	145.800000
270.763763	145.740000
270.856750	145.500000
270.949768	145.100000
271.042786	145.220000
271.135773	145.120000
271.228790	145.700000
271.321808	145.180000
271.414795	145.300000
271.507782	145.160000
271.600800	144.900000
271.693817	144.660000
271.786804	145.140000
271.879822	145.160000
271.972809	145.180000
272.065826	145.740000
272.158844	145.300000
272.251831	145.320000
272.344849	145.480000
272.437866	145.020000
272.530853	144.660000
272.623871	144.860000
272.716888	144.160000
272.809906	144.580000
272.902893	144.840000
272.995911	144.560000
273.088928	144.460000
273.181946	144.640000
273.274963	143.840000
273.367981	143.980000
273.460999	144.600000
273.554047	144.900000
273.647003	145.440000
273.740051	146.140000
273.833069	146.560000
273.926086	146.520000
274.019135	146.420000
274.112152	146.120000
274.205170	145.940000
274.298187	145.840000
274.391205	145.120000
274.484222	144.720000
274.577240	144.780000
274.670258	144.740000
274.763306	144.680000
274.856323	145.420000
274.949341	145.660000
275.042358	146.040000
275.135406	145.720000
275.228424	145.740000
275.321442	145.540000
275.414490	145.440000
275.507507	145.560000
275.600525	146.080000
275.693573	145.740000
275.786591	145.560000
275.879669	145.660000
275.972656	145.460000
276.065735	145.300000
276.158752	145.800000
276.251801	146.580000
276.344818	146.880000
276.437866	146.700000
276.530884	146.560000
276.623932	145.860000
276.716980	145.520000
276.809998	145.340000
276.903046	145.340000
276.996094	145.980000
277.089111	146.740000
277.182159	147.260000
277.275208	147.060000
277.368256	147.180000
277.461304	146.920000
277.554321	146.200000
277.647369	145.820000
277.740417	145.860000
277.833466	145.460000
277.926514	145.240000
278.019562	146.160000
278.112610	145.360000
278.205688	145.420000
278.298706	145.800000
278.391785	145.620000
278.484833	145.000000
278.577881	145.100000
278.670929	145.560000
278.763977	145.580000
278.857025	146.180000
278.950073	146.460000
279.043121	146.640000
279.136169	146.320000
279.229248	145.920000
279.322296	145.620000
279.415344	145.420000
279.508392	145.580000
279.601440	145.380000
279.694519	145.420000
279.787567	145.260000
279.880615	145.140000
279.973694	144.980000
280.066742	144.900000
280.159790	145.200000
280.252869	145.360000
280.345917	145.380000
280.438995	145.200000
280.532074	145.400000
280.625122	145.420000
280.718201	146.020000
280.811279	146.180000
280.904327	146.380000
280.997406	146.500000
281.090454	146.340000
281.183533	145.640000
281.276581	145.660000
281.369659	145.440000
281.462738	145.420000
281.555786	145.600000
281.648865	145.500000
281.741943	145.020000
281.835022	145.680000
281.928070	145.540000
282.021149	144.720000
282.114227	144.740000
282.207306	145.140000
282.300385	145.120000
282.393433	145.160000
282.486511	145.800000
282.579590	146.220000
282.672668	146.460000
282.765747	145.900000
282.858856	145.440000
282.951904	145.540000
283.045013	145.220000
283.138062	145.320000
283.231171	145.740000
283.324249	146.640000
283.417328	146.740000
283.510406	146.520000
283.603485	146.340000
283.696564	146.140000
283.789642	145.760000
283.882751	145.400000
283.975830	146.260000
284.068909	145.960000
284.161987	146.420000
284.255066	145.880000
284.348175	146.320000
284.441254	145.580000
284.534332	145.940000
284.627441	145.520000
284.720520	145.640000
284.813599	145.300000
284.906708	145.640000
284.999786	145.000000
285.092896	144.620000
285.185974	145.640000
285.279053	145.240000
285.372192	145.080000
285.465240	145.960000
285.558380	146.420000
285.651459	145.960000
285.744568	146.900000
285.837677	146.760000
285.930756	146.440000
286.023865	146.520000
286.116943	146.240000
286.210052	146.000000
286.303162	146.160000
286.396240	146.100000
286.489349	145.720000
286.582458	146.000000
286.675568	146.180000
286.768646	146.180000
286.861755	146.500000
286.954865	147.220000
287.047974	146.820000
287.141083	146.420000
287.234161	146.000000
287.327271	145.640000
287.420380	145.660000
287.513519	145.380000
287.606598	145.200000
287.699738	145.580000
287.792816	145.560000
287.885956	145.240000
287.979034	145.580000
288.072174	145.700000
288.165283	145.320000
288.258392	145.520000
288.351501	144.980000
288.444611	145.200000
288.537720	145.760000
288.630859	146.060000
288.723969	146.080000
288.817078	146.660000
288.910187	146.340000
289.003296	145.740000
289.096436	145.320000
289.189545	144.780000
289.282654	144.160000
289.375763	144.600000
289.468903	145.060000
289.562012	145.320000
289.655121	145.780000
289.748260	146.160000
289.841400	146.260000
289.934509	145.840000
290.027649	146.180000
290.120728	145.980000
290.213898	145.860000
290.306976	145.600000
290.400146	145.580000
290.493256	144.980000
290.586395	145.340000
290.679535	145.740000
290.772644	145.440000
290.865784	144.780000
290.958893	144.960000
291.052032	144.620000
291.145172	144.440000
291.238281	144.280000
291.331421	144.760000
291.424561	145.240000
291.517670	145.080000
291.610809	145.320000
291.703949	145.680000
291.797089	145.840000
291.890228	145.240000
291.983337	145.360000
292.076477	144.880000
292.169617	145.160000
292.262756	145.460000
292.355927	145.540000
292.449036	145.420000
292.542206	145.980000
292.635315	145.700000
292.728485	145.800000
292.821625	145.680000
292.914764	146.660000
293.007904	146.500000
293.101044	146.840000
293.194183	146.480000
293.287323	146.840000
293.380463	146.180000
293.473602	145.760000
293.566742	145.640000
293.659882	146.180000
293.753021	146.200000
293.846191	146.380000
293.939331	146.420000
294.032471	146.140000
294.125610	145.660000
294.218781	146.200000
294.311920	146.380000
294.405060	146.540000
294.498230	146.640000
294.591370	146.500000
294.684540	145.580000
294.777679	144.760000
294.870850	145.040000
294.963959	144.960000
295.057159	145.020000
295.150299	145.400000
295.243469	145.720000
295.336609	145.000000
295.429779	145.180000
295.522919	145.680000
295.616089	145.640000
295.709229	146.080000
295.802399	146.380000
295.895569	146.140000
295.988708	145.660000
296.081879	145.940000
296.175018	145.180000
296.268188	145.120000
296.361359	145.460000
296.454529	145.800000
296.547668	145.380000
296.640839	145.880000
296.734009	145.780000
296.827179	145.840000
296.920319	145.820000
297.013519	145.680000
297.106659	145.820000
297.199860	146.120000
297.292999	145.920000
297.386200	145.640000
297.479309	145.860000
297.572510	145.340000
297.665680	145.020000
297.758850	145.020000
297.852020	145.100000
297.945190	145.040000
298.038361	144.940000
298.131531	145.920000
298.224701	145.760000
298.317871	145.360000
298.411072	144.940000
298.504242	145.020000
298.597412	144.140000
298.690582	144.360000
298.783752	144.420000
298.876923	145.040000
298.970093	145.300000
299.063293	145.720000
299.156464	146.180000
299.249634	146.360000
299.342834	146.480000
299.436005	146.800000
299.529205	146.540000
299.622345	146.120000
299.715576	145.620000
299.808716	145.160000
299.901917	144.840000
299.995117	145.220000
300.088287	145.400000
300.181488	145.700000
300.274658	145.740000
300.367828	145.700000
300.461029	145.460000
300.554199	145.400000
300.647400	145.740000
300.740601	146.360000
300.833771	146.240000
300.926971	146.320000
301.020142	146.040000
301.113342	145.800000
301.206512	145.560000
301.299713	145.940000
301.392914	146.100000
301.486084	146.500000
301.579285	146.280000
301.672516	146.520000
301.765686	146.080000
301.858887	145.500000
301.952057	145.240000
302.045288	145.440000
302.138458	144.900000
302.231659	145.120000
302.324860	145.280000
302.418060	145.100000
302.511261	145.280000
302.604462	145.760000
302.697662	145.620000
302.790863	145.780000
302.884064	145.560000
302.977264	145.540000
303.070465	145.660000
303.163666	146.200000
303.256866	146.200000
303.350067	146.580000
303.443268	146.640000
303.536469	146.240000
303.629669	145.740000
303.722870	146.040000
303.816071	145.820000
303.909271	145.860000
304.002472	145.460000
304.095673	145.180000
304.188934	144.520000
304.282104	145.400000
304.375336	145.120000
304.468506	145.380000
304.561768	145.620000
304.654968	146.140000
304.748169	145.000000
304.841370	144.820000
304.934601	145.140000
305.027802	144.880000
305.121002	144.540000
305.214233	145.000000
305.307434	145.240000
305.400665	145.600000
305.493866	145.360000
